Raw Data
Time Displacement Force
(s) (mm) (N)
0.0000 0.0000 -0.7260
0.0200 -0.0001 -0.7310
0.0400 -0.0019 -0.7438
0.0600 -0.0093 -0.7427
0.0800 -0.0211 -0.7303
0.1000 -0.0336 -0.7314
0.1200 -0.0464 -0.7270
0.1400 -0.0597 -0.7301
0.1600 -0.0737 -0.7229
0.1800 -0.0878 -0.7234
0.2000 -0.1017 -0.7192
0.2200 -0.1153 -0.7179
0.2400 -0.1287 -0.7155
0.2600 -0.1420 -0.7173
0.2800 -0.1553 -0.7166
0.3000 -0.1686 -0.7126
0.3200 -0.1819 -0.7152
0.3400 -0.1953 -0.7103
0.3600 -0.2086 -0.7108
0.3800 -0.2219 -0.7071
0.4000 -0.2352 -0.7074
0.4200 -0.2486 -0.7030
0.4400 -0.2620 -0.7040
0.4600 -0.2753 -0.7003
0.4800 -0.2886 -0.6988
0.5000 -0.3020 -0.6978
0.5200 -0.3154 -0.6960
0.5400 -0.3287 -0.6941
0.5600 -0.3420 -0.6945
0.5800 -0.3553 -0.6902
0.6000 -0.3687 -0.6858
0.6200 -0.3821 -0.6855
0.6400 -0.3954 -0.6854
0.6600 -0.4087 -0.6826
0.6800 -0.4220 -0.6820
0.7000 -0.4353 -0.6797
0.7200 -0.4486 -0.6779
0.7400 -0.4619 -0.6762
0.7600 -0.4753 -0.6752
0.7800 -0.4886 -0.6726
0.8000 -0.5020 -0.6703
0.8200 -0.5153 -0.6685
0.8400 -0.5286 -0.6656
0.8600 -0.5420 -0.6648
0.8800 -0.5554 -0.6643
0.9000 -0.5687 -0.6638
0.9200 -0.5820 -0.6624
0.9400 -0.5953 -0.6582
0.9600 -0.6087 -0.6567
0.9800 -0.6220 -0.6576
1.0000 -0.6354 -0.6538
1.0200 -0.6487 -0.6538
1.0400 -0.6620 -0.6494
1.0600 -0.6753 -0.6478
1.0800 -0.6886 -0.6471
1.1000 -0.7019 -0.6470
1.1200 -0.7152 -0.6421
1.1400 -0.7286 -0.6420
1.1600 -0.7420 -0.6396
1.1800 -0.7553 -0.6406
1.2000 -0.7686 -0.6399
1.2200 -0.7820 -0.6373
1.2400 -0.7954 -0.6363
1.2600 -0.8087 -0.6324
1.2800 -0.8221 -0.6295
1.3000 -0.8354 -0.6318
1.3200 -0.8487 -0.6301
1.3400 -0.8621 -0.6298
1.3600 -0.8754 -0.6291
1.3800 -0.8887 -0.6265
1.4000 -0.9020 -0.6282
1.4200 -0.9153 -0.6265
1.4400 -0.9286 -0.6241
1.4600 -0.9419 -0.6226
1.4800 -0.9552 -0.6215
1.5000 -0.9686 -0.6194
1.5200 -0.9819 -0.6180
1.5400 -0.9953 -0.6168
1.5600 -1.0086 -0.6160
1.5800 -1.0220 -0.6148
1.6000 -1.0354 -0.6152
1.6200 -1.0487 -0.6103
1.6400 -1.0620 -0.6105
1.6600 -1.0753 -0.6092
1.6800 -1.0887 -0.6064
1.7000 -1.1021 -0.6060
1.7200 -1.1154 -0.6045
1.7400 -1.1287 -0.6020
1.7600 -1.1420 -0.6020
1.7800 -1.1553 -0.6021
1.8000 -1.1686 -0.5980
1.8200 -1.1819 -0.5977
1.8400 -1.1952 -0.5969
1.8600 -1.2086 -0.5946
1.8800 -1.2220 -0.5940
1.9000 -1.2353 -0.5915
1.9200 -1.2487 -0.5900
1.9400 -1.2620 -0.5892
1.9600 -1.2754 -0.5891
1.9800 -1.2887 -0.5882
2.0000 -1.3020 -0.5867
2.0200 -1.3153 -0.5830
2.0400 -1.3287 -0.5817
2.0600 -1.3420 -0.5798
2.0800 -1.3554 -0.5794
2.1000 -1.3687 -0.5757
2.1200 -1.3820 -0.5760
2.1400 -1.3953 -0.5728
2.1600 -1.4087 -0.5724
2.1800 -1.4220 -0.5724
2.2000 -1.4353 -0.5716
2.2200 -1.4486 -0.5670
2.2400 -1.4620 -0.5670
2.2600 -1.4753 -0.5656
2.2800 -1.4886 -0.5657
2.3000 -1.5020 -0.5653
2.3200 -1.5154 -0.5617
2.3400 -1.5287 -0.5602
2.3600 -1.5420 -0.5603
2.3800 -1.5554 -0.5595
2.4000 -1.5687 -0.5564
2.4200 -1.5821 -0.5571
2.4400 -1.5954 -0.5550
2.4600 -1.6087 -0.5539
2.4800 -1.6220 -0.5521
2.5000 -1.6353 -0.5513
2.5200 -1.6486 -0.5493
2.5400 -1.6619 -0.5502
2.5600 -1.6752 -0.5464
2.5800 -1.6886 -0.5463
2.6000 -1.7020 -0.5430
2.6200 -1.7153 -0.5406
2.6400 -1.7286 -0.5386
2.6600 -1.7420 -0.5395
2.6800 -1.7554 -0.5395
2.7000 -1.7687 -0.5363
2.7200 -1.7820 -0.5337
2.7400 -1.7953 -0.5343
2.7600 -1.8087 -0.5324
2.7800 -1.8220 -0.5310
2.8000 -1.8354 -0.5304
2.8200 -1.8487 -0.5296
2.8400 -1.8620 -0.5262
2.8600 -1.8753 -0.5252
2.8800 -1.8887 -0.5231
2.9000 -1.9020 -0.5216
2.9200 -1.9153 -0.5209
2.9400 -1.9286 -0.5203
2.9600 -1.9420 -0.5185
2.9800 -1.9553 -0.5196
3.0000 -1.9686 -0.5168
3.0200 -1.9819 -0.5169
3.0400 -1.9953 -0.5134
3.0600 -2.0087 -0.5136
3.0800 -2.0220 -0.5103
3.1000 -2.0353 -0.5084
3.1200 -2.0487 -0.5083
3.1400 -2.0620 -0.5072
3.1600 -2.0754 -0.5059
3.1800 -2.0887 -0.5058
3.2000 -2.1020 -0.5042
3.2200 -2.1153 -0.5034
3.2400 -2.1287 -0.5025
3.2600 -2.1420 -0.4995
3.2800 -2.1553 -0.5015
3.3000 -2.1686 -0.4985
3.3200 -2.1820 -0.4983
3.3400 -2.1953 -0.4955
3.3600 -2.2086 -0.4975
3.3800 -2.2220 -0.4926
3.4000 -2.2354 -0.4915
3.4200 -2.2487 -0.4887
3.4400 -2.2620 -0.4888
3.4600 -2.2753 -0.4868
3.4800 -2.2887 -0.4859
3.5000 -2.3020 -0.4832
3.5200 -2.3153 -0.4832
3.5400 -2.3286 -0.4827
3.5600 -2.3420 -0.4810
3.5800 -2.3553 -0.4790
3.6000 -2.3687 -0.4772
3.6200 -2.3820 -0.4757
3.6400 -2.3953 -0.4723
3.6600 -2.4086 -0.4741
3.6800 -2.4220 -0.4710
3.7000 -2.4353 -0.4711
3.7200 -2.4487 -0.4701
3.7400 -2.4620 -0.4671
3.7600 -2.4754 -0.4654
3.7800 -2.4887 -0.4651
3.8000 -2.5020 -0.4643
3.8200 -2.5153 -0.4644
3.8400 -2.5287 -0.4623
3.8600 -2.5420 -0.4614
3.8800 -2.5554 -0.4592
3.9000 -2.5687 -0.4580
3.9200 -2.5820 -0.4580
3.9400 -2.5953 -0.4578
3.9600 -2.6086 -0.4570
3.9800 -2.6220 -0.4551
4.0000 -2.6353 -0.4529
4.0200 -2.6486 -0.4525
4.0400 -2.6620 -0.4522
4.0600 -2.6753 -0.4502
4.0800 -2.6887 -0.4488
4.1000 -2.7020 -0.4478
4.1200 -2.7153 -0.4469
4.1400 -2.7287 -0.4474
4.1600 -2.7420 -0.4462
4.1800 -2.7553 -0.4440
4.2000 -2.7686 -0.4445
4.2200 -2.7820 -0.4419
4.2400 -2.7954 -0.4429
4.2600 -2.8087 -0.4424
4.2800 -2.8220 -0.4405
4.3000 -2.8354 -0.4395
4.3200 -2.8487 -0.4387
4.3400 -2.8620 -0.4366
4.3600 -2.8753 -0.4361
4.3800 -2.8886 -0.4343
4.4000 -2.9019 -0.4349
4.4200 -2.9153 -0.4320
4.4400 -2.9286 -0.4322
4.4600 -2.9419 -0.4310
4.4800 -2.9553 -0.4306
4.5000 -2.9687 -0.4305
4.5200 -2.9820 -0.4281
4.5400 -2.9953 -0.4279
4.5600 -3.0087 -0.4299
4.5800 -3.0220 -0.4292
4.6000 -3.0354 -0.4283
4.6200 -3.0487 -0.4258
4.6400 -3.0620 -0.4251
4.6600 -3.0753 -0.4227
4.6800 -3.0886 -0.4227
4.7000 -3.1020 -0.4209
4.7200 -3.1153 -0.4215
4.7400 -3.1286 -0.4226
4.7600 -3.1420 -0.4204
4.7800 -3.1553 -0.4189
4.8000 -3.1687 -0.4170
4.8200 -3.1820 -0.4182
4.8400 -3.1953 -0.4173
4.8600 -3.2087 -0.4164
4.8800 -3.2221 -0.4153
4.9000 -3.2353 -0.4140
4.9200 -3.2487 -0.4129
4.9400 -3.2620 -0.4113
4.9600 -3.2754 -0.4101
4.9800 -3.2887 -0.4128
5.0000 -3.3020 -0.4085
5.0200 -3.3153 -0.4058
5.0400 -3.3287 -0.4056
5.0600 -3.3420 -0.4045
5.0800 -3.3553 -0.4026
5.1000 -3.3686 -0.4043
5.1200 -3.3819 -0.4015
5.1400 -3.3953 -0.4036
5.1600 -3.4086 -0.4005
5.1800 -3.4220 -0.4000
5.2000 -3.4353 -0.3963
5.2200 -3.4487 -0.3986
5.2400 -3.4620 -0.3958
5.2600 -3.4753 -0.3941
5.2800 -3.4887 -0.3917
5.3000 -3.5020 -0.3938
5.3200 -3.5154 -0.3911
5.3400 -3.5287 -0.3937
5.3600 -3.5420 -0.3891
5.3800 -3.5553 -0.3900
5.4000 -3.5687 -0.3852
5.4200 -3.5820 -0.3847
5.4400 -3.5952 -0.3824
5.4600 -3.6086 -0.3843
5.4800 -3.6219 -0.3801
5.5000 -3.6353 -0.3809
5.5200 -3.6486 -0.3803
5.5400 -3.6619 -0.3784
5.5600 -3.6753 -0.3768
5.5800 -3.6887 -0.3766
5.6000 -3.7021 -0.3742
5.6200 -3.7154 -0.3742
5.6400 -3.7287 -0.3737
5.6600 -3.7421 -0.3715
5.6800 -3.7554 -0.3716
5.7000 -3.7687 -0.3683
5.7200 -3.7820 -0.3688
5.7400 -3.7953 -0.3679
5.7600 -3.8087 -0.3701
5.7800 -3.8220 -0.3663
5.8000 -3.8353 -0.3647
5.8200 -3.8486 -0.3644
5.8400 -3.8620 -0.3629
5.8600 -3.8753 -0.3611
5.8800 -3.8886 -0.3608
5.9000 -3.9019 -0.3571
5.9200 -3.9153 -0.3576
5.9400 -3.9287 -0.3570
5.9600 -3.9420 -0.3573
5.9800 -3.9553 -0.3559
6.0000 -3.9686 -0.3548
6.0200 -3.9820 -0.3534
6.0400 -3.9954 -0.3519
6.0600 -4.0087 -0.3526
6.0800 -4.0220 -0.3498
6.1000 -4.0354 -0.3459
6.1200 -4.0487 -0.3487
6.1400 -4.0620 -0.3465
6.1600 -4.0753 -0.3467
6.1800 -4.0886 -0.3448
6.2000 -4.1020 -0.3477
6.2200 -4.1153 -0.3435
6.2400 -4.1286 -0.3457
6.2600 -4.1419 -0.3430
6.2800 -4.1553 -0.3415
6.3000 -4.1687 -0.3415
6.3200 -4.1820 -0.3395
6.3400 -4.1953 -0.3374
6.3600 -4.2086 -0.3377
6.3800 -4.2220 -0.3370
6.4000 -4.2354 -0.3374
6.4200 -4.2487 -0.3389
6.4400 -4.2620 -0.3362
6.4600 -4.2754 -0.3331
6.4800 -4.2887 -0.3325
6.5000 -4.3020 -0.3299
6.5200 -4.3153 -0.3298
6.5400 -4.3286 -0.3301
6.5600 -4.3420 -0.3291
6.5800 -4.3553 -0.3264
6.6000 -4.3686 -0.3271
6.6200 -4.3819 -0.3244
6.6400 -4.3953 -0.3225
6.6600 -4.4087 -0.3266
6.6800 -4.4220 -0.3215
6.7000 -4.4354 -0.3208
6.7200 -4.4487 -0.3223
6.7400 -4.4620 -0.3201
6.7600 -4.4754 -0.3192
6.7800 -4.4887 -0.3203
6.8000 -4.5020 -0.3172
6.8200 -4.5153 -0.3141
6.8400 -4.5286 -0.3144
6.8600 -4.5419 -0.3130
6.8800 -4.5553 -0.3110
6.9000 -4.5686 -0.3135
6.9200 -4.5819 -0.3094
6.9400 -4.5953 -0.3093
6.9600 -4.6087 -0.3106
6.9800 -4.6220 -0.3097
7.0000 -4.6353 -0.3077
7.0200 -4.6487 -0.3073
7.0400 -4.6621 -0.3047
7.0600 -4.6753 -0.3045
7.0800 -4.6886 -0.3050
7.1000 -4.7020 -0.3027
7.1200 -4.7154 -0.3037
7.1400 -4.7287 -0.3022
7.1600 -4.7420 -0.3005
7.1800 -4.7553 -0.2985
7.2000 -4.7687 -0.2997
7.2200 -4.7820 -0.2985
7.2400 -4.7953 -0.2970
7.2600 -4.8086 -0.2974
7.2800 -4.8220 -0.2961
7.3000 -4.8353 -0.2947
7.3200 -4.8486 -0.2942
7.3400 -4.8619 -0.2927
7.3600 -4.8753 -0.2903
7.3800 -4.8887 -0.2924
7.4000 -4.9020 -0.2887
7.4200 -4.9153 -0.2898
7.4400 -4.9287 -0.2892
7.4600 -4.9420 -0.2874
7.4800 -4.9554 -0.2842
7.5000 -4.9687 -0.2839
7.5200 -4.9820 -0.2848
7.5400 -4.9953 -0.2819
7.5600 -5.0087 -0.2825
7.5800 -5.0220 -0.2820
7.6000 -5.0353 -0.2805
7.6200 -5.0486 -0.2802
7.6400 -5.0619 -0.2811
7.6600 -5.0753 -0.2764
7.6800 -5.0887 -0.2762
7.7000 -5.1020 -0.2745
7.7200 -5.1153 -0.2743
7.7400 -5.1287 -0.2762
7.7600 -5.1421 -0.2739
7.7800 -5.1554 -0.2731
7.8000 -5.1687 -0.2726
7.8200 -5.1820 -0.2721
7.8400 -5.1954 -0.2693
7.8600 -5.2087 -0.2684
7.8800 -5.2220 -0.2677
7.9000 -5.2353 -0.2660
7.9200 -5.2486 -0.2646
7.9400 -5.2620 -0.2671
7.9600 -5.2753 -0.2630
7.9800 -5.2886 -0.2661
8.0000 -5.3019 -0.2626
8.0200 -5.3153 -0.2626
8.0400 -5.3287 -0.2624
8.0600 -5.3420 -0.2609
8.0800 -5.3553 -0.2587
8.1000 -5.3687 -0.2619
8.1200 -5.3820 -0.2601
8.1400 -5.3953 -0.2571
8.1600 -5.4087 -0.2583
8.1800 -5.4220 -0.2561
8.2000 -5.4354 -0.2551
8.2200 -5.4487 -0.2556
8.2400 -5.4620 -0.2553
8.2600 -5.4753 -0.2540
8.2800 -5.4886 -0.2536
8.3000 -5.5020 -0.2537
8.3200 -5.5153 -0.2508
8.3400 -5.5286 -0.2535
8.3600 -5.5419 -0.2520
8.3800 -5.5553 -0.2494
8.4000 -5.5686 -0.2481
8.4200 -5.5820 -0.2504
8.4400 -5.5953 -0.2470
8.4600 -5.6087 -0.2479
8.4800 -5.6221 -0.2477
8.5000 -5.6354 -0.2441
8.5200 -5.6487 -0.2453
8.5400 -5.6620 -0.2419
8.5600 -5.6754 -0.2428
8.5800 -5.6887 -0.2402
8.6000 -5.7020 -0.2412
8.6200 -5.7153 -0.2363
8.6400 -5.7287 -0.2373
8.6600 -5.7420 -0.2354
8.6800 -5.7553 -0.2364
8.7000 -5.7686 -0.2336
8.7200 -5.7819 -0.2347
8.7400 -5.7953 -0.2298
8.7600 -5.8086 -0.2290
8.7800 -5.8219 -0.2314
8.8000 -5.8353 -0.2288
8.8200 -5.8487 -0.2307
8.8400 -5.8621 -0.2295
8.8600 -5.8754 -0.2276
8.8800 -5.8887 -0.2258
8.9000 -5.9020 -0.2266
8.9200 -5.9154 -0.2259
8.9400 -5.9287 -0.2241
8.9600 -5.9420 -0.2240
8.9800 -5.9553 -0.2199
9.0000 -5.9687 -0.2216
9.0200 -5.9820 -0.2204
9.0400 -5.9953 -0.2205
9.0600 -6.0086 -0.2177
9.0800 -6.0219 -0.2177
9.1000 -6.0353 -0.2163
9.1200 -6.0487 -0.2153
9.1400 -6.0620 -0.2148
9.1600 -6.0753 -0.2151
9.1800 -6.0887 -0.2147
9.2000 -6.1020 -0.2146
9.2200 -6.1153 -0.2129
9.2400 -6.1286 -0.2124
9.2600 -6.1419 -0.2138
9.2800 -6.1553 -0.2082
9.3000 -6.1687 -0.2095
9.3200 -6.1820 -0.2083
9.3400 -6.1953 -0.2068
9.3600 -6.2087 -0.2083
9.3800 -6.2220 -0.2064
9.4000 -6.2353 -0.2062
9.4200 -6.2486 -0.2044
9.4400 -6.2620 -0.2056
9.4600 -6.2753 -0.2038
9.4800 -6.2886 -0.2040
9.5000 -6.3019 -0.2026
9.5200 -6.3153 -0.2014
9.5400 -6.3287 -0.2006
9.5600 -6.3421 -0.2008
9.5800 -6.3554 -0.1976
9.6000 -6.3687 -0.1968
9.6200 -6.3820 -0.1985
9.6400 -6.3954 -0.1945
9.6600 -6.4087 -0.1941
9.6800 -6.4220 -0.1923
9.7000 -6.4353 -0.1921
9.7200 -6.4487 -0.1904
9.7400 -6.4620 -0.1907
9.7600 -6.4753 -0.1868
9.7800 -6.4886 -0.1888
9.8000 -6.5019 -0.1902
9.8200 -6.5153 -0.1855
9.8400 -6.5287 -0.1846
9.8600 -6.5420 -0.1883
9.8800 -6.5553 -0.1837
9.9000 -6.5687 -0.1840
9.9200 -6.5820 -0.1840
9.9400 -6.5954 -0.1829
9.9600 -6.6087 -0.1826
9.9800 -6.6220 -0.1831
10.0000 -6.6354 -0.1804
10.0200 -6.6487 -0.1794
10.0400 -6.6620 -0.1819
10.0600 -6.6753 -0.1784
10.0800 -6.6887 -0.1778
10.1000 -6.7020 -0.1779
10.1200 -6.7154 -0.1767
10.1400 -6.7286 -0.1758
10.1600 -6.7419 -0.1757
10.1800 -6.7553 -0.1726
10.2000 -6.7687 -0.1742
10.2200 -6.7820 -0.1724
10.2400 -6.7953 -0.1729
10.2600 -6.8086 -0.1709
10.2800 -6.8220 -0.1730
10.3000 -6.8354 -0.1698
10.3200 -6.8487 -0.1693
10.3400 -6.8620 -0.1688
10.3600 -6.8753 -0.1658
10.3800 -6.8887 -0.1656
10.4000 -6.9020 -0.1661
10.4200 -6.9153 -0.1621
10.4400 -6.9287 -0.1621
10.4600 -6.9420 -0.1633
10.4800 -6.9554 -0.1596
10.5000 -6.9686 -0.1601
10.5200 -6.9819 -0.1603
10.5400 -6.9953 -0.1589
10.5600 -7.0086 -0.1551
10.5800 -7.0220 -0.1549
10.6000 -7.0353 -0.1524
10.6200 -7.0487 -0.1530
10.6400 -7.0621 -0.1532
10.6600 -7.0754 -0.1492
10.6800 -7.0887 -0.1502
10.7000 -7.1020 -0.1511
10.7200 -7.1153 -0.1488
10.7400 -7.1287 -0.1486
10.7600 -7.1420 -0.1496
10.7800 -7.1553 -0.1477
10.8000 -7.1686 -0.1460
10.8200 -7.1820 -0.1457
10.8400 -7.1953 -0.1450
10.8600 -7.2086 -0.1453
10.8800 -7.2219 -0.1453
10.9000 -7.2353 -0.1420
10.9200 -7.2487 -0.1413
10.9400 -7.2620 -0.1421
10.9600 -7.2753 -0.1382
10.9800 -7.2887 -0.1395
11.0000 -7.3020 -0.1412
11.0200 -7.3154 -0.1386
11.0400 -7.3287 -0.1362
11.0600 -7.3420 -0.1381
11.0800 -7.3553 -0.1366
11.1000 -7.3687 -0.1354
11.1200 -7.3820 -0.1378
11.1400 -7.3953 -0.1361
11.1600 -7.4086 -0.1353
11.1800 -7.4220 -0.1355
11.2000 -7.4353 -0.1307
11.2200 -7.4486 -0.1330
11.2400 -7.4619 -0.1316
11.2600 -7.4753 -0.1301
11.2800 -7.4887 -0.1282
11.3000 -7.5020 -0.1294
11.3200 -7.5153 -0.1294
11.3400 -7.5287 -0.1282
11.3600 -7.5420 -0.1278
11.3800 -7.5554 -0.1259
11.4000 -7.5687 -0.1227
11.4200 -7.5820 -0.1264
11.4400 -7.5953 -0.1248
11.4600 -7.6087 -0.1227
11.4800 -7.6220 -0.1244
11.5000 -7.6354 -0.1198
11.5200 -7.6487 -0.1189
11.5400 -7.6620 -0.1177
11.5600 -7.6754 -0.1180
11.5800 -7.6886 -0.1171
11.6000 -7.7019 -0.1180
11.6200 -7.7153 -0.1147
11.6400 -7.7286 -0.1131
11.6600 -7.7419 -0.1137
11.6800 -7.7553 -0.1141
11.7000 -7.7686 -0.1118
11.7200 -7.7820 -0.1116
11.7400 -7.7954 -0.1094
11.7600 -7.8087 -0.1093
11.7800 -7.8220 -0.1110
11.8000 -7.8354 -0.1081
11.8200 -7.8488 -0.1077
11.8400 -7.8621 -0.1087
11.8600 -7.8753 -0.1061
11.8800 -7.8886 -0.1052
11.9000 -7.9020 -0.1044
11.9200 -7.9153 -0.1037
11.9400 -7.9286 -0.1027
11.9600 -7.9419 -0.1045
11.9800 -7.9553 -0.1050
12.0000 -7.9687 -0.1021
12.0200 -7.9820 -0.1040
12.0400 -7.9953 -0.0996
12.0600 -8.0087 -0.0985
12.0800 -8.0220 -0.0989
12.1000 -8.0354 -0.0986
12.1200 -8.0487 -0.0959
12.1400 -8.0620 -0.0950
12.1600 -8.0753 -0.0951
12.1800 -8.0887 -0.0937
12.2000 -8.1020 -0.0962
12.2200 -8.1153 -0.0965
12.2400 -8.1286 -0.0915
12.2600 -8.1420 -0.0940
12.2800 -8.1554 -0.0925
12.3000 -8.1686 -0.0898
12.3200 -8.1819 -0.0913
12.3400 -8.1953 -0.0898
12.3600 -8.2086 -0.0874
12.3800 -8.2220 -0.0880
12.4000 -8.2353 -0.0866
12.4200 -8.2486 -0.0839
12.4400 -8.2620 -0.0843
12.4600 -8.2754 -0.0824
12.4800 -8.2887 -0.0815
12.5000 -8.3020 -0.0836
12.5200 -8.3154 -0.0822
12.5400 -8.3287 -0.0808
12.5600 -8.3420 -0.0808
12.5800 -8.3553 -0.0806
12.6000 -8.3687 -0.0767
12.6200 -8.3820 -0.0782
12.6400 -8.3953 -0.0755
12.6600 -8.4086 -0.0751
12.6800 -8.4219 -0.0768
12.7000 -8.4352 -0.0750
12.7200 -8.4486 -0.0737
12.7400 -8.4620 -0.0729
12.7600 -8.4753 -0.0726
12.7800 -8.4886 -0.0682
12.8000 -8.5020 -0.0695
12.8200 -8.5154 -0.0654
12.8400 -8.5287 -0.0660
12.8600 -8.5420 -0.0662
12.8800 -8.5553 -0.0684
12.9000 -8.5687 -0.0620
12.9200 -8.5821 -0.0653
12.9400 -8.5954 -0.0628
12.9600 -8.6087 -0.0627
12.9800 -8.6220 -0.0612
13.0000 -8.6354 -0.0618
13.0200 -8.6487 -0.0567
13.0400 -8.6620 -0.0603
13.0600 -8.6753 -0.0578
13.0800 -8.6886 -0.0567
13.1000 -8.7020 -0.0569
13.1200 -8.7153 -0.0554
13.1400 -8.7286 -0.0542
13.1600 -8.7420 -0.0565
13.1800 -8.7554 -0.0548
13.2000 -8.7687 -0.0529
13.2200 -8.7820 -0.0551
13.2400 -8.7953 -0.0543
13.2600 -8.8087 -0.0535
13.2800 -8.8221 -0.0521
13.3000 -8.8354 -0.0519
13.3200 -8.8487 -0.0502
13.3400 -8.8620 -0.0499
13.3600 -8.8754 -0.0504
13.3800 -8.8887 -0.0491
13.4000 -8.9020 -0.0502
13.4200 -8.9153 -0.0490
13.4400 -8.9286 -0.0453
13.4600 -8.9420 -0.0450
13.4800 -8.9553 -0.0456
13.5000 -8.9686 -0.0442
13.5200 -8.9820 -0.0419
13.5400 -8.9954 -0.0423
13.5600 -9.0087 -0.0404
13.5800 -9.0220 -0.0433
13.6000 -9.0353 -0.0424
13.6200 -9.0487 -0.0399
13.6400 -9.0621 -0.0409
13.6600 -9.0754 -0.0396
13.6800 -9.0887 -0.0354
13.7000 -9.1020 -0.0355
13.7200 -9.1154 -0.0355
13.7400 -9.1287 -0.0346
13.7600 -9.1419 -0.0336
13.7800 -9.1553 -0.0344
13.8000 -9.1686 -0.0296
13.8200 -9.1820 -0.0305
13.8400 -9.1953 -0.0293
13.8600 -9.2086 -0.0266
13.8800 -9.2220 -0.0272
13.9000 -9.2354 -0.0279
13.9200 -9.2487 -0.0249
13.9400 -9.2620 -0.0266
13.9600 -9.2754 -0.0252
13.9800 -9.2887 -0.0243
14.0000 -9.3021 -0.0237
14.0200 -9.3154 -0.0251
14.0400 -9.3286 -0.0223
14.0600 -9.3419 -0.0215
14.0800 -9.3553 -0.0192
14.1000 -9.3686 -0.0186
14.1200 -9.3819 -0.0201
14.1400 -9.3953 -0.0194
14.1600 -9.4086 -0.0170
14.1800 -9.4220 -0.0181
14.2000 -9.4353 -0.0172
14.2200 -9.4486 -0.0153
14.2400 -9.4620 -0.0157
14.2600 -9.4754 -0.0154
14.2800 -9.4887 -0.0131
14.3000 -9.5020 -0.0115
14.3200 -9.5153 -0.0129
14.3400 -9.5287 -0.0094
14.3600 -9.5421 -0.0102
14.3800 -9.5554 -0.0097
14.4000 -9.5687 -0.0085
14.4200 -9.5820 -0.0088
14.4400 -9.5954 -0.0101
14.4600 -9.6087 -0.0049
14.4800 -9.6220 -0.0080
14.5000 -9.6353 -0.0046
14.5200 -9.6486 -0.0039
14.5400 -9.6620 -0.0016
14.5600 -9.6753 -0.0031
14.5800 -9.6886 -0.0018
14.6000 -9.7020 -0.0007
14.6200 -9.7154 0.0010
14.6400 -9.7287 0.0035
14.6600 -9.7420 0.0007
14.6800 -9.7553 0.0003
14.7000 -9.7687 0.0023
14.7200 -9.7820 0.0044
14.7400 -9.7954 0.0037
14.7600 -9.8087 0.0069
14.7800 -9.8220 0.0043
14.8000 -9.8353 0.0054
14.8200 -9.8487 0.0087
14.8400 -9.8619 0.0109
14.8600 -9.8752 0.0074
14.8800 -9.8886 0.0090
14.9000 -9.9020 0.0094
14.9200 -9.9153 0.0094
14.9400 -9.9287 0.0123
14.9600 -9.9420 0.0119
14.9800 -9.9554 0.0116
15.0000 -9.9687 0.0147
15.0200 -9.9820 0.0158
15.0400 -9.9953 0.0151
15.0600 -10.0087 0.0180
15.0800 -10.0220 0.0168
15.1000 -10.0353 0.0180
15.1200 -10.0486 0.0189
15.1400 -10.0620 0.0198
15.1600 -10.0753 0.0189
15.1800 -10.0886 0.0216
15.2000 -10.1019 0.0219
15.2200 -10.1153 0.0201
15.2400 -10.1286 0.0243
15.2600 -10.1420 0.0223
15.2800 -10.1553 0.0226
15.3000 -10.1686 0.0247
15.3200 -10.1820 0.0256
15.3400 -10.1954 0.0254
15.3600 -10.2087 0.0271
15.3800 -10.2220 0.0284
15.4000 -10.2353 0.0274
15.4200 -10.2487 0.0286
15.4400 -10.2621 0.0296
15.4600 -10.2754 0.0304
15.4800 -10.2887 0.0319
15.5000 -10.3020 0.0324
15.5200 -10.3153 0.0315
15.5400 -10.3287 0.0351
15.5600 -10.3419 0.0353
15.5800 -10.3552 0.0333
15.6000 -10.3686 0.0347
15.6200 -10.3820 0.0359
15.6400 -10.3953 0.0353
15.6600 -10.4086 0.0387
15.6800 -10.4220 0.0382
15.7000 -10.4354 0.0375
15.7200 -10.4487 0.0408
15.7400 -10.4620 0.0412
15.7600 -10.4754 0.0393
15.7800 -10.4887 0.0438
15.8000 -10.5021 0.0408
15.8200 -10.5154 0.0425
15.8400 -10.5287 0.0447
15.8600 -10.5420 0.0482
15.8800 -10.5553 0.0452
15.9000 -10.5687 0.0477
15.9200 -10.5819 0.0474
15.9400 -10.5952 0.0484
15.9600 -10.6086 0.0494
15.9800 -10.6219 0.0515
16.0000 -10.6353 0.0490
16.0200 -10.6486 0.0528
16.0400 -10.6620 0.0539
16.0600 -10.6754 0.0526
16.0800 -10.6887 0.0537
16.1000 -10.7020 0.0538
16.1200 -10.7153 0.0544
16.1400 -10.7287 0.0572
16.1600 -10.7420 0.0585
16.1800 -10.7554 0.0583
16.2000 -10.7687 0.0611
16.2200 -10.7820 0.0607
16.2400 -10.7953 0.0599
16.2600 -10.8086 0.0622
16.2800 -10.8219 0.0632
16.3000 -10.8352 0.0637
16.3200 -10.8486 0.0651
16.3400 -10.8620 0.0646
16.3600 -10.8753 0.0654
16.3800 -10.8886 0.0658
16.4000 -10.9020 0.0661
16.4200 -10.9154 0.0665
16.4400 -10.9287 0.0698
16.4600 -10.9420 0.0691
16.4800 -10.9553 0.0683
16.5000 -10.9686 0.0704
16.5200 -10.9820 0.0713
16.5400 -10.9954 0.0709
16.5600 -11.0087 0.0738
16.5800 -11.0220 0.0740
16.6000 -11.0353 0.0761
16.6200 -11.0487 0.0761
16.6400 -11.0620 0.0775
16.6600 -11.0753 0.0749
16.6800 -11.0886 0.0788
16.7000 -11.1020 0.0775
16.7200 -11.1153 0.0792
16.7400 -11.1286 0.0804
16.7600 -11.1420 0.0807
16.7800 -11.1554 0.0777
16.8000 -11.1688 0.0827
16.8200 -11.1821 0.0823
16.8400 -11.1954 0.0825
16.8600 -11.2087 0.0817
16.8800 -11.2221 0.0834
16.9000 -11.2354 0.0842
16.9200 -11.2487 0.0858
16.9400 -11.2620 0.0864
16.9600 -11.2753 0.0853
16.9800 -11.2887 0.0866
17.0000 -11.3020 0.0878
17.0200 -11.3153 0.0878
17.0400 -11.3286 0.0893
17.0600 -11.3420 0.0917
17.0800 -11.3553 0.0903
17.1000 -11.3686 0.0934
17.1200 -11.3820 0.0945
17.1400 -11.3953 0.0938
17.1600 -11.4087 0.0938
17.1800 -11.4220 0.0933
17.2000 -11.4353 0.0910
17.2200 -11.4487 0.0950
17.2400 -11.4621 0.0979
17.2600 -11.4754 0.0959
17.2800 -11.4887 0.0996
17.3000 -11.5020 0.0998
17.3200 -11.5153 0.0990
17.3400 -11.5287 0.1011
17.3600 -11.5420 0.1022
17.3800 -11.5553 0.1017
17.4000 -11.5686 0.1035
17.4200 -11.5820 0.1031
17.4400 -11.5953 0.1053
17.4600 -11.6086 0.1055
17.4800 -11.6219 0.1065
17.5000 -11.6353 0.1049
17.5200 -11.6487 0.1065
17.5400 -11.6620 0.1094
17.5600 -11.6753 0.1086
17.5800 -11.6886 0.1090
17.6000 -11.7020 0.1104
17.6200 -11.7154 0.1095
17.6400 -11.7287 0.1119
17.6600 -11.7420 0.1125
17.6800 -11.7554 0.1104
17.7000 -11.7687 0.1126
17.7200 -11.7820 0.1127
17.7400 -11.7953 0.1140
17.7600 -11.8086 0.1151
17.7800 -11.8220 0.1162
17.8000 -11.8353 0.1159
17.8200 -11.8486 0.1174
17.8400 -11.8620 0.1187
17.8600 -11.8753 0.1187
17.8800 -11.8887 0.1186
17.9000 -11.9020 0.1204
17.9200 -11.9153 0.1191
17.9400 -11.9287 0.1206
17.9600 -11.9420 0.1250
17.9800 -11.9553 0.1257
18.0000 -11.9687 0.1247
18.0200 -11.9820 0.1270
18.0400 -11.9953 0.1271
18.0600 -12.0087 0.1265
18.0800 -12.0220 0.1287
18.1000 -12.0353 0.1275
18.1200 -12.0486 0.1293
18.1400 -12.0620 0.1304
18.1600 -12.0754 0.1297
18.1800 -12.0887 0.1300
18.2000 -12.1020 0.1320
18.2200 -12.1153 0.1341
18.2400 -12.1287 0.1343
18.2600 -12.1420 0.1353
18.2800 -12.1553 0.1356
18.3000 -12.1686 0.1346
18.3200 -12.1820 0.1338
18.3400 -12.1954 0.1364
18.3600 -12.2087 0.1375
18.3800 -12.2220 0.1414
18.4000 -12.2353 0.1387
18.4200 -12.2487 0.1409
18.4400 -12.2620 0.1395
18.4600 -12.2753 0.1431
18.4800 -12.2886 0.1415
18.5000 -12.3020 0.1458
18.5200 -12.3153 0.1447
18.5400 -12.3287 0.1456
18.5600 -12.3420 0.1456
18.5800 -12.3553 0.1467
18.6000 -12.3687 0.1447
18.6200 -12.3820 0.1497
18.6400 -12.3953 0.1474
18.6600 -12.4087 0.1496
18.6800 -12.4220 0.1506
18.7000 -12.4354 0.1502
18.7200 -12.4487 0.1511
18.7400 -12.4620 0.1525
18.7600 -12.4754 0.1516
18.7800 -12.4887 0.1543
18.8000 -12.5020 0.1549
18.8200 -12.5153 0.1562
18.8400 -12.5286 0.1556
18.8600 -12.5419 0.1579
18.8800 -12.5553 0.1578
18.9000 -12.5686 0.1572
18.9200 -12.5819 0.1609
18.9400 -12.5953 0.1590
18.9600 -12.6087 0.1611
18.9800 -12.6220 0.1626
19.0000 -12.6354 0.1638
19.0200 -12.6487 0.1659
19.0400 -12.6621 0.1670
19.0600 -12.6754 0.1685
19.0800 -12.6887 0.1673
19.1000 -12.7020 0.1686
19.1200 -12.7153 0.1687
19.1400 -12.7286 0.1665
19.1600 -12.7420 0.1712
19.1800 -12.7553 0.1697
19.2000 -12.7686 0.1722
19.2200 -12.7820 0.1742
19.2400 -12.7953 0.1742
19.2600 -12.8087 0.1731
19.2800 -12.8220 0.1752
19.3000 -12.8353 0.1747
19.3200 -12.8487 0.1772
19.3400 -12.8621 0.1769
19.3600 -12.8754 0.1783
19.3800 -12.8887 0.1754
19.4000 -12.9020 0.1799
19.4200 -12.9154 0.1803
19.4400 -12.9287 0.1822
19.4600 -12.9420 0.1827
19.4800 -12.9553 0.1823
19.5000 -12.9687 0.1806
19.5200 -12.9820 0.1840
19.5400 -12.9953 0.1836
19.5600 -13.0086 0.1842
19.5800 -13.0219 0.1868
19.6000 -13.0353 0.1898
19.6200 -13.0486 0.1894
19.6400 -13.0620 0.1911
19.6600 -13.0753 0.1907
19.6800 -13.0887 0.1897
19.7000 -13.1020 0.1922
19.7200 -13.1153 0.1907
19.7400 -13.1287 0.1928
19.7600 -13.1420 0.1952
19.7800 -13.1554 0.1957
19.8000 -13.1687 0.1947
19.8200 -13.1820 0.1962
19.8400 -13.1953 0.1925
19.8600 -13.2087 0.1952
19.8800 -13.2220 0.1962
19.9000 -13.2353 0.1972
19.9200 -13.2486 0.1962
19.9400 -13.2619 0.2002
19.9600 -13.2753 0.2012
19.9800 -13.2886 0.2022
20.0000 -13.3019 0.2032
20.0200 -13.3153 0.2028
20.0400 -13.3287 0.2045
20.0600 -13.3421 0.2063
20.0800 -13.3554 0.2055
20.1000 -13.3687 0.2052
20.1200 -13.3820 0.2063
20.1400 -13.3954 0.2084
20.1600 -13.4087 0.2087
20.1800 -13.4220 0.2110
20.2000 -13.4353 0.2130
20.2200 -13.4487 0.2145
20.2400 -13.4620 0.2157
20.2600 -13.4753 0.2153
20.2800 -13.4886 0.2153
20.3000 -13.5020 0.2174
20.3200 -13.5153 0.2188
20.3400 -13.5286 0.2191
20.3600 -13.5420 0.2179
20.3800 -13.5553 0.2191
20.4000 -13.5687 0.2192
20.4200 -13.5820 0.2210
20.4400 -13.5953 0.2217
20.4600 -13.6086 0.2227
20.4800 -13.6220 0.2243
20.5000 -13.6354 0.2267
20.5200 -13.6487 0.2224
20.5400 -13.6620 0.2233
20.5600 -13.6753 0.2253
20.5800 -13.6887 0.2282
20.6000 -13.7020 0.2293
20.6200 -13.7153 0.2295
20.6400 -13.7286 0.2276
20.6600 -13.7419 0.2300
20.6800 -13.7553 0.2314
20.7000 -13.7686 0.2293
20.7200 -13.7819 0.2334
20.7400 -13.7953 0.2355
20.7600 -13.8087 0.2340
20.7800 -13.8220 0.2343
20.8000 -13.8353 0.2346
20.8200 -13.8486 0.2339
20.8400 -13.8620 0.2395
20.8600 -13.8754 0.2385
20.8800 -13.8887 0.2393
20.9000 -13.9020 0.2398
20.9200 -13.9154 0.2410
20.9400 -13.9287 0.2417
20.9600 -13.9420 0.2422
20.9800 -13.9553 0.2431
21.0000 -13.9686 0.2439
21.0200 -13.9819 0.2439
21.0400 -13.9953 0.2462
21.0600 -14.0086 0.2469
21.0800 -14.0219 0.2482
21.1000 -14.0353 0.2519
21.1200 -14.0487 0.2505
21.1400 -14.0621 0.2527
21.1600 -14.0754 0.2532
21.1800 -14.0887 0.2539
21.2000 -14.1020 0.2543
21.2200 -14.1154 0.2555
21.2400 -14.1287 0.2534
21.2600 -14.1420 0.2546
21.2800 -14.1553 0.2566
21.3000 -14.1686 0.2562
21.3200 -14.1820 0.2575
21.3400 -14.1953 0.2584
21.3600 -14.2086 0.2584
21.3800 -14.2219 0.2593
21.4000 -14.2353 0.2593
21.4200 -14.2487 0.2608
21.4400 -14.2620 0.2600
21.4600 -14.2753 0.2624
21.4800 -14.2887 0.2629
21.5000 -14.3020 0.2645
21.5200 -14.3153 0.2643
21.5400 -14.3286 0.2633
21.5600 -14.3420 0.2663
21.5800 -14.3554 0.2671
21.6000 -14.3687 0.2676
21.6200 -14.3820 0.2662
21.6400 -14.3954 0.2680
21.6600 -14.4087 0.2685
21.6800 -14.4220 0.2723
21.7000 -14.4353 0.2724
21.7200 -14.4486 0.2743
21.7400 -14.4619 0.2715
21.7600 -14.4753 0.2749
21.7800 -14.4886 0.2747
21.8000 -14.5019 0.2769
21.8200 -14.5153 0.2773
21.8400 -14.5287 0.2784
21.8600 -14.5420 0.2810
21.8800 -14.5553 0.2812
21.9000 -14.5686 0.2820
21.9200 -14.5820 0.2837
21.9400 -14.5953 0.2856
21.9600 -14.6087 0.2856
21.9800 -14.6220 0.2868
22.0000 -14.6353 0.2879
22.0200 -14.6487 0.2877
22.0400 -14.6620 0.2883
22.0600 -14.6753 0.2885
22.0800 -14.6886 0.2878
22.1000 -14.7019 0.2899
22.1200 -14.7153 0.2922
22.1400 -14.7287 0.2920
22.1600 -14.7420 0.2935
22.1800 -14.7553 0.2936
22.2000 -14.7687 0.2943
22.2200 -14.7821 0.2959
22.2400 -14.7954 0.2959
22.2600 -14.8087 0.2977
22.2800 -14.8220 0.2976
22.3000 -14.8354 0.2993
22.3200 -14.8487 0.2990
22.3400 -14.8620 0.2999
22.3600 -14.8753 0.3012
22.3800 -14.8887 0.3007
22.4000 -14.9020 0.3029
22.4200 -14.9153 0.3050
22.4400 -14.9286 0.3053
22.4600 -14.9419 0.3057
22.4800 -14.9553 0.3080
22.5000 -14.9687 0.3089
22.5200 -14.9820 0.3085
22.5400 -14.9953 0.3110
22.5600 -15.0087 0.3097
22.5800 -15.0221 0.3097
22.6000 -15.0354 0.3099
22.6200 -15.0487 0.3120
22.6400 -15.0620 0.3122
22.6600 -15.0754 0.3174
22.6800 -15.0887 0.3167
22.7000 -15.1020 0.3197
22.7200 -15.1153 0.3183
22.7400 -15.1286 0.3204
22.7600 -15.1420 0.3187
22.7800 -15.1553 0.3216
22.8000 -15.1686 0.3189
22.8200 -15.1819 0.3189
22.8400 -15.1953 0.3203
22.8600 -15.2086 0.3226
22.8800 -15.2219 0.3231
22.9000 -15.2353 0.3237
22.9200 -15.2487 0.3238
22.9400 -15.2621 0.3241
22.9600 -15.2754 0.3245
22.9800 -15.2887 0.3266
23.0000 -15.3020 0.3279
23.0200 -15.3154 0.3283
23.0400 -15.3287 0.3279
23.0600 -15.3420 0.3296
23.0800 -15.3553 0.3291
23.1000 -15.3687 0.3315
23.1200 -15.3820 0.3315
23.1400 -15.3953 0.3332
23.1600 -15.4086 0.3331
23.1800 -15.4219 0.3328
23.2000 -15.4353 0.3350
23.2200 -15.4486 0.3362
23.2400 -15.4619 0.3360
23.2600 -15.4753 0.3375
23.2800 -15.4887 0.3379
23.3000 -15.5021 0.3383
23.3200 -15.5154 0.3394
23.3400 -15.5287 0.3385
23.3600 -15.5420 0.3390
23.3800 -15.5554 0.3413
23.4000 -15.5687 0.3437
23.4200 -15.5820 0.3424
23.4400 -15.5953 0.3457
23.4600 -15.6086 0.3463
23.4800 -15.6220 0.3494
23.5000 -15.6353 0.3494
23.5200 -15.6486 0.3516
23.5400 -15.6619 0.3516
23.5600 -15.6753 0.3525
23.5800 -15.6887 0.3542
23.6000 -15.7020 0.3552
23.6200 -15.7153 0.3551
23.6400 -15.7287 0.3583
23.6600 -15.7421 0.3568
23.6800 -15.7554 0.3614
23.7000 -15.7686 0.3595
23.7200 -15.7819 0.3619
23.7400 -15.7953 0.3620
23.7600 -15.8087 0.3628
23.7800 -15.8220 0.3601
23.8000 -15.8353 0.3644
23.8200 -15.8487 0.3650
23.8400 -15.8620 0.3659
23.8600 -15.8754 0.3663
23.8800 -15.8886 0.3652
23.9000 -15.9020 0.3652
23.9200 -15.9153 0.3659
23.9400 -15.9286 0.3692
23.9600 -15.9419 0.3672
23.9800 -15.9553 0.3702
24.0000 -15.9687 0.3681
24.0200 -15.9821 0.3698
24.0400 -15.9954 0.3719
24.0600 -16.0087 0.3711
24.0800 -16.0221 0.3718
24.1000 -16.0354 0.3746
24.1200 -16.0488 0.3751
24.1400 -16.0621 0.3732
24.1600 -16.0753 0.3753
24.1800 -16.0886 0.3772
24.2000 -16.1020 0.3767
24.2200 -16.1153 0.3801
24.2400 -16.1286 0.3813
24.2600 -16.1419 0.3815
24.2800 -16.1553 0.3821
24.3000 -16.1686 0.3842
24.3200 -16.1820 0.3847
24.3400 -16.1953 0.3866
24.3600 -16.2086 0.3869
24.3800 -16.2220 0.3890
24.4000 -16.2354 0.3903
24.4200 -16.2487 0.3921
24.4400 -16.2620 0.3921
24.4600 -16.2754 0.3937
24.4800 -16.2887 0.3948
24.5000 -16.3020 0.3933
24.5200 -16.3153 0.3954
24.5400 -16.3287 0.3971
24.5600 -16.3420 0.3975
24.5800 -16.3553 0.3989
24.6000 -16.3686 0.3969
24.6200 -16.3819 0.3994
24.6400 -16.3953 0.3995
24.6600 -16.4086 0.4017
24.6800 -16.4220 0.4022
24.7000 -16.4353 0.4035
24.7200 -16.4486 0.4043
24.7400 -16.4620 0.4036
24.7600 -16.4753 0.4051
24.7800 -16.4887 0.4048
24.8000 -16.5020 0.4071
24.8200 -16.5153 0.4080
24.8400 -16.5287 0.4089
24.8600 -16.5421 0.4093
24.8800 -16.5554 0.4096
24.9000 -16.5687 0.4124
24.9200 -16.5820 0.4128
24.9400 -16.5954 0.4144
24.9600 -16.6086 0.4139
24.9800 -16.6220 0.4150
25.0000 -16.6353 0.4153
25.0200 -16.6487 0.4177
25.0400 -16.6620 0.4164
25.0600 -16.6753 0.4187
25.0800 -16.6887 0.4184
25.1000 -16.7020 0.4191
25.1200 -16.7154 0.4199
25.1400 -16.7287 0.4229
25.1600 -16.7420 0.4237
25.1800 -16.7553 0.4249
25.2000 -16.7687 0.4261
25.2200 -16.7820 0.4273
25.2400 -16.7953 0.4258
25.2600 -16.8087 0.4299
25.2800 -16.8220 0.4288
25.3000 -16.8353 0.4294
25.3200 -16.8486 0.4291
25.3400 -16.8619 0.4306
25.3600 -16.8753 0.4318
25.3800 -16.8887 0.4357
25.4000 -16.9020 0.4361
25.4200 -16.9153 0.4384
25.4400 -16.9286 0.4383
25.4600 -16.9420 0.4403
25.4800 -16.9554 0.4401
25.5000 -16.9687 0.4440
25.5200 -16.9820 0.4417
25.5400 -16.9953 0.4439
25.5600 -17.0086 0.4458
25.5800 -17.0220 0.4471
25.6000 -17.0353 0.4482
25.6200 -17.0486 0.4503
25.6400 -17.0620 0.4523
25.6600 -17.0753 0.4531
25.6800 -17.0886 0.4537
25.7000 -17.1019 0.4542
25.7200 -17.1153 0.4522
25.7400 -17.1287 0.4541
25.7600 -17.1420 0.4569
25.7800 -17.1553 0.4549
25.8000 -17.1686 0.4575
25.8200 -17.1820 0.4568
25.8400 -17.1954 0.4596
25.8600 -17.2087 0.4606
25.8800 -17.2220 0.4600
25.9000 -17.2353 0.4597
25.9200 -17.2487 0.4601
25.9400 -17.2620 0.4610
25.9600 -17.2754 0.4615
25.9800 -17.2887 0.4601
26.0000 -17.3020 0.4621
26.0200 -17.3154 0.4626
26.0400 -17.3287 0.4637
26.0600 -17.3420 0.4634
26.0800 -17.3553 0.4657
26.1000 -17.3686 0.4656
26.1200 -17.3820 0.4672
26.1400 -17.3953 0.4656
26.1600 -17.4086 0.4707
26.1800 -17.4220 0.4713
26.2000 -17.4354 0.4738
26.2200 -17.4487 0.4709
26.2400 -17.4620 0.4715
26.2600 -17.4754 0.4709
26.2800 -17.4888 0.4781
26.3000 -17.5021 0.4775
26.3200 -17.5154 0.4792
26.3400 -17.5287 0.4783
26.3600 -17.5420 0.4795
26.3800 -17.5553 0.4811
26.4000 -17.5686 0.4830
26.4200 -17.5819 0.4838
26.4400 -17.5953 0.4826
26.4600 -17.6087 0.4844
26.4800 -17.6220 0.4836
26.5000 -17.6353 0.4844
26.5200 -17.6487 0.4863
26.5400 -17.6620 0.4882
26.5600 -17.6754 0.4868
26.5800 -17.6887 0.4889
26.6000 -17.7020 0.4906
26.6200 -17.7153 0.4880
26.6400 -17.7287 0.4929
26.6600 -17.7420 0.4928
26.6800 -17.7553 0.4957
26.7000 -17.7687 0.4963
26.7200 -17.7820 0.4979
26.7400 -17.7953 0.4970
26.7600 -17.8086 0.4985
26.7800 -17.8219 0.5005
26.8000 -17.8353 0.5009
26.8200 -17.8486 0.5036
26.8400 -17.8620 0.5037
26.8600 -17.8753 0.5035
26.8800 -17.8886 0.5040
26.9000 -17.9020 0.5067
26.9200 -17.9154 0.5072
26.9400 -17.9287 0.5113
26.9600 -17.9420 0.5092
26.9800 -17.9553 0.5106
27.0000 -17.9687 0.5109
27.0200 -17.9820 0.5130
27.0400 -17.9953 0.5118
27.0600 -18.0087 0.5152
27.0800 -18.0220 0.5153
27.1000 -18.0353 0.5145
27.1200 -18.0486 0.5182
27.1400 -18.0619 0.5183
27.1600 -18.0752 0.5183
27.1800 -18.0886 0.5220
27.2000 -18.1020 0.5202
27.2200 -18.1153 0.5185
27.2400 -18.1286 0.5242
27.2600 -18.1420 0.5238
27.2800 -18.1554 0.5271
27.3000 -18.1687 0.5292
27.3200 -18.1820 0.5296
27.3400 -18.1954 0.5291
27.3600 -18.2087 0.5328
27.3800 -18.2221 0.5327
27.4000 -18.2354 0.5312
27.4200 -18.2487 0.5337
27.4400 -18.2620 0.5351
27.4600 -18.2753 0.5367
27.4800 -18.2887 0.5380
27.5000 -18.3020 0.5391
27.5200 -18.3153 0.5395
27.5400 -18.3286 0.5410
27.5600 -18.3420 0.5422
27.5800 -18.3553 0.5404
27.6000 -18.3686 0.5423
27.6200 -18.3820 0.5425
27.6400 -18.3953 0.5420
27.6600 -18.4087 0.5457
27.6800 -18.4220 0.5476
27.7000 -18.4353 0.5480
27.7200 -18.4487 0.5508
27.7400 -18.4621 0.5522
27.7600 -18.4754 0.5522
27.7800 -18.4887 0.5530
27.8000 -18.5020 0.5524
27.8200 -18.5154 0.5527
27.8400 -18.5287 0.5559
27.8600 -18.5419 0.5576
27.8800 -18.5553 0.5576
27.9000 -18.5686 0.5600
27.9200 -18.5820 0.5611
27.9400 -18.5953 0.5568
27.9600 -18.6086 0.5610
27.9800 -18.6220 0.5620
28.0000 -18.6354 0.5634
28.0200 -18.6487 0.5656
28.0400 -18.6620 0.5660
28.0600 -18.6753 0.5669
28.0800 -18.6887 0.5685
28.1000 -18.7021 0.5704
28.1200 -18.7154 0.5692
28.1400 -18.7287 0.5708
28.1600 -18.7420 0.5711
28.1800 -18.7554 0.5719
28.2000 -18.7687 0.5739
28.2200 -18.7819 0.5779
28.2400 -18.7953 0.5737
28.2600 -18.8086 0.5788
28.2800 -18.8220 0.5809
28.3000 -18.8353 0.5794
28.3200 -18.8486 0.5806
28.3400 -18.8620 0.5819
28.3600 -18.8754 0.5827
28.3800 -18.8887 0.5861
28.4000 -18.9020 0.5854
28.4200 -18.9154 0.5856
28.4400 -18.9287 0.5866
28.4600 -18.9421 0.5889
28.4800 -18.9554 0.5889
28.5000 -18.9687 0.5913
28.5200 -18.9820 0.5926
28.5400 -18.9953 0.5911
28.5600 -19.0086 0.5942
28.5800 -19.0219 0.5965
28.6000 -19.0352 0.5950
28.6200 -19.0486 0.5942
28.6400 -19.0620 0.5975
28.6600 -19.0753 0.5987
28.6800 -19.0886 0.6022
28.7000 -19.1020 0.6027
28.7200 -19.1154 0.6019
28.7400 -19.1287 0.6040
28.7600 -19.1420 0.6048
28.7800 -19.1553 0.6045
28.8000 -19.1687 0.6061
28.8200 -19.1821 0.6075
28.8400 -19.1954 0.6072
28.8600 -19.2087 0.6070
28.8800 -19.2220 0.6088
28.9000 -19.2354 0.6082
28.9200 -19.2487 0.6121
28.9400 -19.2620 0.6113
28.9600 -19.2753 0.6134
28.9800 -19.2886 0.6132
29.0000 -19.3020 0.6167
29.0200 -19.3153 0.6158
29.0400 -19.3286 0.6179
29.0600 -19.3420 0.6184
29.0800 -19.3553 0.6196
29.1000 -19.3687 0.6222
29.1200 -19.3820 0.6244
29.1400 -19.3953 0.6226
29.1600 -19.4087 0.6235
29.1800 -19.4220 0.6267
29.2000 -19.4354 0.6264
29.2200 -19.4487 0.6302
29.2400 -19.4620 0.6333
29.2600 -19.4753 0.6325
29.2800 -19.4887 0.6342
29.3000 -19.5019 0.6360
29.3200 -19.5152 0.6346
29.3400 -19.5286 0.6360
29.3600 -19.5420 0.6377
29.3800 -19.5553 0.6370
29.4000 -19.5686 0.6398
29.4200 -19.5820 0.6413
29.4400 -19.5954 0.6423
29.4600 -19.6087 0.6424
29.4800 -19.6220 0.6451
29.5000 -19.6353 0.6431
29.5200 -19.6487 0.6441
29.5400 -19.6620 0.6460
29.5600 -19.6753 0.6453
29.5800 -19.6886 0.6484
29.6000 -19.7020 0.6486
29.6200 -19.7153 0.6504
29.6400 -19.7286 0.6498
29.6600 -19.7419 0.6559
29.6800 -19.7553 0.6566
29.7000 -19.7686 0.6620
29.7200 -19.7820 0.6628
29.7400 -19.7953 0.6632
29.7600 -19.8087 0.6622
29.7800 -19.8220 0.6655
29.8000 -19.8354 0.6639
29.8200 -19.8487 0.6686
29.8400 -19.8620 0.6694
29.8600 -19.8753 0.6710
29.8800 -19.8887 0.6715
29.9000 -19.9020 0.6754
29.9200 -19.9154 0.6747
29.9400 -19.9287 0.6633
29.9600 -19.9420 0.6112
29.9800 -19.9553 0.5312
30.0000 -19.9686 0.4438
30.0200 -19.9819 0.3549
30.0400 -19.9952 0.2634
30.0600 -20.0086 0.1714
30.0800 -20.0220 0.0881
30.1000 -20.0353 0.0013
30.1200 -20.0486 -0.0781
30.1400 -20.0620 -0.1587
30.1600 -20.0754 -0.2314
30.1800 -20.0887 -0.2991
30.2000 -20.1021 -0.3426
30.2200 -20.1154 -0.3862
30.2400 -20.1287 -0.4394
30.2600 -20.1420 -0.4959
30.2800 -20.1554 -0.5567
30.3000 -20.1687 -0.6169
30.3200 -20.1820 -0.6772
30.3400 -20.1953 -0.7418
30.3600 -20.2087 -0.8037
30.3800 -20.2219 -0.8644
30.4000 -20.2352 -0.9251
30.4200 -20.2486 -0.9836
30.4400 -20.2619 -1.0442
30.4600 -20.2753 -1.1134
30.4800 -20.2886 -1.1983
30.5000 -20.3020 -1.2908
30.5200 -20.3154 -1.3706
30.5400 -20.3287 -1.4039
30.5600 -20.3421 -1.4026
30.5800 -20.3554 -1.3973
30.6000 -20.3687 -1.3935
30.6200 -20.3820 -1.3888
30.6400 -20.3954 -1.3877
30.6600 -20.4087 -1.3855
30.6800 -20.4220 -1.3834
30.7000 -20.4353 -1.3831
30.7200 -20.4487 -1.3816
30.7400 -20.4619 -1.3774
30.7600 -20.4753 -1.3755
30.7800 -20.4886 -1.3730
30.8000 -20.5020 -1.3698
30.8200 -20.5153 -1.3665
30.8400 -20.5287 -1.3657
30.8600 -20.5420 -1.3569
30.8800 -20.5554 -1.3609
30.9000 -20.5687 -1.3558
30.9200 -20.5820 -1.3551
30.9400 -20.5953 -1.3515
30.9600 -20.6086 -1.3483
30.9800 -20.6220 -1.3446
31.0000 -20.6353 -1.3421
31.0200 -20.6487 -1.3409
31.0400 -20.6620 -1.3329
31.0600 -20.6753 -1.3329
31.0800 -20.6887 -1.3295
31.1000 -20.7020 -1.3287
31.1200 -20.7153 -1.3231
31.1400 -20.7286 -1.3239
31.1600 -20.7420 -1.3165
31.1800 -20.7553 -1.3178
31.2000 -20.7686 -1.3146
31.2200 -20.7820 -1.3107
31.2400 -20.7953 -1.3092
31.2600 -20.8087 -1.3086
31.2800 -20.8221 -1.3034
31.3000 -20.8354 -1.3008
31.3200 -20.8487 -1.2974
31.3400 -20.8621 -1.2941
31.3600 -20.8754 -1.2912
31.3800 -20.8887 -1.2906
31.4000 -20.9020 -1.2868
31.4200 -20.9153 -1.2857
31.4400 -20.9287 -1.2824
31.4600 -20.9420 -1.2777
31.4800 -20.9553 -1.2778
31.5000 -20.9686 -1.2758
31.5200 -20.9820 -1.2720
31.5400 -20.9953 -1.2694
31.5600 -21.0086 -1.2699
31.5800 -21.0220 -1.2652
31.6000 -21.0353 -1.2632
31.6200 -21.0487 -1.2611
31.6400 -21.0620 -1.2583
31.6600 -21.0753 -1.2575
31.6800 -21.0887 -1.2542
31.7000 -21.1020 -1.2503
31.7200 -21.1154 -1.2491
31.7400 -21.1287 -1.2479
31.7600 -21.1420 -1.2433
31.7800 -21.1553 -1.2438
31.8000 -21.1687 -1.2403
31.8200 -21.1820 -1.2387
31.8400 -21.1953 -1.2365
31.8600 -21.2086 -1.2342
31.8800 -21.2220 -1.2302
31.9000 -21.2353 -1.2276
31.9200 -21.2486 -1.2261
31.9400 -21.2620 -1.2212
31.9600 -21.2753 -1.2221
31.9800 -21.2887 -1.2197
32.0000 -21.3020 -1.2162
32.0200 -21.3153 -1.2103
32.0400 -21.3286 -1.2113
32.0600 -21.3420 -1.2063
32.0800 -21.3554 -1.2052
32.1000 -21.3687 -1.2040
32.1200 -21.3820 -1.2005
32.1400 -21.3953 -1.1966
32.1600 -21.4087 -1.1957
32.1800 -21.4220 -1.1901
32.2000 -21.4353 -1.1880
32.2200 -21.4486 -1.1843
32.2400 -21.4620 -1.1802
32.2600 -21.4753 -1.1767
32.2800 -21.4886 -1.1770
32.3000 -21.5020 -1.1692
32.3200 -21.5153 -1.1692
32.3400 -21.5287 -1.1663
32.3600 -21.5420 -1.1638
32.3800 -21.5553 -1.1620
32.4000 -21.5686 -1.1588
32.4200 -21.5820 -1.1543
32.4400 -21.5954 -1.1533
32.4600 -21.6087 -1.1511
32.4800 -21.6220 -1.1450
32.5000 -21.6353 -1.1424
32.5200 -21.6487 -1.1414
32.5400 -21.6620 -1.1364
32.5600 -21.6753 -1.1346
32.5800 -21.6886 -1.1314
32.6000 -21.7020 -1.1291
32.6200 -21.7153 -1.1254
32.6400 -21.7286 -1.1277
32.6600 -21.7420 -1.1237
32.6800 -21.7553 -1.1225
32.7000 -21.7687 -1.1227
32.7200 -21.7820 -1.1171
32.7400 -21.7953 -1.1183
32.7600 -21.8087 -1.1169
32.7800 -21.8220 -1.1158
32.8000 -21.8354 -1.1153
32.8200 -21.8487 -1.1168
32.8400 -21.8620 -1.1121
32.8600 -21.8753 -1.1152
32.8800 -21.8886 -1.1137
32.9000 -21.9020 -1.1126
32.9200 -21.9153 -1.1097
32.9400 -21.9286 -1.1127
32.9600 -21.9420 -1.1090
32.9800 -21.9553 -1.1076
33.0000 -21.9687 -1.1101
33.0200 -21.9820 -1.1055
33.0400 -21.9953 -1.1031
33.0600 -22.0087 -1.1037
33.0800 -22.0221 -1.1003
33.1000 -22.0354 -1.1032
33.1200 -22.0487 -1.0992
33.1400 -22.0620 -1.0959
33.1600 -22.0754 -1.0935
33.1800 -22.0887 -1.0923
33.2000 -22.1020 -1.0886
33.2200 -22.1153 -1.0885
33.2400 -22.1287 -1.0855
33.2600 -22.1420 -1.0817
33.2800 -22.1553 -1.0798
33.3000 -22.1686 -1.0781
33.3200 -22.1819 -1.0719
33.3400 -22.1953 -1.0697
33.3600 -22.2086 -1.0723
33.3800 -22.2219 -1.0685
33.4000 -22.2353 -1.0663
33.4200 -22.2487 -1.0640
33.4400 -22.2621 -1.0596
33.4600 -22.2754 -1.0594
33.4800 -22.2887 -1.0590
33.5000 -22.3020 -1.0545
33.5200 -22.3154 -1.0535
33.5400 -22.3287 -1.0539
33.5600 -22.3420 -1.0467
33.5800 -22.3553 -1.0465
33.6000 -22.3686 -1.0491
33.6200 -22.3820 -1.0458
33.6400 -22.3953 -1.0446
33.6600 -22.4086 -1.0409
33.6800 -22.4220 -1.0379
33.7000 -22.4353 -1.0323
33.7200 -22.4487 -1.0336
33.7400 -22.4620 -1.0312
33.7600 -22.4753 -1.0298
33.7800 -22.4887 -1.0280
33.8000 -22.5021 -1.0244
33.8200 -22.5154 -1.0238
33.8400 -22.5287 -1.0261
33.8600 -22.5420 -1.0201
33.8800 -22.5554 -1.0154
33.9000 -22.5687 -1.0130
33.9200 -22.5820 -1.0111
33.9400 -22.5953 -1.0112
33.9600 -22.6087 -1.0100
33.9800 -22.6220 -1.0058
34.0000 -22.6353 -1.0024
34.0200 -22.6486 -1.0024
34.0400 -22.6620 -0.9995
34.0600 -22.6753 -0.9983
34.0800 -22.6887 -0.9984
34.1000 -22.7020 -0.9920
34.1200 -22.7153 -0.9880
34.1400 -22.7287 -0.9863
34.1600 -22.7420 -0.9849
34.1800 -22.7554 -0.9813
34.2000 -22.7687 -0.9783
34.2200 -22.7820 -0.9751
34.2400 -22.7954 -0.9743
34.2600 -22.8087 -0.9752
34.2800 -22.8220 -0.9716
34.3000 -22.8354 -0.9684
34.3200 -22.8487 -0.9678
34.3400 -22.8620 -0.9628
34.3600 -22.8753 -0.9606
34.3800 -22.8886 -0.9594
34.4000 -22.9019 -0.9559
34.4200 -22.9153 -0.9549
34.4400 -22.9286 -0.9551
34.4600 -22.9420 -0.9514
34.4800 -22.9553 -0.9492
34.5000 -22.9687 -0.9500
34.5200 -22.9821 -0.9463
34.5400 -22.9954 -0.9451
34.5600 -23.0087 -0.9427
34.5800 -23.0220 -0.9408
34.6000 -23.0354 -0.9382
34.6200 -23.0487 -0.9402
34.6400 -23.0620 -0.9380
34.6600 -23.0753 -0.9349
34.6800 -23.0887 -0.9351
34.7000 -23.1020 -0.9304
34.7200 -23.1153 -0.9282
34.7400 -23.1286 -0.9279
34.7600 -23.1419 -0.9250
34.7800 -23.1553 -0.9235
34.8000 -23.1686 -0.9255
34.8200 -23.1820 -0.9203
34.8400 -23.1953 -0.9150
34.8600 -23.2087 -0.9172
34.8800 -23.2220 -0.9206
34.9000 -23.2353 -0.9135
34.9200 -23.2486 -0.9167
34.9400 -23.2620 -0.9082
34.9600 -23.2754 -0.9102
34.9800 -23.2887 -0.9095
35.0000 -23.3020 -0.9102
35.0200 -23.3154 -0.9016
35.0400 -23.3287 -0.9046
35.0600 -23.3420 -0.9005
35.0800 -23.3553 -0.8984
35.1000 -23.3686 -0.8984
35.1200 -23.3819 -0.8940
35.1400 -23.3953 -0.8928
35.1600 -23.4086 -0.8898
35.1800 -23.4219 -0.8913
35.2000 -23.4353 -0.8894
35.2200 -23.4487 -0.8911
35.2400 -23.4620 -0.8835
35.2600 -23.4753 -0.8861
35.2800 -23.4886 -0.8822
35.3000 -23.5020 -0.8808
35.3200 -23.5153 -0.8767
35.3400 -23.5287 -0.8792
35.3600 -23.5420 -0.8771
35.3800 -23.5554 -0.8732
35.4000 -23.5687 -0.8730
35.4200 -23.5820 -0.8691
35.4400 -23.5953 -0.8680
35.4600 -23.6086 -0.8666
35.4800 -23.6219 -0.8642
35.5000 -23.6353 -0.8614
35.5200 -23.6486 -0.8647
35.5400 -23.6620 -0.8617
35.5600 -23.6753 -0.8586
35.5800 -23.6887 -0.8575
35.6000 -23.7020 -0.8546
35.6200 -23.7154 -0.8531
35.6400 -23.7287 -0.8500
35.6600 -23.7420 -0.8507
35.6800 -23.7554 -0.8448
35.7000 -23.7687 -0.8460
35.7200 -23.7820 -0.8430
35.7400 -23.7953 -0.8427
35.7600 -23.8086 -0.8398
35.7800 -23.8220 -0.8401
35.8000 -23.8353 -0.8350
35.8200 -23.8486 -0.8361
35.8400 -23.8619 -0.8324
35.8600 -23.8753 -0.8303
35.8800 -23.8887 -0.8299
35.9000 -23.9020 -0.8292
35.9200 -23.9153 -0.8237
35.9400 -23.9287 -0.8251
35.9600 -23.9421 -0.8225
35.9800 -23.9554 -0.8229
36.0000 -23.9687 -0.8191
36.0200 -23.9820 -0.8171
36.0400 -23.9954 -0.8160
36.0600 -24.0087 -0.8142
36.0800 -24.0220 -0.8131
36.1000 -24.0354 -0.8108
36.1200 -24.0487 -0.8085
36.1400 -24.0620 -0.8060
36.1600 -24.0753 -0.8041
36.1800 -24.0886 -0.8034
36.2000 -24.1019 -0.8005
36.2200 -24.1153 -0.7944
36.2400 -24.1287 -0.7959
36.2600 -24.1420 -0.7934
36.2800 -24.1553 -0.7933
36.3000 -24.1686 -0.7910
36.3200 -24.1820 -0.7911
36.3400 -24.1954 -0.7861
36.3600 -24.2087 -0.7854
36.3800 -24.2220 -0.7848
36.4000 -24.2354 -0.7817
36.4200 -24.2487 -0.7789
36.4400 -24.2620 -0.7799
36.4600 -24.2753 -0.7742
36.4800 -24.2886 -0.7752
36.5000 -24.3020 -0.7735
36.5200 -24.3153 -0.7706
36.5400 -24.3286 -0.7712
36.5600 -24.3419 -0.7682
36.5800 -24.3553 -0.7665
36.6000 -24.3686 -0.7638
36.6200 -24.3820 -0.7627
36.6400 -24.3953 -0.7596
36.6600 -24.4087 -0.7589
36.6800 -24.4220 -0.7598
36.7000 -24.4354 -0.7556
36.7200 -24.4487 -0.7555
36.7400 -24.4620 -0.7554
36.7600 -24.4753 -0.7542
36.7800 -24.4887 -0.7513
36.8000 -24.5020 -0.7521
36.8200 -24.5153 -0.7478
36.8400 -24.5286 -0.7484
36.8600 -24.5420 -0.7483
36.8800 -24.5553 -0.7461
36.9000 -24.5686 -0.7465
36.9200 -24.5819 -0.7443
36.9400 -24.5953 -0.7422
36.9600 -24.6087 -0.7435
36.9800 -24.6220 -0.7411
37.0000 -24.6353 -0.7368
37.0200 -24.6487 -0.7360
37.0400 -24.6621 -0.7343
37.0600 -24.6754 -0.7348
37.0800 -24.6887 -0.7358
37.1000 -24.7020 -0.7310
37.1200 -24.7154 -0.7297
37.1400 -24.7287 -0.7297
37.1600 -24.7421 -0.7274
37.1800 -24.7553 -0.7258
37.2000 -24.7687 -0.7242
37.2200 -24.7820 -0.7220
37.2400 -24.7953 -0.7213
37.2600 -24.8086 -0.7195
37.2800 -24.8219 -0.7199
37.3000 -24.8353 -0.7136
37.3200 -24.8486 -0.7139
37.3400 -24.8620 -0.7111
37.3600 -24.8753 -0.7105
37.3800 -24.8886 -0.7108
37.4000 -24.9020 -0.7090
37.4200 -24.9154 -0.7060
37.4400 -24.9287 -0.7053
37.4600 -24.9420 -0.7040
37.4800 -24.9554 -0.7009
37.5000 -24.9687 -0.7007
37.5200 -24.9820 -0.6993
37.5400 -24.9953 -0.6950
37.5600 -25.0087 -0.6959
37.5800 -25.0220 -0.6938
37.6000 -25.0353 -0.6904
37.6200 -25.0486 -0.6894
37.6400 -25.0619 -0.6875
37.6600 -25.0753 -0.6826
37.6800 -25.0886 -0.6815
37.7000 -25.1020 -0.6796
37.7200 -25.1153 -0.6795
37.7400 -25.1287 -0.6761
37.7600 -25.1421 -0.6790
37.7800 -25.1554 -0.6734
37.8000 -25.1687 -0.6742
37.8200 -25.1820 -0.6717
37.8400 -25.1954 -0.6692
37.8600 -25.2087 -0.6667
37.8800 -25.2220 -0.6674
37.9000 -25.2353 -0.6638
37.9200 -25.2487 -0.6641
37.9400 -25.2620 -0.6630
37.9600 -25.2753 -0.6577
37.9800 -25.2886 -0.6571
38.0000 -25.3019 -0.6535
38.0200 -25.3153 -0.6527
38.0400 -25.3286 -0.6499
38.0600 -25.3420 -0.6494
38.0800 -25.3553 -0.6434
38.1000 -25.3687 -0.6437
38.1200 -25.3820 -0.6426
38.1400 -25.3954 -0.6413
38.1600 -25.4086 -0.6406
38.1800 -25.4219 -0.6398
38.2000 -25.4353 -0.6347
38.2200 -25.4487 -0.6323
38.2400 -25.4620 -0.6313
38.2600 -25.4753 -0.6296
38.2800 -25.4886 -0.6288
38.3000 -25.5020 -0.6272
38.3200 -25.5153 -0.6247
38.3400 -25.5286 -0.6237
38.3600 -25.5419 -0.6209
38.3800 -25.5553 -0.6185
38.4000 -25.5686 -0.6169
38.4200 -25.5820 -0.6177
38.4400 -25.5953 -0.6114
38.4600 -25.6086 -0.6140
38.4800 -25.6220 -0.6119
38.5000 -25.6354 -0.6093
38.5200 -25.6487 -0.6064
38.5400 -25.6620 -0.6075
38.5600 -25.6754 -0.6032
38.5800 -25.6888 -0.6047
38.6000 -25.7021 -0.6025
38.6200 -25.7153 -0.5998
38.6400 -25.7287 -0.5995
38.6600 -25.7420 -0.6002
38.6800 -25.7553 -0.5960
38.7000 -25.7686 -0.5976
38.7200 -25.7819 -0.5952
38.7400 -25.7953 -0.5942
38.7600 -25.8086 -0.5953
38.7800 -25.8220 -0.5953
38.8000 -25.8353 -0.5943
38.8200 -25.8486 -0.5906
38.8400 -25.8620 -0.5913
38.8600 -25.8754 -0.5879
38.8800 -25.8887 -0.5918
38.9000 -25.9020 -0.5909
38.9200 -25.9153 -0.5885
38.9400 -25.9287 -0.5847
38.9600 -25.9420 -0.5876
38.9800 -25.9553 -0.5812
39.0000 -25.9687 -0.5866
39.0200 -25.9820 -0.5832
39.0400 -25.9954 -0.5820
39.0600 -26.0086 -0.5804
39.0800 -26.0219 -0.5826
39.1000 -26.0353 -0.5787
39.1200 -26.0487 -0.5776
39.1400 -26.0620 -0.5742
39.1600 -26.0753 -0.5731
39.1800 -26.0886 -0.5713
39.2000 -26.1020 -0.5730
39.2200 -26.1154 -0.5686
39.2400 -26.1287 -0.5688
39.2600 -26.1420 -0.5673
39.2800 -26.1553 -0.5656
39.3000 -26.1687 -0.5648
39.3200 -26.1820 -0.5668
39.3400 -26.1953 -0.5656
39.3600 -26.2087 -0.5629
39.3800 -26.2220 -0.5628
39.4000 -26.2354 -0.5589
39.4200 -26.2487 -0.5589
39.4400 -26.2619 -0.5568
39.4600 -26.2753 -0.5536
39.4800 -26.2886 -0.5518
39.5000 -26.3020 -0.5524
39.5200 -26.3153 -0.5486
39.5400 -26.3287 -0.5507
39.5600 -26.3420 -0.5472
39.5800 -26.3554 -0.5462
39.6000 -26.3687 -0.5416
39.6200 -26.3820 -0.5422
39.6400 -26.3953 -0.5398
39.6600 -26.4087 -0.5363
39.6800 -26.4220 -0.5344
39.7000 -26.4353 -0.5325
39.7200 -26.4486 -0.5294
39.7400 -26.4620 -0.5291
39.7600 -26.4753 -0.5268
39.7800 -26.4886 -0.5246
39.8000 -26.5019 -0.5217
39.8200 -26.5153 -0.5189
39.8400 -26.5287 -0.5202
39.8600 -26.5420 -0.5191
39.8800 -26.5553 -0.5210
39.9000 -26.5687 -0.5151
39.9200 -26.5820 -0.5114
39.9400 -26.5954 -0.5074
39.9600 -26.6087 -0.5096
39.9800 -26.6220 -0.5081
40.0000 -26.6353 -0.5057
40.0200 -26.6487 -0.4998
40.0400 -26.6620 -0.4999
40.0600 -26.6753 -0.4982
40.0800 -26.6886 -0.5005
40.1000 -26.7020 -0.4970
40.1200 -26.7153 -0.4918
40.1400 -26.7286 -0.4931
40.1600 -26.7419 -0.4949
40.1800 -26.7553 -0.4924
40.2000 -26.7686 -0.4891
40.2200 -26.7820 -0.4856
40.2400 -26.7953 -0.4849
40.2600 -26.8086 -0.4866
40.2800 -26.8220 -0.4866
40.3000 -26.8354 -0.4810
40.3200 -26.8487 -0.4783
40.3400 -26.8620 -0.4774
40.3600 -26.8753 -0.4783
40.3800 -26.8887 -0.4766
40.4000 -26.9020 -0.4713
40.4200 -26.9153 -0.4688
40.4400 -26.9287 -0.4683
40.4600 -26.9420 -0.4718
40.4800 -26.9554 -0.4685
40.5000 -26.9687 -0.4657
40.5200 -26.9820 -0.4651
40.5400 -26.9953 -0.4606
40.5600 -27.0086 -0.4599
40.5800 -27.0219 -0.4595
40.6000 -27.0352 -0.4571
40.6200 -27.0486 -0.4539
40.6400 -27.0620 -0.4528
40.6600 -27.0754 -0.4522
40.6800 -27.0887 -0.4471
40.7000 -27.1020 -0.4468
40.7200 -27.1154 -0.4438
40.7400 -27.1287 -0.4435
40.7600 -27.1421 -0.4420
40.7800 -27.1554 -0.4400
40.8000 -27.1687 -0.4366
40.8200 -27.1820 -0.4391
40.8400 -27.1953 -0.4334
40.8600 -27.2086 -0.4334
40.8800 -27.2219 -0.4307
40.9000 -27.2353 -0.4283
40.9200 -27.2486 -0.4264
40.9400 -27.2620 -0.4262
40.9600 -27.2753 -0.4222
40.9800 -27.2887 -0.4246
41.0000 -27.3020 -0.4226
41.0200 -27.3154 -0.4219
41.0400 -27.3287 -0.4183
41.0600 -27.3420 -0.4186
41.0800 -27.3553 -0.4157
41.1000 -27.3687 -0.4157
41.1200 -27.3820 -0.4143
41.1400 -27.3954 -0.4138
41.1600 -27.4087 -0.4126
41.1800 -27.4220 -0.4117
41.2000 -27.4354 -0.4119
41.2200 -27.4487 -0.4092
41.2400 -27.4619 -0.4078
41.2600 -27.4753 -0.4062
41.2800 -27.4886 -0.4054
41.3000 -27.5020 -0.4061
41.3200 -27.5153 -0.4040
41.3400 -27.5287 -0.4006
41.3600 -27.5420 -0.4004
41.3800 -27.5554 -0.3991
41.4000 -27.5687 -0.4001
41.4200 -27.5820 -0.3984
41.4400 -27.5953 -0.3969
41.4600 -27.6087 -0.3951
41.4800 -27.6220 -0.3947
41.5000 -27.6354 -0.3954
41.5200 -27.6487 -0.3922
41.5400 -27.6620 -0.3930
41.5600 -27.6753 -0.3903
41.5800 -27.6886 -0.3912
41.6000 -27.7019 -0.3902
41.6200 -27.7152 -0.3878
41.6400 -27.7286 -0.3863
41.6600 -27.7420 -0.3839
41.6800 -27.7553 -0.3855
41.7000 -27.7686 -0.3810
41.7200 -27.7820 -0.3833
41.7400 -27.7954 -0.3834
41.7600 -27.8087 -0.3800
41.7800 -27.8220 -0.3775
41.8000 -27.8354 -0.3763
41.8200 -27.8487 -0.3743
41.8400 -27.8621 -0.3713
41.8600 -27.8754 -0.3730
41.8800 -27.8887 -0.3762
41.9000 -27.9020 -0.3722
41.9200 -27.9154 -0.3681
41.9400 -27.9287 -0.3684
41.9600 -27.9420 -0.3669
41.9800 -27.9553 -0.3650
42.0000 -27.9686 -0.3641
42.0200 -27.9820 -0.3611
42.0400 -27.9953 -0.3607
42.0600 -28.0086 -0.3594
42.0800 -28.0220 -0.3613
42.1000 -28.0353 -0.3564
42.1200 -28.0487 -0.3529
42.1400 -28.0620 -0.3521
42.1600 -28.0753 -0.3515
42.1800 -28.0887 -0.3513
42.2000 -28.1021 -0.3465
42.2200 -28.1154 -0.3448
42.2400 -28.1287 -0.3400
42.2600 -28.1420 -0.3402
42.2800 -28.1554 -0.3407
42.3000 -28.1687 -0.3391
42.3200 -28.1820 -0.3337
42.3400 -28.1953 -0.3331
42.3600 -28.2086 -0.3305
42.3800 -28.2220 -0.3291
42.4000 -28.2353 -0.3290
42.4200 -28.2486 -0.3266
42.4400 -28.2620 -0.3251
42.4600 -28.2753 -0.3223
42.4800 -28.2887 -0.3200
42.5000 -28.3020 -0.3200
42.5200 -28.3153 -0.3166
42.5400 -28.3287 -0.3149
42.5600 -28.3420 -0.3114
42.5800 -28.3554 -0.3082
42.6000 -28.3687 -0.3072
42.6200 -28.3820 -0.3068
42.6400 -28.3954 -0.3078
42.6600 -28.4087 -0.3025
42.6800 -28.4220 -0.2998
42.7000 -28.4353 -0.2973
42.7200 -28.4486 -0.2973
42.7400 -28.4620 -0.2940
42.7600 -28.4753 -0.2942
42.7800 -28.4886 -0.2919
42.8000 -28.5019 -0.2883
42.8200 -28.5153 -0.2880
42.8400 -28.5287 -0.2861
42.8600 -28.5420 -0.2843
42.8800 -28.5553 -0.2833
42.9000 -28.5687 -0.2779
42.9200 -28.5821 -0.2773
42.9400 -28.5954 -0.2776
42.9600 -28.6087 -0.2751
42.9800 -28.6220 -0.2741
43.0000 -28.6353 -0.2730
43.0200 -28.6486 -0.2695
43.0400 -28.6619 -0.2687
43.0600 -28.6752 -0.2661
43.0800 -28.6886 -0.2660
43.1000 -28.7020 -0.2633
43.1200 -28.7153 -0.2613
43.1400 -28.7286 -0.2604
43.1600 -28.7420 -0.2599
43.1800 -28.7554 -0.2590
43.2000 -28.7687 -0.2551
43.2200 -28.7820 -0.2563
43.2400 -28.7953 -0.2542
43.2600 -28.8087 -0.2529
43.2800 -28.8220 -0.2519
43.3000 -28.8354 -0.2478
43.3200 -28.8487 -0.2477
43.3400 -28.8620 -0.2474
43.3600 -28.8754 -0.2462
43.3800 -28.8887 -0.2445
43.4000 -28.9020 -0.2436
43.4200 -28.9153 -0.2449
43.4400 -28.9286 -0.2425
43.4600 -28.9420 -0.2415
43.4800 -28.9553 -0.2402
43.5000 -28.9686 -0.2408
43.5200 -28.9820 -0.2404
43.5400 -28.9954 -0.2395
43.5600 -29.0087 -0.2386
43.5800 -29.0220 -0.2385
43.6000 -29.0353 -0.2382
43.6200 -29.0487 -0.2395
43.6400 -29.0620 -0.2344
43.6600 -29.0754 -0.2346
43.6800 -29.0887 -0.2331
43.7000 -29.1020 -0.2326
43.7200 -29.1153 -0.2306
43.7400 -29.1287 -0.2300
43.7600 -29.1420 -0.2298
43.7800 -29.1553 -0.2308
43.8000 -29.1686 -0.2273
43.8200 -29.1820 -0.2254
43.8400 -29.1953 -0.2233
43.8600 -29.2087 -0.2231
43.8800 -29.2220 -0.2201
43.9000 -29.2353 -0.2189
43.9200 -29.2487 -0.2185
43.9400 -29.2620 -0.2154
43.9600 -29.2753 -0.2160
43.9800 -29.2887 -0.2135
44.0000 -29.3020 -0.2117
44.0200 -29.3154 -0.2096
44.0400 -29.3287 -0.2087
44.0600 -29.3420 -0.2074
44.0800 -29.3553 -0.2046
44.1000 -29.3686 -0.2039
44.1200 -29.3819 -0.2029
44.1400 -29.3952 -0.1997
44.1600 -29.4086 -0.2004
44.1800 -29.4220 -0.1976
44.2000 -29.4353 -0.1930
44.2200 -29.4487 -0.1930
44.2400 -29.4620 -0.1918
44.2600 -29.4754 -0.1901
44.2800 -29.4887 -0.1882
44.3000 -29.5020 -0.1879
44.3200 -29.5153 -0.1864
44.3400 -29.5287 -0.1858
44.3600 -29.5420 -0.1855
44.3800 -29.5554 -0.1812
44.4000 -29.5687 -0.1813
44.4200 -29.5820 -0.1747
44.4400 -29.5953 -0.1785
44.4600 -29.6086 -0.1776
44.4800 -29.6219 -0.1744
44.5000 -29.6352 -0.1725
44.5200 -29.6486 -0.1720
44.5400 -29.6620 -0.1717
44.5600 -29.6753 -0.1686
44.5800 -29.6886 -0.1667
44.6000 -29.7020 -0.1646
44.6200 -29.7153 -0.1638
44.6400 -29.7287 -0.1633
44.6600 -29.7421 -0.1618
44.6800 -29.7554 -0.1596
44.7000 -29.7687 -0.1592
44.7200 -29.7820 -0.1566
44.7400 -29.7954 -0.1547
44.7600 -29.8087 -0.1537
44.7800 -29.8220 -0.1514
44.8000 -29.8353 -0.1493
44.8200 -29.8487 -0.1481
44.8400 -29.8619 -0.1481
44.8600 -29.8752 -0.1449
44.8800 -29.8886 -0.1439
44.9000 -29.9019 -0.1423
44.9200 -29.9153 -0.1390
44.9400 -29.9286 -0.1385
44.9600 -29.9420 -0.1380
44.9800 -29.9554 -0.1360
45.0000 -29.9688 -0.1345
45.0200 -29.9821 -0.1296
45.0400 -29.9954 -0.1301
45.0600 -30.0087 -0.1265
45.0800 -30.0220 -0.1272
45.1000 -30.0354 -0.1264
45.1200 -30.0487 -0.1237
45.1400 -30.0620 -0.1204
45.1600 -30.0753 -0.1185
45.1800 -30.0887 -0.1192
45.2000 -30.1020 -0.1185
45.2200 -30.1153 -0.1184
45.2400 -30.1286 -0.1173
45.2600 -30.1420 -0.1113
45.2800 -30.1553 -0.1105
45.3000 -30.1687 -0.1142
45.3200 -30.1820 -0.1116
45.3400 -30.1954 -0.1079
45.3600 -30.2087 -0.1072
45.3800 -30.2220 -0.1066
45.4000 -30.2353 -0.1069
45.4200 -30.2486 -0.1093
45.4400 -30.2620 -0.1055
45.4600 -30.2754 -0.1048
45.4800 -30.2887 -0.1058
45.5000 -30.3020 -0.1029
45.5200 -30.3153 -0.1038
45.5400 -30.3287 -0.1001
45.5600 -30.3420 -0.1005
45.5800 -30.3553 -0.1006
45.6000 -30.3686 -0.0986
45.6200 -30.3819 -0.0958
45.6400 -30.3953 -0.0938
45.6600 -30.4086 -0.0961
45.6800 -30.4220 -0.0928
45.7000 -30.4353 -0.0887
45.7200 -30.4487 -0.0892
45.7400 -30.4621 -0.0881
45.7600 -30.4754 -0.0878
45.7800 -30.4887 -0.0876
45.8000 -30.5021 -0.0802
45.8200 -30.5154 -0.0819
45.8400 -30.5287 -0.0782
45.8600 -30.5420 -0.0780
45.8800 -30.5553 -0.0773
45.9000 -30.5686 -0.0744
45.9200 -30.5820 -0.0712
45.9400 -30.5953 -0.0719
45.9600 -30.6086 -0.0703
45.9800 -30.6219 -0.0679
46.0000 -30.6353 -0.0660
46.0200 -30.6486 -0.0665
46.0400 -30.6619 -0.0640
46.0600 -30.6753 -0.0615
46.0800 -30.6887 -0.0603
46.1000 -30.7020 -0.0583
46.1200 -30.7153 -0.0569
46.1400 -30.7287 -0.0561
46.1600 -30.7420 -0.0555
46.1800 -30.7554 -0.0519
46.2000 -30.7687 -0.0500
46.2200 -30.7820 -0.0509
46.2400 -30.7953 -0.0467
46.2600 -30.8087 -0.0458
46.2800 -30.8220 -0.0431
46.3000 -30.8353 -0.0414
46.3200 -30.8486 -0.0394
46.3400 -30.8620 -0.0371
46.3600 -30.8753 -0.0356
46.3800 -30.8887 -0.0359
46.4000 -30.9020 -0.0321
46.4200 -30.9153 -0.0309
46.4400 -30.9287 -0.0294
46.4600 -30.9420 -0.0261
46.4800 -30.9553 -0.0245
46.5000 -30.9686 -0.0228
46.5200 -30.9820 -0.0213
46.5400 -30.9954 -0.0165
46.5600 -31.0087 -0.0187
46.5800 -31.0220 -0.0151
46.6000 -31.0354 -0.0141
46.6200 -31.0487 -0.0126
46.6400 -31.0620 -0.0097
46.6600 -31.0753 -0.0074
46.6800 -31.0886 -0.0062
46.7000 -31.1020 -0.0037
46.7200 -31.1153 0.0005
46.7400 -31.1287 -0.0002
46.7600 -31.1420 0.0025
46.7800 -31.1554 0.0039
46.8000 -31.1687 0.0047
46.8200 -31.1821 0.0069
46.8400 -31.1954 0.0107
46.8600 -31.2087 0.0091
46.8800 -31.2220 0.0103
46.9000 -31.2353 0.0133
46.9200 -31.2487 0.0134
46.9400 -31.2620 0.0157
46.9600 -31.2753 0.0182
46.9800 -31.2887 0.0186
47.0000 -31.3020 0.0186
47.0200 -31.3152 0.0227
47.0400 -31.3286 0.0223
47.0600 -31.3420 0.0237
47.0800 -31.3554 0.0249
47.1000 -31.3687 0.0253
47.1200 -31.3820 0.0279
47.1400 -31.3953 0.0304
47.1600 -31.4087 0.0303
47.1800 -31.4221 0.0329
47.2000 -31.4354 0.0366
47.2200 -31.4487 0.0360
47.2400 -31.4620 0.0370
47.2600 -31.4753 0.0413
47.2800 -31.4887 0.0409
47.3000 -31.5020 0.0427
47.3200 -31.5153 0.0472
47.3400 -31.5286 0.0443
47.3600 -31.5420 0.0452
47.3800 -31.5553 0.0490
47.4000 -31.5686 0.0499
47.4200 -31.5819 0.0523
47.4400 -31.5953 0.0547
47.4600 -31.6087 0.0539
47.4800 -31.6220 0.0582
47.5000 -31.6353 0.0607
47.5200 -31.6487 0.0606
47.5400 -31.6620 0.0620
47.5600 -31.6753 0.0642
47.5800 -31.6887 0.0657
47.6000 -31.7020 0.0665
47.6200 -31.7154 0.0712
47.6400 -31.7287 0.0712
47.6600 -31.7420 0.0742
47.6800 -31.7554 0.0746
47.7000 -31.7687 0.0761
47.7200 -31.7820 0.0776
47.7400 -31.7953 0.0806
47.7600 -31.8086 0.0807
47.7800 -31.8219 0.0837
47.8000 -31.8353 0.0862
47.8200 -31.8486 0.0860
47.8400 -31.8619 0.0873
47.8600 -31.8753 0.0903
47.8800 -31.8887 0.0890
47.9000 -31.9021 0.0919
47.9200 -31.9154 0.0967
47.9400 -31.9287 0.0964
47.9600 -31.9420 0.0972
47.9800 -31.9554 0.1005
48.0000 -31.9688 0.1017
48.0200 -31.9820 0.1034
48.0400 -31.9953 0.1089
48.0600 -32.0087 0.1101
48.0800 -32.0220 0.1082
48.1000 -32.0353 0.1119
48.1200 -32.0486 0.1131
48.1400 -32.0620 0.1144
48.1600 -32.0753 0.1176
48.1800 -32.0887 0.1185
48.2000 -32.1020 0.1205
48.2200 -32.1153 0.1237
48.2400 -32.1287 0.1243
48.2600 -32.1421 0.1237
48.2800 -32.1554 0.1269
48.3000 -32.1687 0.1291
48.3200 -32.1820 0.1312
48.3400 -32.1953 0.1325
48.3600 -32.2087 0.1347
48.3800 -32.2220 0.1357
48.4000 -32.2353 0.1380
48.4200 -32.2487 0.1391
48.4400 -32.2620 0.1425
48.4600 -32.2753 0.1439
48.4800 -32.2886 0.1435
48.5000 -32.3019 0.1446
48.5200 -32.3153 0.1498
48.5400 -32.3286 0.1476
48.5600 -32.3420 0.1499
48.5800 -32.3553 0.1517
48.6000 -32.3687 0.1528
48.6200 -32.3820 0.1524
48.6400 -32.3954 0.1560
48.6600 -32.4087 0.1562
48.6800 -32.4220 0.1567
48.7000 -32.4354 0.1583
48.7200 -32.4487 0.1598
48.7400 -32.4620 0.1602
48.7600 -32.4753 0.1613
48.7800 -32.4887 0.1619
48.8000 -32.5020 0.1633
48.8200 -32.5153 0.1658
48.8400 -32.5286 0.1684
48.8600 -32.5419 0.1668
48.8800 -32.5553 0.1692
48.9000 -32.5686 0.1706
48.9200 -32.5820 0.1679
48.9400 -32.5953 0.1699
48.9600 -32.6087 0.1696
48.9800 -32.6221 0.1707
49.0000 -32.6354 0.1696
49.0200 -32.6487 0.1717
49.0400 -32.6620 0.1709
49.0600 -32.6754 0.1737
49.0800 -32.6888 0.1734
49.1000 -32.7021 0.1729
49.1200 -32.7154 0.1734
49.1400 -32.7287 0.1749
49.1600 -32.7420 0.1718
49.1800 -32.7553 0.1763
49.2000 -32.7686 0.1761
49.2200 -32.7820 0.1737
49.2400 -32.7953 0.1785
49.2600 -32.8087 0.1793
49.2800 -32.8220 0.1777
49.3000 -32.8353 0.1810
49.3200 -32.8486 0.1831
49.3400 -32.8620 0.1825
49.3600 -32.8754 0.1858
49.3800 -32.8887 0.1862
49.4000 -32.9020 0.1847
49.4200 -32.9154 0.1888
49.4400 -32.9287 0.1902
49.4600 -32.9420 0.1896
49.4800 -32.9554 0.1919
49.5000 -32.9687 0.1951
49.5200 -32.9820 0.1942
49.5400 -32.9953 0.1984
49.5600 -33.0086 0.1979
49.5800 -33.0219 0.1996
49.6000 -33.0353 0.2047
49.6200 -33.0486 0.2056
49.6400 -33.0620 0.2066
49.6600 -33.0753 0.2108
49.6800 -33.0886 0.2154
49.7000 -33.1020 0.2150
49.7200 -33.1153 0.2199
49.7400 -33.1286 0.2214
49.7600 -33.1420 0.2221
49.7800 -33.1553 0.2268
49.8000 -33.1687 0.2289
49.8200 -33.1820 0.2322
49.8400 -33.1954 0.2336
49.8600 -33.2087 0.2368
49.8800 -33.2220 0.2375
49.9000 -33.2353 0.2424
49.9200 -33.2486 0.2448
49.9400 -33.2619 0.2479
49.9600 -33.2753 0.2499
49.9800 -33.2886 0.2530
50.0000 -33.3019 0.2534
50.0200 -33.3153 0.2560
50.0400 -33.3286 0.2589
50.0600 -33.3420 0.2596
50.0800 -33.3554 0.2652
50.1000 -33.3687 0.2672
50.1200 -33.3820 0.2687
50.1400 -33.3954 0.2718
50.1600 -33.4087 0.2723
50.1800 -33.4220 0.2734
50.2000 -33.4353 0.2767
50.2200 -33.4486 0.2807
50.2400 -33.4620 0.2795
50.2600 -33.4753 0.2843
50.2800 -33.4886 0.2848
50.3000 -33.5019 0.2863
50.3200 -33.5153 0.2887
50.3400 -33.5286 0.2922
50.3600 -33.5420 0.2914
50.3800 -33.5553 0.2952
50.4000 -33.5687 0.2944
50.4200 -33.5821 0.2956
50.4400 -33.5954 0.2994
50.4600 -33.6087 0.3002
50.4800 -33.6220 0.3003
50.5000 -33.6354 0.3032
50.5200 -33.6487 0.3040
50.5400 -33.6620 0.3016
50.5600 -33.6754 0.3067
50.5800 -33.6887 0.3075
50.6000 -33.7020 0.3090
50.6200 -33.7154 0.3135
50.6400 -33.7287 0.3138
50.6600 -33.7420 0.3120
50.6800 -33.7553 0.3129
50.7000 -33.7687 0.3125
50.7200 -33.7820 0.3123
50.7400 -33.7953 0.3148
50.7600 -33.8086 0.3174
50.7800 -33.8220 0.3154
50.8000 -33.8354 0.3185
50.8200 -33.8487 0.3194
50.8400 -33.8620 0.3167
50.8600 -33.8753 0.3182
50.8800 -33.8887 0.3225
50.9000 -33.9020 0.3195
50.9200 -33.9153 0.3227
50.9400 -33.9286 0.3225
50.9600 -33.9420 0.3202
50.9800 -33.9553 0.3227
51.0000 -33.9686 0.3244
51.0200 -33.9819 0.3247
51.0400 -33.9952 0.3283
51.0600 -34.0086 0.3291
51.0800 -34.0220 0.3280
51.1000 -34.0353 0.3306
51.1200 -34.0487 0.3334
51.1400 -34.0620 0.3289
51.1600 -34.0754 0.3347
51.1800 -34.0887 0.3348
51.2000 -34.1020 0.3357
51.2200 -34.1153 0.3369
51.2400 -34.1287 0.3386
51.2600 -34.1420 0.3370
51.2800 -34.1553 0.3415
51.3000 -34.1686 0.3440
51.3200 -34.1820 0.3428
51.3400 -34.1953 0.3467
51.3600 -34.2086 0.3492
51.3800 -34.2219 0.3495
51.4000 -34.2353 0.3529
51.4200 -34.2487 0.3543
51.4400 -34.2620 0.3553
51.4600 -34.2753 0.3582
51.4800 -34.2887 0.3613
51.5000 -34.3021 0.3615
51.5200 -34.3154 0.3644
51.5400 -34.3287 0.3690
51.5600 -34.3420 0.3668
51.5800 -34.3554 0.3713
51.6000 -34.3687 0.3738
51.6200 -34.3821 0.3743
51.6400 -34.3954 0.3766
51.6600 -34.4087 0.3811
51.6800 -34.4220 0.3785
51.7000 -34.4353 0.3847
51.7200 -34.4486 0.3843
51.7400 -34.4619 0.3859
51.7600 -34.4753 0.3877
51.7800 -34.4887 0.3923
51.8000 -34.5020 0.3934
51.8200 -34.5153 0.3959
51.8400 -34.5287 0.3994
51.8600 -34.5421 0.3985
51.8800 -34.5554 0.4030
51.9000 -34.5687 0.4055
51.9200 -34.5820 0.4031
51.9400 -34.5954 0.4092
51.9600 -34.6087 0.4079
51.9800 -34.6220 0.4118
52.0000 -34.6353 0.4100
52.0200 -34.6487 0.4174
52.0400 -34.6620 0.4143
52.0600 -34.6753 0.4210
52.0800 -34.6886 0.4206
52.1000 -34.7019 0.4240
52.1200 -34.7153 0.4249
52.1400 -34.7286 0.4297
52.1600 -34.7419 0.4254
52.1800 -34.7553 0.4314
52.2000 -34.7687 0.4339
52.2200 -34.7820 0.4338
52.2400 -34.7954 0.4368
52.2600 -34.8087 0.4374
52.2800 -34.8220 0.4406
52.3000 -34.8354 0.4418
52.3200 -34.8487 0.4442
52.3400 -34.8620 0.4445
52.3600 -34.8753 0.4469
52.3800 -34.8886 0.4486
52.4000 -34.9020 0.4487
52.4200 -34.9153 0.4497
52.4400 -34.9286 0.4531
52.4600 -34.9419 0.4539
52.4800 -34.9553 0.4568
52.5000 -34.9687 0.4600
52.5200 -34.9820 0.4581
52.5400 -34.9953 0.4593
52.5600 -35.0086 0.4639
52.5800 -35.0220 0.4615
52.6000 -35.0354 0.4646
52.6200 -35.0487 0.4652
52.6400 -35.0620 0.4662
52.6600 -35.0753 0.4671
52.6800 -35.0887 0.4700
52.7000 -35.1020 0.4703
52.7200 -35.1153 0.4703
52.7400 -35.1287 0.4735
52.7600 -35.1420 0.4732
52.7800 -35.1554 0.4738
52.8000 -35.1687 0.4743
52.8200 -35.1820 0.4757
52.8400 -35.1953 0.4760
52.8600 -35.2086 0.4777
52.8800 -35.2220 0.4778
52.9000 -35.2353 0.4783
52.9200 -35.2486 0.4826
52.9400 -35.2620 0.4809
52.9600 -35.2754 0.4826
52.9800 -35.2887 0.4854
53.0000 -35.3020 0.4838
53.0200 -35.3154 0.4863
53.0400 -35.3287 0.4910
53.0600 -35.3421 0.4911
53.0800 -35.3554 0.4930
53.1000 -35.3687 0.4951
53.1200 -35.3820 0.4954
53.1400 -35.3953 0.4971
53.1600 -35.4086 0.5004
53.1800 -35.4219 0.5001
53.2000 -35.4353 0.5015
53.2200 -35.4486 0.5041
53.2400 -35.4620 0.5043
53.2600 -35.4753 0.5048
53.2800 -35.4886 0.5073
53.3000 -35.5020 0.5078
53.3200 -35.5154 0.5097
53.3400 -35.5287 0.5133
53.3600 -35.5420 0.5133
53.3800 -35.5553 0.5126
53.4000 -35.5687 0.5136
53.4200 -35.5820 0.5135
53.4400 -35.5953 0.5155
53.4600 -35.6087 0.5187
53.4800 -35.6220 0.5180
53.5000 -35.6354 0.5191
53.5200 -35.6486 0.5217
53.5400 -35.6619 0.5213
53.5600 -35.6753 0.5234
53.5800 -35.6886 0.5274
53.6000 -35.7020 0.5281
53.6200 -35.7153 0.5277
53.6400 -35.7286 0.5276
53.6600 -35.7420 0.5291
53.6800 -35.7553 0.5306
53.7000 -35.7687 0.5355
53.7200 -35.7820 0.5356
53.7400 -35.7953 0.5375
53.7600 -35.8087 0.5417
53.7800 -35.8220 0.5405
53.8000 -35.8354 0.5442
53.8200 -35.8487 0.5455
53.8400 -35.8620 0.5476
53.8600 -35.8754 0.5483
53.8800 -35.8887 0.5513
53.9000 -35.9020 0.5495
53.9200 -35.9153 0.5564
53.9400 -35.9286 0.5591
53.9600 -35.9420 0.5626
53.9800 -35.9553 0.5651
54.0000 -35.9686 0.5682
54.0200 -35.9820 0.5671
54.0400 -35.9954 0.5699
54.0600 -36.0087 0.5750
54.0800 -36.0220 0.5746
54.1000 -36.0353 0.5765
54.1200 -36.0487 0.5804
54.1400 -36.0620 0.5834
54.1600 -36.0753 0.5835
54.1800 -36.0886 0.5876
54.2000 -36.1020 0.5895
54.2200 -36.1153 0.5907
54.2400 -36.1287 0.5918
54.2600 -36.1420 0.5963
54.2800 -36.1553 0.5965
54.3000 -36.1687 0.6012
54.3200 -36.1820 0.5990
54.3400 -36.1953 0.6043
54.3600 -36.2087 0.6071
54.3800 -36.2220 0.6101
54.4000 -36.2354 0.6119
54.4200 -36.2487 0.6152
54.4400 -36.2620 0.6134
54.4600 -36.2753 0.6149
54.4800 -36.2887 0.6182
54.5000 -36.3020 0.6204
54.5200 -36.3153 0.6195
54.5400 -36.3286 0.6255
54.5600 -36.3420 0.6249
54.5800 -36.3553 0.6254
54.6000 -36.3686 0.6315
54.6200 -36.3820 0.6319
54.6400 -36.3953 0.6328
54.6600 -36.4087 0.6359
54.6800 -36.4220 0.6362
54.7000 -36.4353 0.6374
54.7200 -36.4487 0.6400
54.7400 -36.4620 0.6413
54.7600 -36.4754 0.6426
54.7800 -36.4887 0.6461
54.8000 -36.5020 0.6471
54.8200 -36.5153 0.6479
54.8400 -36.5287 0.6518
54.8600 -36.5420 0.6527
54.8800 -36.5553 0.6528
54.9000 -36.5687 0.6562
54.9200 -36.5820 0.6579
54.9400 -36.5954 0.6579
54.9600 -36.6087 0.6634
54.9800 -36.6220 0.6639
55.0000 -36.6353 0.6638
55.0200 -36.6486 0.6662
55.0400 -36.6619 0.6693
55.0600 -36.6753 0.6678
55.0800 -36.6886 0.6741
55.1000 -36.7020 0.6735
55.1200 -36.7154 0.6747
55.1400 -36.7287 0.6785
55.1600 -36.7420 0.6786
55.1800 -36.7553 0.6777
55.2000 -36.7687 0.6805
55.2200 -36.7821 0.6799
55.2400 -36.7954 0.6822
55.2600 -36.8087 0.6857
55.2800 -36.8220 0.6876
55.3000 -36.8353 0.6887
55.3200 -36.8486 0.6928
55.3400 -36.8619 0.6917
55.3600 -36.8753 0.6931
55.3800 -36.8886 0.6980
55.4000 -36.9020 0.6998
55.4200 -36.9153 0.6998
55.4400 -36.9286 0.7025
55.4600 -36.9420 0.7021
55.4800 -36.9554 0.7055
55.5000 -36.9687 0.7085
55.5200 -36.9820 0.7105
55.5400 -36.9953 0.7101
55.5600 -37.0087 0.7126
55.5800 -37.0220 0.7153
55.6000 -37.0354 0.7174
55.6200 -37.0487 0.7213
55.6400 -37.0620 0.7216
55.6600 -37.0753 0.7237
55.6800 -37.0886 0.7266
55.7000 -37.1019 0.7268
55.7200 -37.1153 0.7273
55.7400 -37.1286 0.7295
55.7600 -37.1420 0.7319
55.7800 -37.1553 0.7336
55.8000 -37.1686 0.7358
55.8200 -37.1820 0.7377
55.8400 -37.1954 0.7384
55.8600 -37.2087 0.7400
55.8800 -37.2220 0.7430
55.9000 -37.2353 0.7429
55.9200 -37.2487 0.7487
55.9400 -37.2621 0.7473
55.9600 -37.2754 0.7480
55.9800 -37.2887 0.7525
56.0000 -37.3020 0.7525
56.0200 -37.3153 0.7544
56.0400 -37.3286 0.7590
56.0600 -37.3419 0.7589
56.0800 -37.3552 0.7615
56.1000 -37.3686 0.7639
56.1200 -37.3820 0.7638
56.1400 -37.3953 0.7622
56.1600 -37.4086 0.7649
56.1800 -37.4220 0.7670
56.2000 -37.4354 0.7684
56.2200 -37.4487 0.7720
56.2400 -37.4620 0.7736
56.2600 -37.4754 0.7738
56.2800 -37.4887 0.7785
56.3000 -37.5021 0.7783
56.3200 -37.5154 0.7796
56.3400 -37.5287 0.7817
56.3600 -37.5420 0.8207
56.3800 -37.5553 0.6015
56.4000 -37.5687 0.5097
56.4200 -37.5820 0.4933
56.4400 -37.5953 0.4965
56.4600 -37.6086 0.5064
56.4800 -37.6220 0.5087
56.5000 -37.6353 0.5075
56.5200 -37.6486 0.5065
56.5400 -37.6620 0.5069
56.5600 -37.6753 0.5049
56.5800 -37.6887 0.5056
56.6000 -37.7020 0.5059
56.6200 -37.7153 0.5053
56.6400 -37.7287 0.5057
56.6600 -37.7421 0.5076
56.6800 -37.7554 0.5040
56.7000 -37.7687 0.5073
56.7200 -37.7820 0.5093
56.7400 -37.7954 0.5100
56.7600 -37.8087 0.5117
56.7800 -37.8220 0.5118
56.8000 -37.8353 0.5109
56.8200 -37.8486 0.5146
56.8400 -37.8620 0.5140
56.8600 -37.8753 0.5137
56.8800 -37.8886 0.5145
56.9000 -37.9020 0.5174
56.9200 -37.9153 0.5160
56.9400 -37.9287 0.5181
56.9600 -37.9420 0.5197
56.9800 -37.9553 0.5196
57.0000 -37.9687 0.5215
57.0200 -37.9821 0.5233
57.0400 -37.9954 0.5220
57.0600 -38.0087 0.5253
57.0800 -38.0220 0.5261
57.1000 -38.0354 0.5287
57.1200 -38.0487 0.5291
57.1400 -38.0620 0.5291
57.1600 -38.0753 0.5285
57.1800 -38.0886 0.5305
57.2000 -38.1020 0.5307
57.2200 -38.1153 0.5280
57.2400 -38.1286 0.5309
57.2600 -38.1419 0.5317
57.2800 -38.1553 0.5314
57.3000 -38.1687 0.5337
57.3200 -38.1820 0.5338
57.3400 -38.1954 0.5357
57.3600 -38.2087 0.5382
57.3800 -38.2221 0.5387
57.4000 -38.2354 0.5374
57.4200 -38.2487 0.5377
57.4400 -38.2620 0.5389
57.4600 -38.2753 0.5396
57.4800 -38.2886 0.5418
57.5000 -38.3019 0.5437
57.5200 -38.3152 0.5437
57.5400 -38.3286 0.5455
57.5600 -38.3420 0.5473
57.5800 -38.3553 0.5459
57.6000 -38.3686 0.5496
57.6200 -38.3820 0.5489
57.6400 -38.3953 0.5516
57.6600 -38.4087 0.5506
57.6800 -38.4220 0.5538
57.7000 -38.4353 0.5494
57.7200 -38.4487 0.5513
57.7400 -38.4620 0.5540
57.7600 -38.4754 0.5557
57.7800 -38.4887 0.5584
57.8000 -38.5020 0.5581
57.8200 -38.5154 0.5576
57.8400 -38.5287 0.5598
57.8600 -38.5420 0.5604
57.8800 -38.5553 0.5608
57.9000 -38.5686 0.5632
57.9200 -38.5820 0.5635
57.9400 -38.5953 0.5643
57.9600 -38.6086 0.5650
57.9800 -38.6220 0.5684
58.0000 -38.6353 0.5698
58.0200 -38.6487 0.5699
58.0400 -38.6620 0.5687
58.0600 -38.6753 0.5674
58.0800 -38.6887 0.5721
58.1000 -38.7020 0.5728
58.1200 -38.7154 0.5707
58.1400 -38.7287 0.5743
58.1600 -38.7420 0.5762
58.1800 -38.7553 0.5756
58.2000 -38.7687 0.5769
58.2200 -38.7820 0.5797
58.2400 -38.7953 0.5778
58.2600 -38.8086 0.5799
58.2800 -38.8220 0.5821
58.3000 -38.8353 0.5823
58.3200 -38.8486 0.5830
58.3400 -38.8620 0.5815
58.3600 -38.8753 0.5820
58.3800 -38.8887 0.5859
58.4000 -38.9021 0.5870
58.4200 -38.9154 0.5885
58.4400 -38.9287 0.5905
58.4600 -38.9420 0.5928
58.4800 -38.9554 0.5934
58.5000 -38.9687 0.5923
58.5200 -38.9820 0.5948
58.5400 -38.9953 0.5950
58.5600 -39.0087 0.5968
58.5800 -39.0220 0.5976
58.6000 -39.0353 0.5958
58.6200 -39.0486 0.5986
58.6400 -39.0620 0.6012
58.6600 -39.0754 0.6004
58.6800 -39.0887 0.6018
58.7000 -39.1020 0.6030
58.7200 -39.1153 0.6025
58.7400 -39.1287 0.6040
58.7600 -39.1420 0.6048
58.7800 -39.1553 0.6048
58.8000 -39.1687 0.6068
58.8200 -39.1820 0.6097
58.8400 -39.1954 0.6096
58.8600 -39.2087 0.6102
58.8800 -39.2220 0.6139
58.9000 -39.2353 0.6110
58.9200 -39.2486 0.6138
58.9400 -39.2619 0.6146
58.9600 -39.2752 0.6134
58.9800 -39.2886 0.6144
59.0000 -39.3019 0.6151
59.0200 -39.3153 0.6156
59.0400 -39.3286 0.6189
59.0600 -39.3420 0.6191
59.0800 -39.3553 0.6195
59.1000 -39.3687 0.6206
59.1200 -39.3820 0.6227
59.1400 -39.3954 0.6223
59.1600 -39.4087 0.6232
59.1800 -39.4220 0.6266
59.2000 -39.4354 0.6271
59.2200 -39.4487 0.6276
59.2400 -39.4620 0.6310
59.2600 -39.4753 0.6344
59.2800 -39.4887 0.6320
59.3000 -39.5020 0.6338
59.3200 -39.5152 0.6341
59.3400 -39.5286 0.6359
59.3600 -39.5419 0.6382
59.3800 -39.5553 0.6378
59.4000 -39.5686 0.6414
59.4200 -39.5820 0.6438
59.4400 -39.5953 0.6429
59.4600 -39.6087 0.6441
59.4800 -39.6221 0.6458
59.5000 -39.6354 0.6461
59.5200 -39.6487 0.6461
59.5400 -39.6620 0.6480
59.5600 -39.6754 0.6472
59.5800 -39.6887 0.6476
59.6000 -39.7020 0.6498
59.6200 -39.7153 0.6509
59.6400 -39.7287 0.6486
59.6600 -39.7420 0.6522
59.6800 -39.7553 0.6508
59.7000 -39.7686 0.6535
59.7200 -39.7819 0.6563
59.7400 -39.7953 0.6557
59.7600 -39.8087 0.6557
59.7800 -39.8220 0.6573
59.8000 -39.8354 0.6579
59.8200 -39.8487 0.6584
59.8400 -39.8620 0.6598
59.8600 -39.8753 0.6605
59.8800 -39.8886 0.6608
59.9000 -39.9020 0.6627
59.9200 -39.9154 0.6616
59.9400 -39.9287 0.6655
59.9600 -39.9420 0.6672
59.9800 -39.9553 0.6685
60.0000 -39.9687 0.6670
60.0200 -39.9820 0.6697
60.0400 -39.9953 0.6701
60.0480 -40.0005 0.6738
