Raw Data
Time Displacement Force
(s) (mm) (N)
0.0000 -0.0001 -0.3260
0.0200 -0.0001 -0.3274
0.0400 -0.0020 -0.3425
0.0600 -0.0094 -0.3404
0.0800 -0.0213 -0.3276
0.1000 -0.0340 -0.3280
0.1200 -0.0468 -0.3251
0.1400 -0.0601 -0.3278
0.1600 -0.0740 -0.3248
0.1800 -0.0880 -0.3265
0.2000 -0.1019 -0.3229
0.2200 -0.1154 -0.3245
0.2400 -0.1288 -0.3263
0.2600 -0.1422 -0.3269
0.2800 -0.1554 -0.3255
0.3000 -0.1687 -0.3239
0.3200 -0.1821 -0.3242
0.3400 -0.1955 -0.3221
0.3600 -0.2088 -0.3246
0.3800 -0.2221 -0.3244
0.4000 -0.2354 -0.3252
0.4200 -0.2488 -0.3228
0.4400 -0.2622 -0.3225
0.4600 -0.2755 -0.3218
0.4800 -0.2888 -0.3218
0.5000 -0.3022 -0.3183
0.5200 -0.3155 -0.3172
0.5400 -0.3289 -0.3174
0.5600 -0.3422 -0.3191
0.5800 -0.3555 -0.3174
0.6000 -0.3689 -0.3153
0.6200 -0.3822 -0.3138
0.6400 -0.3955 -0.3134
0.6600 -0.4088 -0.3132
0.6800 -0.4222 -0.3132
0.7000 -0.4355 -0.3094
0.7200 -0.4488 -0.3101
0.7400 -0.4621 -0.3096
0.7600 -0.4754 -0.3073
0.7800 -0.4888 -0.3081
0.8000 -0.5022 -0.3065
0.8200 -0.5155 -0.3039
0.8400 -0.5288 -0.3045
0.8600 -0.5422 -0.3036
0.8800 -0.5556 -0.3019
0.9000 -0.5689 -0.3003
0.9200 -0.5822 -0.3012
0.9400 -0.5955 -0.3002
0.9600 -0.6089 -0.2994
0.9800 -0.6222 -0.2983
1.0000 -0.6355 -0.2982
1.0200 -0.6488 -0.2968
1.0400 -0.6622 -0.2971
1.0600 -0.6755 -0.2965
1.0800 -0.6888 -0.2966
1.1000 -0.7021 -0.2941
1.1200 -0.7154 -0.2945
1.1400 -0.7288 -0.2934
1.1600 -0.7422 -0.2929
1.1800 -0.7555 -0.2915
1.2000 -0.7688 -0.2920
1.2200 -0.7822 -0.2893
1.2400 -0.7956 -0.2882
1.2600 -0.8089 -0.2879
1.2800 -0.8222 -0.2888
1.3000 -0.8355 -0.2880
1.3200 -0.8489 -0.2855
1.3400 -0.8623 -0.2837
1.3600 -0.8756 -0.2823
1.3800 -0.8889 -0.2842
1.4000 -0.9022 -0.2826
1.4200 -0.9155 -0.2838
1.4400 -0.9288 -0.2806
1.4600 -0.9421 -0.2828
1.4800 -0.9554 -0.2813
1.5000 -0.9688 -0.2827
1.5200 -0.9821 -0.2814
1.5400 -0.9955 -0.2810
1.5600 -1.0088 -0.2802
1.5800 -1.0222 -0.2793
1.6000 -1.0356 -0.2797
1.6200 -1.0489 -0.2800
1.6400 -1.0622 -0.2784
1.6600 -1.0755 -0.2760
1.6800 -1.0889 -0.2744
1.7000 -1.1022 -0.2751
1.7200 -1.1155 -0.2769
1.7400 -1.1288 -0.2751
1.7600 -1.1422 -0.2744
1.7800 -1.1555 -0.2716
1.8000 -1.1688 -0.2714
1.8200 -1.1821 -0.2714
1.8400 -1.1954 -0.2714
1.8600 -1.2088 -0.2720
1.8800 -1.2222 -0.2692
1.9000 -1.2355 -0.2699
1.9200 -1.2488 -0.2683
1.9400 -1.2622 -0.2689
1.9600 -1.2756 -0.2650
1.9800 -1.2889 -0.2665
2.0000 -1.3022 -0.2654
2.0200 -1.3155 -0.2669
2.0400 -1.3288 -0.2644
2.0600 -1.3422 -0.2640
2.0800 -1.3556 -0.2622
2.1000 -1.3689 -0.2647
2.1200 -1.3822 -0.2617
2.1400 -1.3955 -0.2617
2.1600 -1.4089 -0.2630
2.1800 -1.4222 -0.2611
2.2000 -1.4355 -0.2602
2.2200 -1.4488 -0.2593
2.2400 -1.4622 -0.2586
2.2600 -1.4755 -0.2567
2.2800 -1.4888 -0.2579
2.3000 -1.5022 -0.2577
2.3200 -1.5156 -0.2570
2.3400 -1.5289 -0.2574
2.3600 -1.5423 -0.2571
2.3800 -1.5556 -0.2525
2.4000 -1.5689 -0.2523
2.4200 -1.5823 -0.2516
2.4400 -1.5956 -0.2507
2.4600 -1.6089 -0.2511
2.4800 -1.6222 -0.2502
2.5000 -1.6355 -0.2487
2.5200 -1.6488 -0.2503
2.5400 -1.6621 -0.2486
2.5600 -1.6754 -0.2495
2.5800 -1.6888 -0.2483
2.6000 -1.7022 -0.2459
2.6200 -1.7155 -0.2451
2.6400 -1.7288 -0.2470
2.6600 -1.7422 -0.2470
2.6800 -1.7556 -0.2464
2.7000 -1.7689 -0.2441
2.7200 -1.7822 -0.2428
2.7400 -1.7955 -0.2402
2.7600 -1.8089 -0.2416
2.7800 -1.8222 -0.2418
2.8000 -1.8355 -0.2397
2.8200 -1.8489 -0.2398
2.8400 -1.8622 -0.2386
2.8600 -1.8755 -0.2363
2.8800 -1.8889 -0.2372
2.9000 -1.9021 -0.2374
2.9200 -1.9154 -0.2351
2.9400 -1.9288 -0.2361
2.9600 -1.9422 -0.2347
2.9800 -1.9555 -0.2325
3.0000 -1.9688 -0.2337
3.0200 -1.9822 -0.2347
3.0400 -1.9955 -0.2334
3.0600 -2.0089 -0.2338
3.0800 -2.0222 -0.2331
3.1000 -2.0355 -0.2315
3.1200 -2.0488 -0.2311
3.1400 -2.0622 -0.2299
3.1600 -2.0756 -0.2272
3.1800 -2.0889 -0.2298
3.2000 -2.1022 -0.2300
3.2200 -2.1155 -0.2276
3.2400 -2.1289 -0.2276
3.2600 -2.1422 -0.2282
3.2800 -2.1555 -0.2253
3.3000 -2.1688 -0.2254
3.3200 -2.1822 -0.2256
3.3400 -2.1955 -0.2249
3.3600 -2.2088 -0.2249
3.3800 -2.2222 -0.2262
3.4000 -2.2356 -0.2237
3.4200 -2.2489 -0.2234
3.4400 -2.2622 -0.2228
3.4600 -2.2755 -0.2223
3.4800 -2.2888 -0.2224
3.5000 -2.3022 -0.2212
3.5200 -2.3155 -0.2180
3.5400 -2.3288 -0.2173
3.5600 -2.3422 -0.2192
3.5800 -2.3555 -0.2192
3.6000 -2.3689 -0.2186
3.6200 -2.3822 -0.2183
3.6400 -2.3955 -0.2169
3.6600 -2.4088 -0.2144
3.6800 -2.4222 -0.2174
3.7000 -2.4355 -0.2140
3.7200 -2.4488 -0.2167
3.7400 -2.4622 -0.2163
3.7600 -2.4756 -0.2156
3.7800 -2.4889 -0.2113
3.8000 -2.5022 -0.2131
3.8200 -2.5155 -0.2119
3.8400 -2.5289 -0.2113
3.8600 -2.5422 -0.2119
3.8800 -2.5556 -0.2120
3.9000 -2.5689 -0.2101
3.9200 -2.5822 -0.2128
3.9400 -2.5955 -0.2095
3.9600 -2.6088 -0.2109
3.9800 -2.6222 -0.2089
4.0000 -2.6355 -0.2096
4.0200 -2.6488 -0.2082
4.0400 -2.6622 -0.2073
4.0600 -2.6755 -0.2060
4.0800 -2.6889 -0.2073
4.1000 -2.7022 -0.2066
4.1200 -2.7155 -0.2054
4.1400 -2.7289 -0.2055
4.1600 -2.7422 -0.2042
4.1800 -2.7555 -0.2029
4.2000 -2.7688 -0.2021
4.2200 -2.7822 -0.2060
4.2400 -2.7955 -0.2023
4.2600 -2.8089 -0.2032
4.2800 -2.8222 -0.2025
4.3000 -2.8355 -0.2014
4.3200 -2.8489 -0.2005
4.3400 -2.8622 -0.2026
4.3600 -2.8755 -0.2013
4.3800 -2.8888 -0.2022
4.4000 -2.9021 -0.2029
4.4200 -2.9155 -0.2002
4.4400 -2.9288 -0.1991
4.4600 -2.9421 -0.2013
4.4800 -2.9555 -0.1985
4.5000 -2.9689 -0.1983
4.5200 -2.9822 -0.1989
4.5400 -2.9955 -0.1953
4.5600 -3.0089 -0.1943
4.5800 -3.0222 -0.1965
4.6000 -3.0356 -0.1935
4.6200 -3.0489 -0.1935
4.6400 -3.0622 -0.1916
4.6600 -3.0755 -0.1907
4.6800 -3.0889 -0.1897
4.7000 -3.1022 -0.1927
4.7200 -3.1155 -0.1904
4.7400 -3.1288 -0.1896
4.7600 -3.1422 -0.1915
4.7800 -3.1555 -0.1886
4.8000 -3.1688 -0.1898
4.8200 -3.1822 -0.1897
4.8400 -3.1955 -0.1880
4.8600 -3.2089 -0.1882
4.8800 -3.2222 -0.1884
4.9000 -3.2355 -0.1876
4.9200 -3.2488 -0.1857
4.9400 -3.2622 -0.1876
4.9600 -3.2755 -0.1874
4.9800 -3.2889 -0.1870
5.0000 -3.3022 -0.1871
5.0200 -3.3155 -0.1864
5.0400 -3.3289 -0.1844
5.0600 -3.3422 -0.1845
5.0800 -3.3555 -0.1837
5.1000 -3.3688 -0.1832
5.1200 -3.3822 -0.1850
5.1400 -3.3955 -0.1821
5.1600 -3.4088 -0.1833
5.1800 -3.4222 -0.1836
5.2000 -3.4355 -0.1828
5.2200 -3.4489 -0.1806
5.2400 -3.4622 -0.1836
5.2600 -3.4755 -0.1797
5.2800 -3.4889 -0.1789
5.3000 -3.5022 -0.1787
5.3200 -3.5156 -0.1783
5.3400 -3.5289 -0.1775
5.3600 -3.5422 -0.1788
5.3800 -3.5555 -0.1769
5.4000 -3.5689 -0.1778
5.4200 -3.5822 -0.1759
5.4400 -3.5954 -0.1757
5.4600 -3.6088 -0.1737
5.4800 -3.6221 -0.1756
5.5000 -3.6355 -0.1744
5.5200 -3.6488 -0.1750
5.5400 -3.6621 -0.1752
5.5600 -3.6755 -0.1739
5.5800 -3.6889 -0.1719
5.6000 -3.7022 -0.1753
5.6200 -3.7156 -0.1724
5.6400 -3.7289 -0.1717
5.6600 -3.7422 -0.1707
5.6800 -3.7556 -0.1704
5.7000 -3.7689 -0.1700
5.7200 -3.7822 -0.1709
5.7400 -3.7955 -0.1684
5.7600 -3.8089 -0.1660
5.7800 -3.8222 -0.1683
5.8000 -3.8355 -0.1673
5.8200 -3.8488 -0.1649
5.8400 -3.8622 -0.1655
5.8600 -3.8755 -0.1635
5.8800 -3.8888 -0.1623
5.9000 -3.9021 -0.1647
5.9200 -3.9155 -0.1633
5.9400 -3.9289 -0.1638
5.9600 -3.9422 -0.1642
5.9800 -3.9555 -0.1638
6.0000 -3.9688 -0.1632
6.0200 -3.9822 -0.1643
6.0400 -3.9956 -0.1631
6.0600 -4.0089 -0.1629
6.0800 -4.0222 -0.1645
6.1000 -4.0356 -0.1618
6.1200 -4.0489 -0.1603
6.1400 -4.0622 -0.1602
6.1600 -4.0755 -0.1598
6.1800 -4.0888 -0.1598
6.2000 -4.1022 -0.1608
6.2200 -4.1155 -0.1586
6.2400 -4.1288 -0.1575
6.2600 -4.1421 -0.1577
6.2800 -4.1555 -0.1553
6.3000 -4.1689 -0.1547
6.3200 -4.1822 -0.1568
6.3400 -4.1955 -0.1574
6.3600 -4.2088 -0.1537
6.3800 -4.2222 -0.1546
6.4000 -4.2356 -0.1522
6.4200 -4.2489 -0.1520
6.4400 -4.2622 -0.1523
6.4600 -4.2755 -0.1536
6.4800 -4.2889 -0.1512
6.5000 -4.3022 -0.1526
6.5200 -4.3155 -0.1498
6.5400 -4.3288 -0.1506
6.5600 -4.3421 -0.1510
6.5800 -4.3555 -0.1499
6.6000 -4.3688 -0.1493
6.6200 -4.3821 -0.1499
6.6400 -4.3955 -0.1485
6.6600 -4.4089 -0.1474
6.6800 -4.4222 -0.1495
6.7000 -4.4356 -0.1465
6.7200 -4.4489 -0.1467
6.7400 -4.4622 -0.1473
6.7600 -4.4756 -0.1466
6.7800 -4.4889 -0.1456
6.8000 -4.5022 -0.1450
6.8200 -4.5155 -0.1448
6.8400 -4.5288 -0.1443
6.8600 -4.5421 -0.1449
6.8800 -4.5554 -0.1466
6.9000 -4.5688 -0.1431
6.9200 -4.5821 -0.1449
6.9400 -4.5955 -0.1433
6.9600 -4.6089 -0.1403
6.9800 -4.6222 -0.1425
7.0000 -4.6355 -0.1417
7.0200 -4.6489 -0.1398
7.0400 -4.6623 -0.1397
7.0600 -4.6755 -0.1403
7.0800 -4.6888 -0.1386
7.1000 -4.7022 -0.1409
7.1200 -4.7156 -0.1397
7.1400 -4.7289 -0.1377
7.1600 -4.7422 -0.1379
7.1800 -4.7555 -0.1369
7.2000 -4.7689 -0.1367
7.2200 -4.7822 -0.1382
7.2400 -4.7955 -0.1378
7.2600 -4.8088 -0.1357
7.2800 -4.8222 -0.1368
7.3000 -4.8355 -0.1364
7.3200 -4.8488 -0.1325
7.3400 -4.8621 -0.1354
7.3600 -4.8755 -0.1341
7.3800 -4.8889 -0.1343
7.4000 -4.9022 -0.1334
7.4200 -4.9155 -0.1343
7.4400 -4.9288 -0.1300
7.4600 -4.9422 -0.1329
7.4800 -4.9556 -0.1307
7.5000 -4.9689 -0.1279
7.5200 -4.9822 -0.1295
7.5400 -4.9955 -0.1304
7.5600 -5.0089 -0.1284
7.5800 -5.0222 -0.1286
7.6000 -5.0355 -0.1303
7.6200 -5.0488 -0.1277
7.6400 -5.0621 -0.1268
7.6600 -5.0755 -0.1276
7.6800 -5.0889 -0.1276
7.7000 -5.1022 -0.1275
7.7200 -5.1155 -0.1267
7.7400 -5.1289 -0.1249
7.7600 -5.1423 -0.1241
7.7800 -5.1556 -0.1250
7.8000 -5.1689 -0.1228
7.8200 -5.1822 -0.1249
7.8400 -5.1955 -0.1235
7.8600 -5.2089 -0.1221
7.8800 -5.2222 -0.1212
7.9000 -5.2355 -0.1224
7.9200 -5.2488 -0.1215
7.9400 -5.2622 -0.1202
7.9600 -5.2755 -0.1217
7.9800 -5.2888 -0.1172
8.0000 -5.3021 -0.1221
8.0200 -5.3155 -0.1185
8.0400 -5.3289 -0.1187
8.0600 -5.3422 -0.1191
8.0800 -5.3555 -0.1200
8.1000 -5.3689 -0.1163
8.1200 -5.3822 -0.1197
8.1400 -5.3956 -0.1160
8.1600 -5.4089 -0.1169
8.1800 -5.4222 -0.1156
8.2000 -5.4356 -0.1178
8.2200 -5.4489 -0.1150
8.2400 -5.4622 -0.1162
8.2600 -5.4755 -0.1163
8.2800 -5.4888 -0.1145
8.3000 -5.5022 -0.1154
8.3200 -5.5155 -0.1143
8.3400 -5.5288 -0.1132
8.3600 -5.5421 -0.1119
8.3800 -5.5555 -0.1126
8.4000 -5.5688 -0.1102
8.4200 -5.5822 -0.1097
8.4400 -5.5955 -0.1098
8.4600 -5.6089 -0.1071
8.4800 -5.6223 -0.1093
8.5000 -5.6356 -0.1107
8.5200 -5.6489 -0.1082
8.5400 -5.6622 -0.1088
8.5600 -5.6756 -0.1085
8.5800 -5.6889 -0.1084
8.6000 -5.7022 -0.1095
8.6200 -5.7155 -0.1117
8.6400 -5.7288 -0.1058
8.6600 -5.7422 -0.1053
8.6800 -5.7555 -0.1057
8.7000 -5.7688 -0.1051
8.7200 -5.7821 -0.1035
8.7400 -5.7955 -0.1073
8.7600 -5.8088 -0.1010
8.7800 -5.8221 -0.1046
8.8000 -5.8355 -0.1046
8.8200 -5.8489 -0.1033
8.8400 -5.8622 -0.1018
8.8600 -5.8756 -0.1054
8.8800 -5.8889 -0.1020
8.9000 -5.9022 -0.1042
8.9200 -5.9156 -0.1020
8.9400 -5.9289 -0.0992
8.9600 -5.9422 -0.0997
8.9800 -5.9555 -0.1005
9.0000 -5.9689 -0.0980
9.0200 -5.9822 -0.0993
9.0400 -5.9955 -0.0995
9.0600 -6.0088 -0.0967
9.0800 -6.0221 -0.0969
9.1000 -6.0355 -0.0973
9.1200 -6.0489 -0.0959
9.1400 -6.0622 -0.0979
9.1600 -6.0755 -0.0978
9.1800 -6.0889 -0.0966
9.2000 -6.1022 -0.0932
9.2200 -6.1155 -0.0953
9.2400 -6.1288 -0.0932
9.2600 -6.1421 -0.0940
9.2800 -6.1555 -0.0946
9.3000 -6.1689 -0.0912
9.3200 -6.1822 -0.0926
9.3400 -6.1955 -0.0943
9.3600 -6.2089 -0.0922
9.3800 -6.2222 -0.0920
9.4000 -6.2355 -0.0937
9.4200 -6.2488 -0.0905
9.4400 -6.2621 -0.0900
9.4600 -6.2755 -0.0895
9.4800 -6.2888 -0.0878
9.5000 -6.3022 -0.0879
9.5200 -6.3155 -0.0903
9.5400 -6.3289 -0.0859
9.5600 -6.3423 -0.0863
9.5800 -6.3556 -0.0870
9.6000 -6.3689 -0.0853
9.6200 -6.3822 -0.0861
9.6400 -6.3956 -0.0862
9.6600 -6.4089 -0.0840
9.6800 -6.4222 -0.0855
9.7000 -6.4355 -0.0859
9.7200 -6.4488 -0.0831
9.7400 -6.4622 -0.0832
9.7600 -6.4755 -0.0833
9.7800 -6.4888 -0.0814
9.8000 -6.5021 -0.0807
9.8200 -6.5155 -0.0824
9.8400 -6.5288 -0.0799
9.8600 -6.5422 -0.0815
9.8800 -6.5555 -0.0827
9.9000 -6.5689 -0.0791
9.9200 -6.5822 -0.0817
9.9400 -6.5956 -0.0807
9.9600 -6.6089 -0.0765
9.9800 -6.6222 -0.0774
10.0000 -6.6356 -0.0792
10.0200 -6.6489 -0.0780
10.0400 -6.6622 -0.0797
10.0600 -6.6755 -0.0786
10.0800 -6.6889 -0.0764
10.1000 -6.7022 -0.0750
10.1200 -6.7155 -0.0774
10.1400 -6.7288 -0.0743
10.1600 -6.7421 -0.0765
10.1800 -6.7555 -0.0770
10.2000 -6.7688 -0.0751
10.2200 -6.7822 -0.0744
10.2400 -6.7955 -0.0745
10.2600 -6.8088 -0.0728
10.2800 -6.8222 -0.0731
10.3000 -6.8356 -0.0735
10.3200 -6.8489 -0.0711
10.3400 -6.8622 -0.0701
10.3600 -6.8755 -0.0705
10.3800 -6.8889 -0.0700
10.4000 -6.9022 -0.0692
10.4200 -6.9155 -0.0714
10.4400 -6.9289 -0.0698
10.4600 -6.9422 -0.0708
10.4800 -6.9555 -0.0705
10.5000 -6.9688 -0.0685
10.5200 -6.9821 -0.0689
10.5400 -6.9955 -0.0695
10.5600 -7.0088 -0.0670
10.5800 -7.0222 -0.0658
10.6000 -7.0355 -0.0689
10.6200 -7.0489 -0.0664
10.6400 -7.0622 -0.0656
10.6600 -7.0756 -0.0680
10.6800 -7.0889 -0.0639
10.7000 -7.1022 -0.0641
10.7200 -7.1155 -0.0663
10.7400 -7.1289 -0.0640
10.7600 -7.1422 -0.0652
10.7800 -7.1555 -0.0655
10.8000 -7.1688 -0.0640
10.8200 -7.1822 -0.0616
10.8400 -7.1955 -0.0630
10.8600 -7.2088 -0.0594
10.8800 -7.2221 -0.0613
10.9000 -7.2355 -0.0620
10.9200 -7.2489 -0.0610
10.9400 -7.2622 -0.0589
10.9600 -7.2755 -0.0609
10.9800 -7.2888 -0.0583
11.0000 -7.3022 -0.0575
11.0200 -7.3156 -0.0564
11.0400 -7.3289 -0.0575
11.0600 -7.3422 -0.0578
11.0800 -7.3555 -0.0571
11.1000 -7.3689 -0.0552
11.1200 -7.3822 -0.0561
11.1400 -7.3955 -0.0570
11.1600 -7.4088 -0.0542
11.1800 -7.4222 -0.0548
11.2000 -7.4355 -0.0554
11.2200 -7.4488 -0.0542
11.2400 -7.4621 -0.0540
11.2600 -7.4755 -0.0546
11.2800 -7.4889 -0.0508
11.3000 -7.5022 -0.0519
11.3200 -7.5155 -0.0515
11.3400 -7.5288 -0.0519
11.3600 -7.5422 -0.0495
11.3800 -7.5556 -0.0507
11.4000 -7.5689 -0.0488
11.4200 -7.5822 -0.0480
11.4400 -7.5955 -0.0501
11.4600 -7.6089 -0.0478
11.4800 -7.6222 -0.0471
11.5000 -7.6355 -0.0494
11.5200 -7.6489 -0.0474
11.5400 -7.6622 -0.0470
11.5600 -7.6756 -0.0485
11.5800 -7.6888 -0.0500
11.6000 -7.7021 -0.0467
11.6200 -7.7155 -0.0487
11.6400 -7.7288 -0.0456
11.6600 -7.7421 -0.0452
11.6800 -7.7555 -0.0459
11.7000 -7.7688 -0.0458
11.7200 -7.7822 -0.0430
11.7400 -7.7956 -0.0461
11.7600 -7.8089 -0.0459
11.7800 -7.8222 -0.0449
11.8000 -7.8356 -0.0443
11.8200 -7.8489 -0.0429
11.8400 -7.8623 -0.0412
11.8600 -7.8756 -0.0440
11.8800 -7.8888 -0.0418
11.9000 -7.9022 -0.0431
11.9200 -7.9155 -0.0426
11.9400 -7.9288 -0.0421
11.9600 -7.9421 -0.0399
11.9800 -7.9555 -0.0417
12.0000 -7.9689 -0.0395
12.0200 -7.9822 -0.0385
12.0400 -7.9955 -0.0406
12.0600 -8.0089 -0.0391
12.0800 -8.0222 -0.0382
12.1000 -8.0356 -0.0364
12.1200 -8.0489 -0.0366
12.1400 -8.0622 -0.0366
12.1600 -8.0755 -0.0380
12.1800 -8.0889 -0.0356
12.2000 -8.1022 -0.0357
12.2200 -8.1155 -0.0371
12.2400 -8.1288 -0.0382
12.2600 -8.1422 -0.0337
12.2800 -8.1555 -0.0359
12.3000 -8.1688 -0.0325
12.3200 -8.1821 -0.0325
12.3400 -8.1955 -0.0324
12.3600 -8.2088 -0.0333
12.3800 -8.2222 -0.0305
12.4000 -8.2355 -0.0313
12.4200 -8.2488 -0.0288
12.4400 -8.2622 -0.0293
12.4600 -8.2756 -0.0297
12.4800 -8.2889 -0.0314
12.5000 -8.3022 -0.0283
12.5200 -8.3156 -0.0310
12.5400 -8.3289 -0.0296
12.5600 -8.3422 -0.0277
12.5800 -8.3555 -0.0299
12.6000 -8.3688 -0.0294
12.6200 -8.3822 -0.0251
12.6400 -8.3955 -0.0252
12.6600 -8.4088 -0.0253
12.6800 -8.4221 -0.0248
12.7000 -8.4354 -0.0243
12.7200 -8.4488 -0.0265
12.7400 -8.4622 -0.0240
12.7600 -8.4755 -0.0264
12.7800 -8.4888 -0.0234
12.8000 -8.5022 -0.0226
12.8200 -8.5156 -0.0251
12.8400 -8.5289 -0.0246
12.8600 -8.5422 -0.0206
12.8800 -8.5555 -0.0242
12.9000 -8.5689 -0.0212
12.9200 -8.5822 -0.0216
12.9400 -8.5956 -0.0204
12.9600 -8.6089 -0.0206
12.9800 -8.6222 -0.0181
13.0000 -8.6355 -0.0178
13.0200 -8.6488 -0.0184
13.0400 -8.6621 -0.0175
13.0600 -8.6755 -0.0197
13.0800 -8.6888 -0.0186
13.1000 -8.7022 -0.0179
13.1200 -8.7155 -0.0189
13.1400 -8.7288 -0.0218
13.1600 -8.7422 -0.0174
13.1800 -8.7555 -0.0206
13.2000 -8.7689 -0.0152
13.2200 -8.7822 -0.0168
13.2400 -8.7955 -0.0143
13.2600 -8.8089 -0.0163
13.2800 -8.8223 -0.0121
13.3000 -8.8356 -0.0156
13.3200 -8.8489 -0.0133
13.3400 -8.8622 -0.0145
13.3600 -8.8756 -0.0133
13.3800 -8.8889 -0.0126
13.4000 -8.9021 -0.0106
13.4200 -8.9155 -0.0116
13.4400 -8.9288 -0.0106
13.4600 -8.9422 -0.0106
13.4800 -8.9555 -0.0118
13.5000 -8.9688 -0.0118
13.5200 -8.9822 -0.0098
13.5400 -8.9956 -0.0085
13.5600 -9.0089 -0.0104
13.5800 -9.0222 -0.0072
13.6000 -9.0355 -0.0093
13.6200 -9.0489 -0.0085
13.6400 -9.0622 -0.0067
13.6600 -9.0756 -0.0057
13.6800 -9.0889 -0.0063
13.7000 -9.1022 -0.0051
13.7200 -9.1156 -0.0063
13.7400 -9.1289 -0.0057
13.7600 -9.1421 -0.0055
13.7800 -9.1555 -0.0035
13.8000 -9.1688 -0.0042
13.8200 -9.1822 -0.0024
13.8400 -9.1955 -0.0036
13.8600 -9.2088 -0.0045
13.8800 -9.2222 -0.0019
13.9000 -9.2356 -0.0033
13.9200 -9.2489 -0.0026
13.9400 -9.2622 -0.0018
13.9600 -9.2756 -0.0037
13.9800 -9.2889 -0.0021
14.0000 -9.3023 0.0017
14.0200 -9.3156 -0.0010
14.0400 -9.3288 -0.0007
14.0600 -9.3421 -0.0001
14.0800 -9.3555 0.0011
14.1000 -9.3688 0.0007
14.1200 -9.3821 0.0011
14.1400 -9.3954 0.0015
14.1600 -9.4088 0.0023
14.1800 -9.4222 0.0041
14.2000 -9.4355 0.0035
14.2200 -9.4488 0.0026
14.2400 -9.4622 0.0020
14.2600 -9.4756 0.0037
14.2800 -9.4889 0.0032
14.3000 -9.5022 0.0068
14.3200 -9.5155 0.0054
14.3400 -9.5289 0.0064
14.3600 -9.5423 0.0090
14.3800 -9.5556 0.0068
14.4000 -9.5689 0.0064
14.4200 -9.5822 0.0094
14.4400 -9.5956 0.0082
14.4600 -9.6089 0.0091
14.4800 -9.6222 0.0098
14.5000 -9.6355 0.0085
14.5200 -9.6488 0.0113
14.5400 -9.6622 0.0123
14.5600 -9.6755 0.0128
14.5800 -9.6888 0.0115
14.6000 -9.7022 0.0117
14.6200 -9.7156 0.0129
14.6400 -9.7289 0.0128
14.6600 -9.7422 0.0116
14.6800 -9.7555 0.0127
14.7000 -9.7689 0.0114
14.7200 -9.7822 0.0149
14.7400 -9.7955 0.0121
14.7600 -9.8088 0.0148
14.7800 -9.8222 0.0161
14.8000 -9.8355 0.0178
14.8200 -9.8488 0.0163
14.8400 -9.8621 0.0191
14.8600 -9.8754 0.0159
14.8800 -9.8888 0.0161
14.9000 -9.9022 0.0174
14.9200 -9.9155 0.0183
14.9400 -9.9288 0.0181
14.9600 -9.9422 0.0199
14.9800 -9.9556 0.0186
15.0000 -9.9689 0.0197
15.0200 -9.9822 0.0209
15.0400 -9.9955 0.0199
15.0600 -10.0089 0.0224
15.0800 -10.0222 0.0208
15.1000 -10.0355 0.0246
15.1200 -10.0488 0.0197
15.1400 -10.0622 0.0250
15.1600 -10.0755 0.0226
15.1800 -10.0888 0.0239
15.2000 -10.1021 0.0240
15.2200 -10.1155 0.0266
15.2400 -10.1288 0.0246
15.2600 -10.1422 0.0260
15.2800 -10.1555 0.0236
15.3000 -10.1688 0.0260
15.3200 -10.1822 0.0268
15.3400 -10.1956 0.0286
15.3600 -10.2089 0.0276
15.3800 -10.2222 0.0299
15.4000 -10.2355 0.0304
15.4200 -10.2489 0.0272
15.4400 -10.2623 0.0292
15.4600 -10.2756 0.0291
15.4800 -10.2889 0.0301
15.5000 -10.3022 0.0295
15.5200 -10.3155 0.0296
15.5400 -10.3288 0.0296
15.5600 -10.3421 0.0313
15.5800 -10.3554 0.0310
15.6000 -10.3688 0.0292
15.6200 -10.3822 0.0309
15.6400 -10.3955 0.0324
15.6600 -10.4088 0.0336
15.6800 -10.4222 0.0336
15.7000 -10.4356 0.0337
15.7200 -10.4489 0.0325
15.7400 -10.4622 0.0345
15.7600 -10.4756 0.0338
15.7800 -10.4889 0.0329
15.8000 -10.5023 0.0348
15.8200 -10.5156 0.0351
15.8400 -10.5289 0.0368
15.8600 -10.5422 0.0382
15.8800 -10.5555 0.0370
15.9000 -10.5688 0.0353
15.9200 -10.5821 0.0360
15.9400 -10.5954 0.0366
15.9600 -10.6088 0.0379
15.9800 -10.6221 0.0386
16.0000 -10.6355 0.0416
16.0200 -10.6488 0.0404
16.0400 -10.6622 0.0416
16.0600 -10.6756 0.0382
16.0800 -10.6889 0.0431
16.1000 -10.7022 0.0401
16.1200 -10.7155 0.0397
16.1400 -10.7289 0.0416
16.1600 -10.7422 0.0436
16.1800 -10.7556 0.0422
16.2000 -10.7688 0.0425
16.2200 -10.7822 0.0415
16.2400 -10.7955 0.0412
16.2600 -10.8088 0.0447
16.2800 -10.8221 0.0445
16.3000 -10.8354 0.0416
16.3200 -10.8488 0.0432
16.3400 -10.8622 0.0425
16.3600 -10.8755 0.0441
16.3800 -10.8888 0.0450
16.4000 -10.9022 0.0456
16.4200 -10.9156 0.0475
16.4400 -10.9289 0.0484
16.4600 -10.9422 0.0481
16.4800 -10.9555 0.0458
16.5000 -10.9688 0.0464
16.5200 -10.9822 0.0474
16.5400 -10.9955 0.0501
16.5600 -11.0089 0.0497
16.5800 -11.0222 0.0502
16.6000 -11.0355 0.0492
16.6200 -11.0489 0.0482
16.6400 -11.0622 0.0495
16.6600 -11.0755 0.0506
16.6800 -11.0888 0.0505
16.7000 -11.1022 0.0514
16.7200 -11.1155 0.0541
16.7400 -11.1288 0.0531
16.7600 -11.1422 0.0524
16.7800 -11.1556 0.0540
16.8000 -11.1689 0.0544
16.8200 -11.1823 0.0547
16.8400 -11.1956 0.0553
16.8600 -11.2089 0.0533
16.8800 -11.2223 0.0573
16.9000 -11.2356 0.0576
16.9200 -11.2489 0.0572
16.9400 -11.2622 0.0568
16.9600 -11.2755 0.0603
16.9800 -11.2889 0.0594
17.0000 -11.3022 0.0602
17.0200 -11.3155 0.0586
17.0400 -11.3288 0.0584
17.0600 -11.3422 0.0610
17.0800 -11.3555 0.0604
17.1000 -11.3688 0.0598
17.1200 -11.3822 0.0585
17.1400 -11.3955 0.0604
17.1600 -11.4089 0.0604
17.1800 -11.4222 0.0627
17.2000 -11.4355 0.0605
17.2200 -11.4489 0.0623
17.2400 -11.4623 0.0605
17.2600 -11.4756 0.0651
17.2800 -11.4889 0.0621
17.3000 -11.5022 0.0631
17.3200 -11.5155 0.0626
17.3400 -11.5289 0.0642
17.3600 -11.5422 0.0667
17.3800 -11.5555 0.0665
17.4000 -11.5688 0.0669
17.4200 -11.5822 0.0646
17.4400 -11.5955 0.0662
17.4600 -11.6088 0.0652
17.4800 -11.6221 0.0689
17.5000 -11.6355 0.0697
17.5200 -11.6489 0.0700
17.5400 -11.6622 0.0701
17.5600 -11.6755 0.0710
17.5800 -11.6889 0.0717
17.6000 -11.7022 0.0731
17.6200 -11.7156 0.0734
17.6400 -11.7289 0.0739
17.6600 -11.7422 0.0727
17.6800 -11.7556 0.0729
17.7000 -11.7689 0.0743
17.7200 -11.7822 0.0749
17.7400 -11.7955 0.0744
17.7600 -11.8088 0.0748
17.7800 -11.8221 0.0709
17.8000 -11.8355 0.0747
17.8200 -11.8488 0.0755
17.8400 -11.8622 0.0765
17.8600 -11.8756 0.0792
17.8800 -11.8889 0.0783
17.9000 -11.9022 0.0792
17.9200 -11.9155 0.0780
17.9400 -11.9288 0.0784
17.9600 -11.9422 0.0763
17.9800 -11.9555 0.0806
18.0000 -11.9689 0.0809
18.0200 -11.9822 0.0826
18.0400 -11.9955 0.0812
18.0600 -12.0089 0.0825
18.0800 -12.0222 0.0817
18.1000 -12.0355 0.0839
18.1200 -12.0488 0.0808
18.1400 -12.0622 0.0821
18.1600 -12.0755 0.0828
18.1800 -12.0888 0.0841
18.2000 -12.1022 0.0843
18.2200 -12.1155 0.0840
18.2400 -12.1289 0.0839
18.2600 -12.1422 0.0841
18.2800 -12.1555 0.0851
18.3000 -12.1688 0.0825
18.3200 -12.1822 0.0832
18.3400 -12.1956 0.0857
18.3600 -12.2089 0.0851
18.3800 -12.2222 0.0845
18.4000 -12.2355 0.0872
18.4200 -12.2488 0.0857
18.4400 -12.2622 0.0873
18.4600 -12.2755 0.0872
18.4800 -12.2888 0.0888
18.5000 -12.3022 0.0878
18.5200 -12.3155 0.0892
18.5400 -12.3288 0.0899
18.5600 -12.3422 0.0903
18.5800 -12.3555 0.0908
18.6000 -12.3689 0.0893
18.6200 -12.3822 0.0884
18.6400 -12.3955 0.0914
18.6600 -12.4088 0.0930
18.6800 -12.4222 0.0912
18.7000 -12.4356 0.0904
18.7200 -12.4489 0.0913
18.7400 -12.4622 0.0927
18.7600 -12.4756 0.0951
18.7800 -12.4889 0.0959
18.8000 -12.5022 0.0947
18.8200 -12.5155 0.0943
18.8400 -12.5288 0.0972
18.8600 -12.5421 0.0946
18.8800 -12.5555 0.0979
18.9000 -12.5688 0.0960
18.9200 -12.5821 0.0968
18.9400 -12.5955 0.0978
18.9600 -12.6089 0.0983
18.9800 -12.6222 0.0970
19.0000 -12.6355 0.0987
19.0200 -12.6489 0.0968
19.0400 -12.6622 0.0993
19.0600 -12.6756 0.0990
19.0800 -12.6889 0.1027
19.1000 -12.7022 0.1022
19.1200 -12.7155 0.1020
19.1400 -12.7289 0.1021
19.1600 -12.7422 0.1029
19.1800 -12.7555 0.1020
19.2000 -12.7688 0.1035
19.2200 -12.7822 0.1036
19.2400 -12.7955 0.1038
19.2600 -12.8089 0.1043
19.2800 -12.8222 0.1050
19.3000 -12.8355 0.1038
19.3200 -12.8489 0.1054
19.3400 -12.8622 0.1044
19.3600 -12.8755 0.1029
19.3800 -12.8888 0.1042
19.4000 -12.9022 0.1033
19.4200 -12.9156 0.1056
19.4400 -12.9289 0.1034
19.4600 -12.9422 0.1054
19.4800 -12.9555 0.1052
19.5000 -12.9689 0.1061
19.5200 -12.9822 0.1058
19.5400 -12.9955 0.1079
19.5600 -13.0088 0.1070
19.5800 -13.0221 0.1098
19.6000 -13.0355 0.1090
19.6200 -13.0488 0.1096
19.6400 -13.0621 0.1097
19.6600 -13.0755 0.1084
19.6800 -13.0889 0.1082
19.7000 -13.1022 0.1106
19.7200 -13.1155 0.1108
19.7400 -13.1289 0.1114
19.7600 -13.1422 0.1101
19.7800 -13.1556 0.1124
19.8000 -13.1689 0.1112
19.8200 -13.1822 0.1138
19.8400 -13.1955 0.1108
19.8600 -13.2089 0.1128
19.8800 -13.2222 0.1127
19.9000 -13.2355 0.1148
19.9200 -13.2488 0.1153
19.9400 -13.2621 0.1173
19.9600 -13.2755 0.1168
19.9800 -13.2888 0.1181
20.0000 -13.3021 0.1175
20.0200 -13.3155 0.1201
20.0400 -13.3289 0.1192
20.0600 -13.3423 0.1215
20.0800 -13.3556 0.1193
20.1000 -13.3689 0.1195
20.1200 -13.3822 0.1199
20.1400 -13.3956 0.1216
20.1600 -13.4089 0.1245
20.1800 -13.4222 0.1231
20.2000 -13.4355 0.1234
20.2200 -13.4489 0.1241
20.2400 -13.4622 0.1247
20.2600 -13.4755 0.1226
20.2800 -13.4888 0.1251
20.3000 -13.5022 0.1248
20.3200 -13.5155 0.1259
20.3400 -13.5288 0.1257
20.3600 -13.5421 0.1261
20.3800 -13.5555 0.1250
20.4000 -13.5688 0.1277
20.4200 -13.5822 0.1285
20.4400 -13.5955 0.1280
20.4600 -13.6089 0.1277
20.4800 -13.6222 0.1275
20.5000 -13.6356 0.1288
20.5200 -13.6489 0.1287
20.5400 -13.6622 0.1299
20.5600 -13.6755 0.1295
20.5800 -13.6889 0.1308
20.6000 -13.7022 0.1335
20.6200 -13.7155 0.1321
20.6400 -13.7288 0.1318
20.6600 -13.7421 0.1328
20.6800 -13.7555 0.1325
20.7000 -13.7688 0.1334
20.7200 -13.7821 0.1345
20.7400 -13.7955 0.1328
20.7600 -13.8089 0.1363
20.7800 -13.8222 0.1361
20.8000 -13.8355 0.1362
20.8200 -13.8488 0.1369
20.8400 -13.8622 0.1387
20.8600 -13.8756 0.1371
20.8800 -13.8889 0.1390
20.9000 -13.9022 0.1384
20.9200 -13.9156 0.1379
20.9400 -13.9289 0.1386
20.9600 -13.9422 0.1376
20.9800 -13.9555 0.1384
21.0000 -13.9688 0.1382
21.0200 -13.9821 0.1394
21.0400 -13.9955 0.1404
21.0600 -14.0088 0.1404
21.0800 -14.0221 0.1425
21.1000 -14.0355 0.1396
21.1200 -14.0489 0.1414
21.1400 -14.0623 0.1411
21.1600 -14.0756 0.1408
21.1800 -14.0889 0.1426
21.2000 -14.1022 0.1439
21.2200 -14.1156 0.1428
21.2400 -14.1289 0.1443
21.2600 -14.1422 0.1439
21.2800 -14.1555 0.1433
21.3000 -14.1688 0.1472
21.3200 -14.1822 0.1478
21.3400 -14.1954 0.1475
21.3600 -14.2088 0.1470
21.3800 -14.2221 0.1467
21.4000 -14.2355 0.1460
21.4200 -14.2488 0.1473
21.4400 -14.2622 0.1482
21.4600 -14.2755 0.1475
21.4800 -14.2889 0.1493
21.5000 -14.3023 0.1503
21.5200 -14.3156 0.1495
21.5400 -14.3288 0.1520
21.5600 -14.3422 0.1502
21.5800 -14.3556 0.1499
21.6000 -14.3689 0.1496
21.6200 -14.3822 0.1511
21.6400 -14.3955 0.1513
21.6600 -14.4089 0.1528
21.6800 -14.4222 0.1546
21.7000 -14.4355 0.1530
21.7200 -14.4488 0.1548
21.7400 -14.4622 0.1555
21.7600 -14.4755 0.1545
21.7800 -14.4888 0.1526
21.8000 -14.5021 0.1550
21.8200 -14.5155 0.1523
21.8400 -14.5289 0.1569
21.8600 -14.5422 0.1571
21.8800 -14.5556 0.1561
21.9000 -14.5689 0.1552
21.9200 -14.5822 0.1568
21.9400 -14.5956 0.1552
21.9600 -14.6089 0.1577
21.9800 -14.6222 0.1584
22.0000 -14.6355 0.1567
22.0200 -14.6488 0.1611
22.0400 -14.6622 0.1598
22.0600 -14.6755 0.1608
22.0800 -14.6888 0.1592
22.1000 -14.7021 0.1628
22.1200 -14.7155 0.1612
22.1400 -14.7288 0.1619
22.1600 -14.7422 0.1630
22.1800 -14.7555 0.1634
22.2000 -14.7689 0.1646
22.2200 -14.7823 0.1668
22.2400 -14.7956 0.1654
22.2600 -14.8089 0.1658
22.2800 -14.8222 0.1679
22.3000 -14.8356 0.1668
22.3200 -14.8489 0.1688
22.3400 -14.8622 0.1667
22.3600 -14.8755 0.1666
22.3800 -14.8888 0.1680
22.4000 -14.9022 0.1678
22.4200 -14.9155 0.1681
22.4400 -14.9288 0.1677
22.4600 -14.9421 0.1694
22.4800 -14.9555 0.1673
22.5000 -14.9689 0.1701
22.5200 -14.9822 0.1689
22.5400 -14.9955 0.1707
22.5600 -15.0089 0.1697
22.5800 -15.0223 0.1740
22.6000 -15.0356 0.1714
22.6200 -15.0489 0.1721
22.6400 -15.0622 0.1727
22.6600 -15.0756 0.1733
22.6800 -15.0889 0.1737
22.7000 -15.1022 0.1741
22.7200 -15.1155 0.1724
22.7400 -15.1288 0.1740
22.7600 -15.1422 0.1747
22.7800 -15.1555 0.1756
22.8000 -15.1688 0.1742
22.8200 -15.1821 0.1759
22.8400 -15.1955 0.1733
22.8600 -15.2088 0.1760
22.8800 -15.2221 0.1745
22.9000 -15.2355 0.1731
22.9200 -15.2489 0.1764
22.9400 -15.2622 0.1777
22.9600 -15.2756 0.1782
22.9800 -15.2889 0.1765
23.0000 -15.3022 0.1775
23.0200 -15.3156 0.1769
23.0400 -15.3289 0.1771
23.0600 -15.3422 0.1786
23.0800 -15.3555 0.1789
23.1000 -15.3688 0.1795
23.1200 -15.3822 0.1826
23.1400 -15.3955 0.1801
23.1600 -15.4088 0.1815
23.1800 -15.4221 0.1819
23.2000 -15.4355 0.1819
23.2200 -15.4488 0.1824
23.2400 -15.4621 0.1848
23.2600 -15.4755 0.1819
23.2800 -15.4889 0.1837
23.3000 -15.5023 0.1848
23.3200 -15.5156 0.1867
23.3400 -15.5289 0.1869
23.3600 -15.5422 0.1868
23.3800 -15.5556 0.1859
23.4000 -15.5689 0.1877
23.4200 -15.5822 0.1885
23.4400 -15.5955 0.1901
23.4600 -15.6088 0.1902
23.4800 -15.6222 0.1923
23.5000 -15.6355 0.1901
23.5200 -15.6488 0.1915
23.5400 -15.6621 0.1913
23.5600 -15.6755 0.1934
23.5800 -15.6889 0.1924
23.6000 -15.7022 0.1937
23.6200 -15.7155 0.1912
23.6400 -15.7289 0.1939
23.6600 -15.7422 0.1949
23.6800 -15.7556 0.1940
23.7000 -15.7688 0.1942
23.7200 -15.7821 0.1943
23.7400 -15.7955 0.1942
23.7600 -15.8089 0.1954
23.7800 -15.8222 0.1962
23.8000 -15.8355 0.1961
23.8200 -15.8489 0.1952
23.8400 -15.8622 0.1969
23.8600 -15.8755 0.1964
23.8800 -15.8888 0.1967
23.9000 -15.9021 0.1984
23.9200 -15.9155 0.1963
23.9400 -15.9288 0.1979
23.9600 -15.9422 0.1999
23.9800 -15.9555 0.1988
24.0000 -15.9689 0.1999
24.0200 -15.9822 0.2017
24.0400 -15.9956 0.2013
24.0600 -16.0089 0.2020
24.0800 -16.0222 0.2038
24.1000 -16.0356 0.2026
24.1200 -16.0490 0.2002
24.1400 -16.0623 0.2040
24.1600 -16.0755 0.1997
24.1800 -16.0889 0.2022
24.2000 -16.1022 0.2046
24.2200 -16.1155 0.2039
24.2400 -16.1288 0.2040
24.2600 -16.1421 0.2066
24.2800 -16.1555 0.2051
24.3000 -16.1688 0.2046
24.3200 -16.1822 0.2061
24.3400 -16.1955 0.2054
24.3600 -16.2088 0.2067
24.3800 -16.2222 0.2071
24.4000 -16.2356 0.2069
24.4200 -16.2489 0.2074
24.4400 -16.2622 0.2092
24.4600 -16.2755 0.2105
24.4800 -16.2889 0.2095
24.5000 -16.3022 0.2087
24.5200 -16.3155 0.2070
24.5400 -16.3288 0.2080
24.5600 -16.3422 0.2095
24.5800 -16.3555 0.2093
24.6000 -16.3688 0.2117
24.6200 -16.3821 0.2138
24.6400 -16.3955 0.2141
24.6600 -16.4088 0.2130
24.6800 -16.4222 0.2145
24.7000 -16.4355 0.2132
24.7200 -16.4488 0.2146
24.7400 -16.4622 0.2165
24.7600 -16.4756 0.2157
24.7800 -16.4889 0.2157
24.8000 -16.5022 0.2183
24.8200 -16.5155 0.2174
24.8400 -16.5289 0.2164
24.8600 -16.5422 0.2219
24.8800 -16.5555 0.2190
24.9000 -16.5689 0.2177
24.9200 -16.5822 0.2201
24.9400 -16.5956 0.2205
24.9600 -16.6088 0.2194
24.9800 -16.6221 0.2236
25.0000 -16.6355 0.2223
25.0200 -16.6489 0.2222
25.0400 -16.6622 0.2244
25.0600 -16.6755 0.2228
25.0800 -16.6889 0.2237
25.1000 -16.7022 0.2260
25.1200 -16.7156 0.2241
25.1400 -16.7289 0.2242
25.1600 -16.7422 0.2267
25.1800 -16.7555 0.2269
25.2000 -16.7689 0.2269
25.2200 -16.7822 0.2289
25.2400 -16.7955 0.2253
25.2600 -16.8088 0.2274
25.2800 -16.8222 0.2271
25.3000 -16.8355 0.2274
25.3200 -16.8488 0.2256
25.3400 -16.8621 0.2283
25.3600 -16.8755 0.2263
25.3800 -16.8889 0.2279
25.4000 -16.9022 0.2289
25.4200 -16.9155 0.2313
25.4400 -16.9288 0.2277
25.4600 -16.9422 0.2295
25.4800 -16.9556 0.2294
25.5000 -16.9689 0.2300
25.5200 -16.9822 0.2305
25.5400 -16.9955 0.2283
25.5600 -17.0088 0.2292
25.5800 -17.0221 0.2308
25.6000 -17.0355 0.2301
25.6200 -17.0488 0.2294
25.6400 -17.0621 0.2319
25.6600 -17.0755 0.2333
25.6800 -17.0888 0.2303
25.7000 -17.1021 0.2332
25.7200 -17.1155 0.2358
25.7400 -17.1289 0.2349
25.7600 -17.1422 0.2376
25.7800 -17.1555 0.2373
25.8000 -17.1688 0.2362
25.8200 -17.1822 0.2385
25.8400 -17.1956 0.2376
25.8600 -17.2089 0.2387
25.8800 -17.2222 0.2401
25.9000 -17.2355 0.2393
25.9200 -17.2489 0.2400
25.9400 -17.2622 0.2392
25.9600 -17.2755 0.2405
25.9800 -17.2889 0.2391
26.0000 -17.3022 0.2440
26.0200 -17.3156 0.2406
26.0400 -17.3289 0.2402
26.0600 -17.3421 0.2407
26.0800 -17.3555 0.2423
26.1000 -17.3688 0.2414
26.1200 -17.3821 0.2465
26.1400 -17.3955 0.2434
26.1600 -17.4088 0.2446
26.1800 -17.4222 0.2460
26.2000 -17.4356 0.2449
26.2200 -17.4489 0.2439
26.2400 -17.4622 0.2464
26.2600 -17.4756 0.2463
26.2800 -17.4889 0.2452
26.3000 -17.5023 0.2472
26.3200 -17.5156 0.2464
26.3400 -17.5289 0.2459
26.3600 -17.5422 0.2486
26.3800 -17.5555 0.2476
26.4000 -17.5688 0.2481
26.4200 -17.5822 0.2505
26.4400 -17.5955 0.2487
26.4600 -17.6089 0.2481
26.4800 -17.6222 0.2516
26.5000 -17.6355 0.2505
26.5200 -17.6489 0.2506
26.5400 -17.6622 0.2530
26.5600 -17.6756 0.2511
26.5800 -17.6889 0.2509
26.6000 -17.7022 0.2514
26.6200 -17.7155 0.2535
26.6400 -17.7289 0.2514
26.6600 -17.7422 0.2574
26.6800 -17.7555 0.2554
26.7000 -17.7688 0.2550
26.7200 -17.7822 0.2562
26.7400 -17.7955 0.2575
26.7600 -17.8088 0.2534
26.7800 -17.8221 0.2568
26.8000 -17.8355 0.2577
26.8200 -17.8488 0.2561
26.8400 -17.8622 0.2589
26.8600 -17.8755 0.2581
26.8800 -17.8888 0.2573
26.9000 -17.9022 0.2583
26.9200 -17.9156 0.2587
26.9400 -17.9289 0.2584
26.9600 -17.9422 0.2588
26.9800 -17.9555 0.2600
27.0000 -17.9689 0.2586
27.0200 -17.9822 0.2624
27.0400 -17.9955 0.2603
27.0600 -18.0089 0.2591
27.0800 -18.0222 0.2617
27.1000 -18.0355 0.2611
27.1200 -18.0488 0.2599
27.1400 -18.0621 0.2622
27.1600 -18.0754 0.2616
27.1800 -18.0888 0.2617
27.2000 -18.1022 0.2641
27.2200 -18.1155 0.2625
27.2400 -18.1288 0.2640
27.2600 -18.1422 0.2643
27.2800 -18.1556 0.2647
27.3000 -18.1689 0.2622
27.3200 -18.1822 0.2650
27.3400 -18.1956 0.2663
27.3600 -18.2089 0.2662
27.3800 -18.2223 0.2667
27.4000 -18.2356 0.2679
27.4200 -18.2489 0.2649
27.4400 -18.2622 0.2699
27.4600 -18.2755 0.2703
27.4800 -18.2889 0.2721
27.5000 -18.3022 0.2730
27.5200 -18.3155 0.2730
27.5400 -18.3288 0.2731
27.5600 -18.3422 0.2742
27.5800 -18.3555 0.2760
27.6000 -18.3688 0.2749
27.6200 -18.3822 0.2756
27.6400 -18.3956 0.2776
27.6600 -18.4089 0.2777
27.6800 -18.4222 0.2783
27.7000 -18.4355 0.2808
27.7200 -18.4489 0.2789
27.7400 -18.4622 0.2785
27.7600 -18.4756 0.2790
27.7800 -18.4889 0.2790
27.8000 -18.5022 0.2796
27.8200 -18.5156 0.2817
27.8400 -18.5289 0.2773
27.8600 -18.5421 0.2792
27.8800 -18.5554 0.2797
27.9000 -18.5688 0.2794
27.9200 -18.5822 0.2800
27.9400 -18.5955 0.2836
27.9600 -18.6088 0.2791
27.9800 -18.6222 0.2821
28.0000 -18.6355 0.2813
28.0200 -18.6489 0.2819
28.0400 -18.6622 0.2848
28.0600 -18.6755 0.2843
28.0800 -18.6889 0.2833
28.1000 -18.7022 0.2862
28.1200 -18.7156 0.2866
28.1400 -18.7289 0.2854
28.1600 -18.7422 0.2848
28.1800 -18.7556 0.2876
28.2000 -18.7689 0.2864
28.2200 -18.7821 0.2892
28.2400 -18.7955 0.2900
28.2600 -18.8088 0.2901
28.2800 -18.8222 0.2900
28.3000 -18.8355 0.2910
28.3200 -18.8488 0.2891
28.3400 -18.8622 0.2916
28.3600 -18.8755 0.2922
28.3800 -18.8889 0.2903
28.4000 -18.9022 0.2918
28.4200 -18.9156 0.2930
28.4400 -18.9289 0.2913
28.4600 -18.9423 0.2937
28.4800 -18.9556 0.2936
28.5000 -18.9689 0.2913
28.5200 -18.9822 0.2933
28.5400 -18.9955 0.2941
28.5600 -19.0088 0.2936
28.5800 -19.0221 0.2938
28.6000 -19.0354 0.2959
28.6200 -19.0488 0.2931
28.6400 -19.0622 0.2948
28.6600 -19.0755 0.2942
28.6800 -19.0888 0.2950
28.7000 -19.1022 0.2969
28.7200 -19.1156 0.2988
28.7400 -19.1289 0.2947
28.7600 -19.1422 0.2974
28.7800 -19.1555 0.2971
28.8000 -19.1689 0.2971
28.8200 -19.1823 0.2965
28.8400 -19.1956 0.2980
28.8600 -19.2089 0.2977
28.8800 -19.2222 0.2991
28.9000 -19.2356 0.2995
28.9200 -19.2489 0.2983
28.9400 -19.2622 0.2994
28.9600 -19.2755 0.3016
28.9800 -19.2888 0.3006
29.0000 -19.3022 0.3028
29.0200 -19.3155 0.3057
29.0400 -19.3288 0.3038
29.0600 -19.3422 0.3052
29.0800 -19.3555 0.3041
29.1000 -19.3689 0.3048
29.1200 -19.3822 0.3061
29.1400 -19.3955 0.3070
29.1600 -19.4089 0.3056
29.1800 -19.4222 0.3070
29.2000 -19.4356 0.3101
29.2200 -19.4489 0.3097
29.2400 -19.4622 0.3105
29.2600 -19.4755 0.3119
29.2800 -19.4888 0.3107
29.3000 -19.5021 0.3111
29.3200 -19.5154 0.3129
29.3400 -19.5288 0.3122
29.3600 -19.5422 0.3117
29.3800 -19.5555 0.3129
29.4000 -19.5688 0.3094
29.4200 -19.5822 0.3112
29.4400 -19.5956 0.3106
29.4600 -19.6089 0.3134
29.4800 -19.6222 0.3108
29.5000 -19.6355 0.3147
29.5200 -19.6489 0.3108
29.5400 -19.6622 0.3124
29.5600 -19.6755 0.3146
29.5800 -19.6888 0.3140
29.6000 -19.7022 0.3139
29.6200 -19.7155 0.3154
29.6400 -19.7288 0.3142
29.6600 -19.7421 0.3161
29.6800 -19.7554 0.3176
29.7000 -19.7688 0.3155
29.7200 -19.7822 0.3189
29.7400 -19.7955 0.3217
29.7600 -19.8089 0.3208
29.7800 -19.8222 0.3206
29.8000 -19.8356 0.3220
29.8200 -19.8489 0.3225
29.8400 -19.8622 0.3233
29.8600 -19.8755 0.3249
29.8800 -19.8889 0.3236
29.9000 -19.9023 0.3250
29.9200 -19.9156 0.3255
29.9400 -19.9289 0.3247
29.9600 -19.9422 0.3246
29.9800 -19.9555 0.3280
30.0000 -19.9688 0.3267
30.0200 -19.9821 0.3282
30.0400 -19.9954 0.3294
30.0600 -20.0088 0.3279
30.0800 -20.0221 0.3058
30.1000 -20.0355 0.2429
30.1200 -20.0488 0.1530
30.1400 -20.0622 0.0602
30.1600 -20.0755 -0.0275
30.1800 -20.0889 -0.1108
30.2000 -20.1022 -0.1865
30.2200 -20.1156 -0.2592
30.2400 -20.1289 -0.3093
30.2600 -20.1423 -0.3497
30.2800 -20.1556 -0.3940
30.3000 -20.1689 -0.4471
30.3200 -20.1822 -0.5010
30.3400 -20.1955 -0.5509
30.3600 -20.2088 -0.6033
30.3800 -20.2221 -0.6494
30.4000 -20.2354 -0.6947
30.4200 -20.2488 -0.7374
30.4400 -20.2621 -0.7582
30.4600 -20.2755 -0.7593
30.4800 -20.2888 -0.7596
30.5000 -20.3022 -0.7571
30.5200 -20.3156 -0.7543
30.5400 -20.3289 -0.7536
30.5600 -20.3423 -0.7546
30.5800 -20.3556 -0.7502
30.6000 -20.3689 -0.7514
30.6200 -20.3822 -0.7489
30.6400 -20.3956 -0.7466
30.6600 -20.4089 -0.7473
30.6800 -20.4222 -0.7466
30.7000 -20.4355 -0.7464
30.7200 -20.4488 -0.7463
30.7400 -20.4621 -0.7463
30.7600 -20.4754 -0.7422
30.7800 -20.4888 -0.7433
30.8000 -20.5022 -0.7415
30.8200 -20.5155 -0.7394
30.8400 -20.5288 -0.7399
30.8600 -20.5422 -0.7381
30.8800 -20.5555 -0.7363
30.9000 -20.5689 -0.7367
30.9200 -20.5822 -0.7347
30.9400 -20.5955 -0.7317
30.9600 -20.6088 -0.7299
30.9800 -20.6222 -0.7273
31.0000 -20.6355 -0.7261
31.0200 -20.6489 -0.7245
31.0400 -20.6622 -0.7215
31.0600 -20.6755 -0.7212
31.0800 -20.6889 -0.7222
31.1000 -20.7022 -0.7206
31.1200 -20.7155 -0.7167
31.1400 -20.7288 -0.7148
31.1600 -20.7422 -0.7120
31.1800 -20.7555 -0.7115
31.2000 -20.7688 -0.7102
31.2200 -20.7822 -0.7095
31.2400 -20.7955 -0.7069
31.2600 -20.8089 -0.7061
31.2800 -20.8222 -0.7044
31.3000 -20.8355 -0.7035
31.3200 -20.8489 -0.7032
31.3400 -20.8623 -0.7027
31.3600 -20.8756 -0.6977
31.3800 -20.8889 -0.6974
31.4000 -20.9022 -0.6964
31.4200 -20.9155 -0.6948
31.4400 -20.9288 -0.6948
31.4600 -20.9422 -0.6924
31.4800 -20.9555 -0.6910
31.5000 -20.9688 -0.6903
31.5200 -20.9822 -0.6877
31.5400 -20.9955 -0.6862
31.5600 -21.0088 -0.6873
31.5800 -21.0222 -0.6856
31.6000 -21.0355 -0.6832
31.6200 -21.0489 -0.6832
31.6400 -21.0622 -0.6823
31.6600 -21.0755 -0.6820
31.6800 -21.0889 -0.6800
31.7000 -21.1022 -0.6810
31.7200 -21.1156 -0.6769
31.7400 -21.1289 -0.6772
31.7600 -21.1422 -0.6754
31.7800 -21.1555 -0.6737
31.8000 -21.1689 -0.6725
31.8200 -21.1822 -0.6736
31.8400 -21.1955 -0.6707
31.8600 -21.2088 -0.6698
31.8800 -21.2222 -0.6718
31.9000 -21.2355 -0.6675
31.9200 -21.2488 -0.6691
31.9400 -21.2622 -0.6665
31.9600 -21.2755 -0.6646
31.9800 -21.2889 -0.6643
32.0000 -21.3022 -0.6642
32.0200 -21.3155 -0.6600
32.0400 -21.3288 -0.6601
32.0600 -21.3422 -0.6567
32.0800 -21.3556 -0.6556
32.1000 -21.3689 -0.6540
32.1200 -21.3822 -0.6534
32.1400 -21.3955 -0.6488
32.1600 -21.4089 -0.6478
32.1800 -21.4222 -0.6474
32.2000 -21.4354 -0.6440
32.2200 -21.4488 -0.6416
32.2400 -21.4622 -0.6430
32.2600 -21.4755 -0.6386
32.2800 -21.4889 -0.6384
32.3000 -21.5022 -0.6360
32.3200 -21.5155 -0.6331
32.3400 -21.5289 -0.6314
32.3600 -21.5422 -0.6311
32.3800 -21.5555 -0.6294
32.4000 -21.5688 -0.6296
32.4200 -21.5822 -0.6278
32.4400 -21.5955 -0.6252
32.4600 -21.6089 -0.6236
32.4800 -21.6222 -0.6232
32.5000 -21.6355 -0.6199
32.5200 -21.6489 -0.6204
32.5400 -21.6622 -0.6198
32.5600 -21.6755 -0.6156
32.5800 -21.6888 -0.6169
32.6000 -21.7022 -0.6155
32.6200 -21.7155 -0.6148
32.6400 -21.7288 -0.6122
32.6600 -21.7421 -0.6139
32.6800 -21.7555 -0.6109
32.7000 -21.7689 -0.6109
32.7200 -21.7823 -0.6102
32.7400 -21.7955 -0.6088
32.7600 -21.8089 -0.6082
32.7800 -21.8222 -0.6104
32.8000 -21.8356 -0.6104
32.8200 -21.8489 -0.6095
32.8400 -21.8622 -0.6102
32.8600 -21.8755 -0.6084
32.8800 -21.8888 -0.6084
32.9000 -21.9022 -0.6085
32.9200 -21.9155 -0.6076
32.9400 -21.9288 -0.6083
32.9600 -21.9422 -0.6096
32.9800 -21.9555 -0.6062
33.0000 -21.9688 -0.6081
33.0200 -21.9822 -0.6080
33.0400 -21.9955 -0.6034
33.0600 -22.0089 -0.6041
33.0800 -22.0222 -0.6024
33.1000 -22.0355 -0.6027
33.1200 -22.0488 -0.6016
33.1400 -22.0622 -0.6016
33.1600 -22.0756 -0.5982
33.1800 -22.0889 -0.5989
33.2000 -22.1022 -0.5983
33.2200 -22.1155 -0.5956
33.2400 -22.1289 -0.5939
33.2600 -22.1422 -0.5925
33.2800 -22.1555 -0.5927
33.3000 -22.1688 -0.5918
33.3200 -22.1821 -0.5925
33.3400 -22.1955 -0.5899
33.3600 -22.2088 -0.5898
33.3800 -22.2221 -0.5879
33.4000 -22.2355 -0.5871
33.4200 -22.2489 -0.5842
33.4400 -22.2622 -0.5846
33.4600 -22.2755 -0.5838
33.4800 -22.2889 -0.5838
33.5000 -22.3022 -0.5832
33.5200 -22.3156 -0.5806
33.5400 -22.3289 -0.5803
33.5600 -22.3422 -0.5804
33.5800 -22.3555 -0.5797
33.6000 -22.3688 -0.5762
33.6200 -22.3822 -0.5750
33.6400 -22.3955 -0.5739
33.6600 -22.4088 -0.5738
33.6800 -22.4222 -0.5726
33.7000 -22.4355 -0.5703
33.7200 -22.4489 -0.5674
33.7400 -22.4622 -0.5678
33.7600 -22.4755 -0.5653
33.7800 -22.4889 -0.5639
33.8000 -22.5023 -0.5640
33.8200 -22.5155 -0.5626
33.8400 -22.5288 -0.5620
33.8600 -22.5422 -0.5612
33.8800 -22.5556 -0.5588
33.9000 -22.5689 -0.5570
33.9200 -22.5822 -0.5567
33.9400 -22.5955 -0.5556
33.9600 -22.6089 -0.5541
33.9800 -22.6222 -0.5540
34.0000 -22.6355 -0.5503
34.0200 -22.6488 -0.5505
34.0400 -22.6621 -0.5501
34.0600 -22.6755 -0.5483
34.0800 -22.6889 -0.5466
34.1000 -22.7022 -0.5494
34.1200 -22.7155 -0.5452
34.1400 -22.7289 -0.5441
34.1600 -22.7422 -0.5425
34.1800 -22.7555 -0.5425
34.2000 -22.7689 -0.5396
34.2200 -22.7822 -0.5400
34.2400 -22.7956 -0.5380
34.2600 -22.8089 -0.5366
34.2800 -22.8222 -0.5353
34.3000 -22.8355 -0.5331
34.3200 -22.8489 -0.5337
34.3400 -22.8622 -0.5333
34.3600 -22.8755 -0.5324
34.3800 -22.8888 -0.5287
34.4000 -22.9021 -0.5293
34.4200 -22.9155 -0.5263
34.4400 -22.9288 -0.5260
34.4600 -22.9421 -0.5234
34.4800 -22.9555 -0.5242
34.5000 -22.9689 -0.5220
34.5200 -22.9823 -0.5236
34.5400 -22.9956 -0.5213
34.5600 -23.0089 -0.5196
34.5800 -23.0222 -0.5187
34.6000 -23.0356 -0.5204
34.6200 -23.0489 -0.5171
34.6400 -23.0622 -0.5195
34.6600 -23.0755 -0.5171
34.6800 -23.0888 -0.5166
34.7000 -23.1022 -0.5160
34.7200 -23.1155 -0.5163
34.7400 -23.1288 -0.5165
34.7600 -23.1421 -0.5158
34.7800 -23.1555 -0.5145
34.8000 -23.1688 -0.5124
34.8200 -23.1821 -0.5139
34.8400 -23.1955 -0.5138
34.8600 -23.2088 -0.5120
34.8800 -23.2222 -0.5132
34.9000 -23.2355 -0.5109
34.9200 -23.2488 -0.5086
34.9400 -23.2622 -0.5100
34.9600 -23.2756 -0.5096
34.9800 -23.2889 -0.5077
35.0000 -23.3022 -0.5073
35.0200 -23.3155 -0.5052
35.0400 -23.3289 -0.5040
35.0600 -23.3422 -0.5049
35.0800 -23.3555 -0.5070
35.1000 -23.3688 -0.5054
35.1200 -23.3821 -0.5042
35.1400 -23.3955 -0.5020
35.1600 -23.4088 -0.5003
35.1800 -23.4222 -0.5014
35.2000 -23.4355 -0.5010
35.2200 -23.4489 -0.5002
35.2400 -23.4622 -0.4989
35.2600 -23.4755 -0.4977
35.2800 -23.4888 -0.4918
35.3000 -23.5022 -0.4935
35.3200 -23.5156 -0.4912
35.3400 -23.5289 -0.4911
35.3600 -23.5422 -0.4909
35.3800 -23.5556 -0.4914
35.4000 -23.5689 -0.4885
35.4200 -23.5822 -0.4892
35.4400 -23.5955 -0.4863
35.4600 -23.6088 -0.4866
35.4800 -23.6221 -0.4838
35.5000 -23.6355 -0.4835
35.5200 -23.6488 -0.4796
35.5400 -23.6621 -0.4821
35.5600 -23.6755 -0.4796
35.5800 -23.6889 -0.4781
35.6000 -23.7022 -0.4775
35.6200 -23.7156 -0.4773
35.6400 -23.7289 -0.4764
35.6600 -23.7422 -0.4772
35.6800 -23.7556 -0.4743
35.7000 -23.7689 -0.4726
35.7200 -23.7822 -0.4746
35.7400 -23.7955 -0.4717
35.7600 -23.8088 -0.4701
35.7800 -23.8222 -0.4708
35.8000 -23.8355 -0.4702
35.8200 -23.8487 -0.4679
35.8400 -23.8621 -0.4693
35.8600 -23.8755 -0.4678
35.8800 -23.8888 -0.4653
35.9000 -23.9022 -0.4657
35.9200 -23.9155 -0.4647
35.9400 -23.9289 -0.4641
35.9600 -23.9423 -0.4639
35.9800 -23.9556 -0.4630
36.0000 -23.9689 -0.4612
36.0200 -23.9822 -0.4604
36.0400 -23.9956 -0.4601
36.0600 -24.0089 -0.4575
36.0800 -24.0222 -0.4584
36.1000 -24.0356 -0.4554
36.1200 -24.0489 -0.4537
36.1400 -24.0622 -0.4526
36.1600 -24.0755 -0.4528
36.1800 -24.0888 -0.4505
36.2000 -24.1021 -0.4498
36.2200 -24.1155 -0.4493
36.2400 -24.1288 -0.4475
36.2600 -24.1421 -0.4481
36.2800 -24.1555 -0.4464
36.3000 -24.1688 -0.4437
36.3200 -24.1822 -0.4430
36.3400 -24.1956 -0.4442
36.3600 -24.2089 -0.4427
36.3800 -24.2222 -0.4421
36.4000 -24.2355 -0.4403
36.4200 -24.2489 -0.4386
36.4400 -24.2622 -0.4365
36.4600 -24.2755 -0.4368
36.4800 -24.2888 -0.4349
36.5000 -24.3022 -0.4380
36.5200 -24.3155 -0.4349
36.5400 -24.3288 -0.4334
36.5600 -24.3421 -0.4326
36.5800 -24.3555 -0.4326
36.6000 -24.3688 -0.4318
36.6200 -24.3822 -0.4306
36.6400 -24.3955 -0.4294
36.6600 -24.4089 -0.4298
36.6800 -24.4222 -0.4278
36.7000 -24.4356 -0.4290
36.7200 -24.4489 -0.4291
36.7400 -24.4622 -0.4288
36.7600 -24.4755 -0.4280
36.7800 -24.4889 -0.4248
36.8000 -24.5022 -0.4244
36.8200 -24.5155 -0.4236
36.8400 -24.5289 -0.4230
36.8600 -24.5422 -0.4231
36.8800 -24.5555 -0.4229
36.9000 -24.5688 -0.4212
36.9200 -24.5821 -0.4206
36.9400 -24.5955 -0.4206
36.9600 -24.6089 -0.4213
36.9800 -24.6222 -0.4201
37.0000 -24.6355 -0.4194
37.0200 -24.6489 -0.4178
37.0400 -24.6622 -0.4193
37.0600 -24.6756 -0.4185
37.0800 -24.6889 -0.4186
37.1000 -24.7022 -0.4161
37.1200 -24.7156 -0.4170
37.1400 -24.7289 -0.4165
37.1600 -24.7422 -0.4166
37.1800 -24.7555 -0.4149
37.2000 -24.7689 -0.4164
37.2200 -24.7822 -0.4142
37.2400 -24.7955 -0.4153
37.2600 -24.8088 -0.4119
37.2800 -24.8221 -0.4117
37.3000 -24.8355 -0.4126
37.3200 -24.8488 -0.4114
37.3400 -24.8622 -0.4101
37.3600 -24.8755 -0.4113
37.3800 -24.8888 -0.4087
37.4000 -24.9022 -0.4074
37.4200 -24.9156 -0.4078
37.4400 -24.9289 -0.4076
37.4600 -24.9422 -0.4072
37.4800 -24.9556 -0.4058
37.5000 -24.9689 -0.4053
37.5200 -24.9822 -0.4055
37.5400 -24.9955 -0.4044
37.5600 -25.0088 -0.4009
37.5800 -25.0222 -0.3990
37.6000 -25.0355 -0.3964
37.6200 -25.0488 -0.3956
37.6400 -25.0621 -0.3944
37.6600 -25.0754 -0.3950
37.6800 -25.0888 -0.3930
37.7000 -25.1021 -0.3916
37.7200 -25.1155 -0.3899
37.7400 -25.1289 -0.3877
37.7600 -25.1423 -0.3869
37.7800 -25.1556 -0.3857
37.8000 -25.1689 -0.3837
37.8200 -25.1822 -0.3835
37.8400 -25.1956 -0.3830
37.8600 -25.2089 -0.3795
37.8800 -25.2222 -0.3801
37.9000 -25.2355 -0.3783
37.9200 -25.2488 -0.3780
37.9400 -25.2622 -0.3777
37.9600 -25.2755 -0.3771
37.9800 -25.2888 -0.3772
38.0000 -25.3021 -0.3750
38.0200 -25.3155 -0.3748
38.0400 -25.3289 -0.3716
38.0600 -25.3422 -0.3713
38.0800 -25.3555 -0.3702
38.1000 -25.3689 -0.3703
38.1200 -25.3822 -0.3704
38.1400 -25.3956 -0.3698
38.1600 -25.4088 -0.3690
38.1800 -25.4221 -0.3700
38.2000 -25.4355 -0.3691
38.2200 -25.4489 -0.3682
38.2400 -25.4622 -0.3690
38.2600 -25.4755 -0.3679
38.2800 -25.4888 -0.3660
38.3000 -25.5022 -0.3661
38.3200 -25.5155 -0.3644
38.3400 -25.5288 -0.3647
38.3600 -25.5421 -0.3630
38.3800 -25.5555 -0.3631
38.4000 -25.5688 -0.3603
38.4200 -25.5822 -0.3605
38.4400 -25.5955 -0.3588
38.4600 -25.6088 -0.3607
38.4800 -25.6222 -0.3582
38.5000 -25.6356 -0.3567
38.5200 -25.6489 -0.3562
38.5400 -25.6622 -0.3554
38.5600 -25.6756 -0.3554
38.5800 -25.6889 -0.3551
38.6000 -25.7023 -0.3536
38.6200 -25.7155 -0.3533
38.6400 -25.7289 -0.3522
38.6600 -25.7422 -0.3530
38.6800 -25.7555 -0.3522
38.7000 -25.7688 -0.3504
38.7200 -25.7821 -0.3513
38.7400 -25.7955 -0.3485
38.7600 -25.8088 -0.3494
38.7800 -25.8222 -0.3484
38.8000 -25.8355 -0.3487
38.8200 -25.8488 -0.3456
38.8400 -25.8622 -0.3461
38.8600 -25.8756 -0.3462
38.8800 -25.8889 -0.3472
38.9000 -25.9022 -0.3442
38.9200 -25.9155 -0.3439
38.9400 -25.9289 -0.3433
38.9600 -25.9422 -0.3418
38.9800 -25.9555 -0.3415
39.0000 -25.9688 -0.3398
39.0200 -25.9822 -0.3398
39.0400 -25.9955 -0.3383
39.0600 -26.0088 -0.3383
39.0800 -26.0221 -0.3376
39.1000 -26.0355 -0.3381
39.1200 -26.0488 -0.3365
39.1400 -26.0622 -0.3357
39.1600 -26.0755 -0.3345
39.1800 -26.0888 -0.3341
39.2000 -26.1021 -0.3328
39.2200 -26.1155 -0.3323
39.2400 -26.1288 -0.3333
39.2600 -26.1422 -0.3320
39.2800 -26.1555 -0.3317
39.3000 -26.1689 -0.3301
39.3200 -26.1823 -0.3297
39.3400 -26.1956 -0.3280
39.3600 -26.2089 -0.3287
39.3800 -26.2222 -0.3249
39.4000 -26.2356 -0.3284
39.4200 -26.2489 -0.3272
39.4400 -26.2622 -0.3263
39.4600 -26.2755 -0.3258
39.4800 -26.2888 -0.3254
39.5000 -26.3022 -0.3245
39.5200 -26.3155 -0.3229
39.5400 -26.3288 -0.3206
39.5600 -26.3422 -0.3189
39.5800 -26.3556 -0.3186
39.6000 -26.3689 -0.3188
39.6200 -26.3822 -0.3167
39.6400 -26.3955 -0.3169
39.6600 -26.4089 -0.3164
39.6800 -26.4222 -0.3138
39.7000 -26.4355 -0.3139
39.7200 -26.4488 -0.3110
39.7400 -26.4622 -0.3114
39.7600 -26.4755 -0.3110
39.7800 -26.4888 -0.3102
39.8000 -26.5021 -0.3090
39.8200 -26.5155 -0.3053
39.8400 -26.5289 -0.3056
39.8600 -26.5422 -0.3060
39.8800 -26.5555 -0.3074
39.9000 -26.5688 -0.3042
39.9200 -26.5822 -0.3030
39.9400 -26.5956 -0.3031
39.9600 -26.6089 -0.3028
39.9800 -26.6222 -0.3006
40.0000 -26.6355 -0.3009
40.0200 -26.6489 -0.3011
40.0400 -26.6622 -0.2994
40.0600 -26.6755 -0.2974
40.0800 -26.6888 -0.2975
40.1000 -26.7022 -0.2947
40.1200 -26.7155 -0.2956
40.1400 -26.7288 -0.2972
40.1600 -26.7421 -0.2981
40.1800 -26.7555 -0.2942
40.2000 -26.7689 -0.2952
40.2200 -26.7822 -0.2910
40.2400 -26.7955 -0.2935
40.2600 -26.8088 -0.2904
40.2800 -26.8222 -0.2918
40.3000 -26.8356 -0.2891
40.3200 -26.8489 -0.2888
40.3400 -26.8622 -0.2868
40.3600 -26.8755 -0.2870
40.3800 -26.8889 -0.2845
40.4000 -26.9022 -0.2857
40.4200 -26.9155 -0.2860
40.4400 -26.9288 -0.2852
40.4600 -26.9422 -0.2839
40.4800 -26.9555 -0.2827
40.5000 -26.9688 -0.2806
40.5200 -26.9821 -0.2793
40.5400 -26.9955 -0.2795
40.5600 -27.0088 -0.2783
40.5800 -27.0221 -0.2792
40.6000 -27.0354 -0.2777
40.6200 -27.0488 -0.2769
40.6400 -27.0622 -0.2742
40.6600 -27.0756 -0.2759
40.6800 -27.0889 -0.2752
40.7000 -27.1022 -0.2735
40.7200 -27.1155 -0.2714
40.7400 -27.1289 -0.2720
40.7600 -27.1423 -0.2700
40.7800 -27.1556 -0.2710
40.8000 -27.1689 -0.2692
40.8200 -27.1822 -0.2690
40.8400 -27.1955 -0.2670
40.8600 -27.2088 -0.2681
40.8800 -27.2221 -0.2671
40.9000 -27.2355 -0.2680
40.9200 -27.2489 -0.2650
40.9400 -27.2622 -0.2657
40.9600 -27.2755 -0.2634
40.9800 -27.2889 -0.2649
41.0000 -27.3022 -0.2618
41.0200 -27.3156 -0.2617
41.0400 -27.3289 -0.2596
41.0600 -27.3422 -0.2591
41.0800 -27.3555 -0.2581
41.1000 -27.3689 -0.2579
41.1200 -27.3822 -0.2560
41.1400 -27.3955 -0.2554
41.1600 -27.4089 -0.2540
41.1800 -27.4222 -0.2542
41.2000 -27.4355 -0.2519
41.2200 -27.4489 -0.2526
41.2400 -27.4621 -0.2512
41.2600 -27.4754 -0.2506
41.2800 -27.4888 -0.2503
41.3000 -27.5022 -0.2483
41.3200 -27.5155 -0.2479
41.3400 -27.5289 -0.2481
41.3600 -27.5422 -0.2455
41.3800 -27.5556 -0.2445
41.4000 -27.5689 -0.2453
41.4200 -27.5822 -0.2444
41.4400 -27.5956 -0.2426
41.4600 -27.6089 -0.2422
41.4800 -27.6223 -0.2411
41.5000 -27.6356 -0.2396
41.5200 -27.6489 -0.2409
41.5400 -27.6622 -0.2385
41.5600 -27.6755 -0.2407
41.5800 -27.6888 -0.2397
41.6000 -27.7021 -0.2404
41.6200 -27.7154 -0.2372
41.6400 -27.7288 -0.2379
41.6600 -27.7422 -0.2361
41.6800 -27.7555 -0.2369
41.7000 -27.7688 -0.2344
41.7200 -27.7822 -0.2352
41.7400 -27.7956 -0.2344
41.7600 -27.8089 -0.2317
41.7800 -27.8222 -0.2315
41.8000 -27.8355 -0.2301
41.8200 -27.8489 -0.2296
41.8400 -27.8622 -0.2289
41.8600 -27.8756 -0.2290
41.8800 -27.8889 -0.2288
41.9000 -27.9022 -0.2294
41.9200 -27.9156 -0.2260
41.9400 -27.9289 -0.2271
41.9600 -27.9422 -0.2261
41.9800 -27.9555 -0.2217
42.0000 -27.9688 -0.2213
42.0200 -27.9822 -0.2233
42.0400 -27.9955 -0.2224
42.0600 -28.0088 -0.2227
42.0800 -28.0221 -0.2211
42.1000 -28.0355 -0.2200
42.1200 -28.0489 -0.2183
42.1400 -28.0622 -0.2209
42.1600 -28.0755 -0.2192
42.1800 -28.0889 -0.2175
42.2000 -28.1022 -0.2184
42.2200 -28.1156 -0.2173
42.2400 -28.1289 -0.2167
42.2600 -28.1422 -0.2162
42.2800 -28.1556 -0.2136
42.3000 -28.1689 -0.2118
42.3200 -28.1822 -0.2125
42.3400 -28.1955 -0.2118
42.3600 -28.2088 -0.2125
42.3800 -28.2222 -0.2107
42.4000 -28.2355 -0.2106
42.4200 -28.2488 -0.2088
42.4400 -28.2621 -0.2076
42.4600 -28.2755 -0.2060
42.4800 -28.2889 -0.2052
42.5000 -28.3022 -0.2043
42.5200 -28.3155 -0.2034
42.5400 -28.3289 -0.2020
42.5600 -28.3422 -0.2015
42.5800 -28.3556 -0.1998
42.6000 -28.3689 -0.1974
42.6200 -28.3822 -0.1950
42.6400 -28.3956 -0.1960
42.6600 -28.4089 -0.1967
42.6800 -28.4222 -0.1974
42.7000 -28.4355 -0.1941
42.7200 -28.4488 -0.1920
42.7400 -28.4622 -0.1910
42.7600 -28.4755 -0.1890
42.7800 -28.4888 -0.1899
42.8000 -28.5021 -0.1884
42.8200 -28.5155 -0.1875
42.8400 -28.5289 -0.1881
42.8600 -28.5422 -0.1891
42.8800 -28.5555 -0.1863
42.9000 -28.5689 -0.1839
42.9200 -28.5823 -0.1834
42.9400 -28.5956 -0.1832
42.9600 -28.6089 -0.1831
42.9800 -28.6222 -0.1825
43.0000 -28.6355 -0.1817
43.0200 -28.6488 -0.1799
43.0400 -28.6621 -0.1816
43.0600 -28.6754 -0.1803
43.0800 -28.6888 -0.1795
43.1000 -28.7022 -0.1784
43.1200 -28.7155 -0.1755
43.1400 -28.7289 -0.1734
43.1600 -28.7422 -0.1734
43.1800 -28.7556 -0.1735
43.2000 -28.7689 -0.1715
43.2200 -28.7822 -0.1722
43.2400 -28.7955 -0.1695
43.2600 -28.8089 -0.1685
43.2800 -28.8223 -0.1677
43.3000 -28.8356 -0.1681
43.3200 -28.8489 -0.1678
43.3400 -28.8622 -0.1696
43.3600 -28.8756 -0.1668
43.3800 -28.8889 -0.1657
43.4000 -28.9022 -0.1636
43.4200 -28.9155 -0.1638
43.4400 -28.9288 -0.1648
43.4600 -28.9422 -0.1652
43.4800 -28.9555 -0.1645
43.5000 -28.9688 -0.1636
43.5200 -28.9822 -0.1632
43.5400 -28.9956 -0.1627
43.5600 -29.0089 -0.1607
43.5800 -29.0222 -0.1624
43.6000 -29.0355 -0.1605
43.6200 -29.0489 -0.1608
43.6400 -29.0622 -0.1611
43.6600 -29.0756 -0.1607
43.6800 -29.0889 -0.1599
43.7000 -29.1022 -0.1576
43.7200 -29.1155 -0.1577
43.7400 -29.1289 -0.1565
43.7600 -29.1422 -0.1554
43.7800 -29.1554 -0.1564
43.8000 -29.1688 -0.1543
43.8200 -29.1822 -0.1565
43.8400 -29.1955 -0.1528
43.8600 -29.2089 -0.1555
43.8800 -29.2222 -0.1545
43.9000 -29.2355 -0.1512
43.9200 -29.2489 -0.1525
43.9400 -29.2622 -0.1542
43.9600 -29.2755 -0.1508
43.9800 -29.2889 -0.1487
44.0000 -29.3022 -0.1483
44.0200 -29.3155 -0.1476
44.0400 -29.3288 -0.1441
44.0600 -29.3422 -0.1460
44.0800 -29.3555 -0.1442
44.1000 -29.3689 -0.1444
44.1200 -29.3821 -0.1455
44.1400 -29.3955 -0.1410
44.1600 -29.4088 -0.1413
44.1800 -29.4222 -0.1408
44.2000 -29.4355 -0.1390
44.2200 -29.4489 -0.1364
44.2400 -29.4622 -0.1389
44.2600 -29.4756 -0.1371
44.2800 -29.4889 -0.1391
44.3000 -29.5022 -0.1378
44.3200 -29.5155 -0.1350
44.3400 -29.5289 -0.1297
44.3600 -29.5422 -0.1335
44.3800 -29.5556 -0.1312
44.4000 -29.5689 -0.1322
44.4200 -29.5822 -0.1316
44.4400 -29.5955 -0.1320
44.4600 -29.6088 -0.1277
44.4800 -29.6221 -0.1282
44.5000 -29.6354 -0.1258
44.5200 -29.6488 -0.1266
44.5400 -29.6621 -0.1272
44.5600 -29.6755 -0.1249
44.5800 -29.6888 -0.1235
44.6000 -29.7021 -0.1240
44.6200 -29.7155 -0.1226
44.6400 -29.7289 -0.1207
44.6600 -29.7423 -0.1237
44.6800 -29.7556 -0.1199
44.7000 -29.7689 -0.1184
44.7200 -29.7822 -0.1187
44.7400 -29.7956 -0.1165
44.7600 -29.8089 -0.1155
44.7800 -29.8222 -0.1165
44.8000 -29.8355 -0.1130
44.8200 -29.8489 -0.1129
44.8400 -29.8621 -0.1140
44.8600 -29.8754 -0.1131
44.8800 -29.8888 -0.1099
44.9000 -29.9021 -0.1115
44.9200 -29.9155 -0.1105
44.9400 -29.9288 -0.1088
44.9600 -29.9422 -0.1091
44.9800 -29.9555 -0.1063
45.0000 -29.9689 -0.1069
45.0200 -29.9823 -0.1067
45.0400 -29.9956 -0.1057
45.0600 -30.0089 -0.1038
45.0800 -30.0222 -0.1028
45.1000 -30.0356 -0.1019
45.1200 -30.0489 -0.1005
45.1400 -30.0622 -0.1039
45.1600 -30.0755 -0.1001
45.1800 -30.0888 -0.0997
45.2000 -30.1021 -0.0968
45.2200 -30.1155 -0.0969
45.2400 -30.1288 -0.0945
45.2600 -30.1422 -0.0971
45.2800 -30.1555 -0.0941
45.3000 -30.1688 -0.0950
45.3200 -30.1822 -0.0929
45.3400 -30.1955 -0.0910
45.3600 -30.2089 -0.0917
45.3800 -30.2222 -0.0917
45.4000 -30.2355 -0.0899
45.4200 -30.2488 -0.0883
45.4400 -30.2622 -0.0889
45.4600 -30.2756 -0.0866
45.4800 -30.2889 -0.0876
45.5000 -30.3022 -0.0908
45.5200 -30.3155 -0.0874
45.5400 -30.3289 -0.0825
45.5600 -30.3422 -0.0900
45.5800 -30.3555 -0.0786
45.6000 -30.3688 -0.0887
45.6200 -30.3821 -0.0785
45.6400 -30.3955 -0.0865
45.6600 -30.4088 -0.0806
45.6800 -30.4222 -0.0867
45.7000 -30.4355 -0.0790
45.7200 -30.4489 -0.0857
45.7400 -30.4622 -0.0779
45.7600 -30.4755 -0.0866
45.7800 -30.4889 -0.0716
45.8000 -30.5022 -0.0809
45.8200 -30.5156 -0.0741
45.8400 -30.5289 -0.0769
45.8600 -30.5422 -0.0752
45.8800 -30.5555 -0.0782
45.9000 -30.5688 -0.0752
45.9200 -30.5821 -0.0742
45.9400 -30.5954 -0.0764
45.9600 -30.6088 -0.0683
45.9800 -30.6221 -0.0738
46.0000 -30.6355 -0.0659
46.0200 -30.6488 -0.0706
46.0400 -30.6621 -0.0661
46.0600 -30.6755 -0.0667
46.0800 -30.6889 -0.0614
46.1000 -30.7022 -0.0674
46.1200 -30.7155 -0.0621
46.1400 -30.7289 -0.0620
46.1600 -30.7422 -0.0604
46.1800 -30.7556 -0.0600
46.2000 -30.7689 -0.0596
46.2200 -30.7822 -0.0564
46.2400 -30.7955 -0.0577
46.2600 -30.8089 -0.0547
46.2800 -30.8222 -0.0560
46.3000 -30.8355 -0.0540
46.3200 -30.8488 -0.0526
46.3400 -30.8622 -0.0519
46.3600 -30.8755 -0.0499
46.3800 -30.8888 -0.0472
46.4000 -30.9022 -0.0498
46.4200 -30.9155 -0.0499
46.4400 -30.9289 -0.0485
46.4600 -30.9422 -0.0485
46.4800 -30.9555 -0.0486
46.5000 -30.9688 -0.0471
46.5200 -30.9822 -0.0447
46.5400 -30.9956 -0.0430
46.5600 -31.0089 -0.0436
46.5800 -31.0222 -0.0441
46.6000 -31.0356 -0.0433
46.6200 -31.0489 -0.0421
46.6400 -31.0622 -0.0401
46.6600 -31.0755 -0.0402
46.6800 -31.0888 -0.0386
46.7000 -31.1022 -0.0385
46.7200 -31.1155 -0.0387
46.7400 -31.1288 -0.0358
46.7600 -31.1422 -0.0352
46.7800 -31.1555 -0.0357
46.8000 -31.1689 -0.0346
46.8200 -31.1823 -0.0321
46.8400 -31.1956 -0.0317
46.8600 -31.2089 -0.0289
46.8800 -31.2222 -0.0314
46.9000 -31.2356 -0.0305
46.9200 -31.2489 -0.0293
46.9400 -31.2622 -0.0295
46.9600 -31.2755 -0.0293
46.9800 -31.2888 -0.0242
47.0000 -31.3022 -0.0264
47.0200 -31.3155 -0.0250
47.0400 -31.3288 -0.0231
47.0600 -31.3422 -0.0224
47.0800 -31.3555 -0.0212
47.1000 -31.3689 -0.0195
47.1200 -31.3822 -0.0204
47.1400 -31.3955 -0.0182
47.1600 -31.4089 -0.0181
47.1800 -31.4223 -0.0154
47.2000 -31.4356 -0.0160
47.2200 -31.4489 -0.0143
47.2400 -31.4622 -0.0141
47.2600 -31.4756 -0.0127
47.2800 -31.4889 -0.0107
47.3000 -31.5022 -0.0103
47.3200 -31.5155 -0.0113
47.3400 -31.5288 -0.0084
47.3600 -31.5422 -0.0063
47.3800 -31.5555 -0.0063
47.4000 -31.5688 -0.0050
47.4200 -31.5821 -0.0071
47.4400 -31.5955 -0.0050
47.4600 -31.6088 -0.0031
47.4800 -31.6221 -0.0017
47.5000 -31.6355 -0.0019
47.5200 -31.6489 0.0015
47.5400 -31.6622 0.0004
47.5600 -31.6756 0.0005
47.5800 -31.6889 0.0034
47.6000 -31.7022 0.0037
47.6200 -31.7155 0.0030
47.6400 -31.7289 0.0068
47.6600 -31.7422 0.0048
47.6800 -31.7556 0.0061
47.7000 -31.7689 0.0067
47.7200 -31.7822 0.0092
47.7400 -31.7955 0.0076
47.7600 -31.8088 0.0125
47.7800 -31.8221 0.0109
47.8000 -31.8355 0.0117
47.8200 -31.8488 0.0145
47.8400 -31.8621 0.0138
47.8600 -31.8755 0.0118
47.8800 -31.8889 0.0137
47.9000 -31.9022 0.0140
47.9200 -31.9155 0.0140
47.9400 -31.9289 0.0145
47.9600 -31.9422 0.0159
47.9800 -31.9556 0.0171
48.0000 -31.9689 0.0188
48.0200 -31.9822 0.0179
48.0400 -31.9955 0.0167
48.0600 -32.0089 0.0214
48.0800 -32.0222 0.0212
48.1000 -32.0355 0.0205
48.1200 -32.0488 0.0245
48.1400 -32.0621 0.0213
48.1600 -32.0755 0.0218
48.1800 -32.0888 0.0233
48.2000 -32.1022 0.0252
48.2200 -32.1155 0.0273
48.2400 -32.1289 0.0295
48.2600 -32.1423 0.0325
48.2800 -32.1556 0.0268
48.3000 -32.1689 0.0364
48.3200 -32.1822 0.0322
48.3400 -32.1955 0.0367
48.3600 -32.2089 0.0328
48.3800 -32.2222 0.0386
48.4000 -32.2355 0.0346
48.4200 -32.2489 0.0422
48.4400 -32.2622 0.0389
48.4600 -32.2755 0.0391
48.4800 -32.2888 0.0419
48.5000 -32.3021 0.0409
48.5200 -32.3155 0.0435
48.5400 -32.3288 0.0458
48.5600 -32.3422 0.0462
48.5800 -32.3555 0.0442
48.6000 -32.3689 0.0490
48.6200 -32.3822 0.0471
48.6400 -32.3955 0.0474
48.6600 -32.4089 0.0500
48.6800 -32.4222 0.0515
48.7000 -32.4356 0.0496
48.7200 -32.4489 0.0527
48.7400 -32.4622 0.0518
48.7600 -32.4755 0.0526
48.7800 -32.4889 0.0554
48.8000 -32.5022 0.0530
48.8200 -32.5155 0.0548
48.8400 -32.5288 0.0549
48.8600 -32.5421 0.0559
48.8800 -32.5555 0.0547
48.9000 -32.5688 0.0587
48.9200 -32.5822 0.0581
48.9400 -32.5955 0.0560
48.9600 -32.6089 0.0590
48.9800 -32.6223 0.0586
49.0000 -32.6356 0.0576
49.0200 -32.6489 0.0573
49.0400 -32.6622 0.0590
49.0600 -32.6756 0.0577
49.0800 -32.6889 0.0617
49.1000 -32.7022 0.0609
49.1200 -32.7155 0.0615
49.1400 -32.7289 0.0619
49.1600 -32.7422 0.0625
49.1800 -32.7555 0.0605
49.2000 -32.7688 0.0609
49.2200 -32.7822 0.0617
49.2400 -32.7955 0.0612
49.2600 -32.8089 0.0626
49.2800 -32.8222 0.0618
49.3000 -32.8355 0.0612
49.3200 -32.8488 0.0627
49.3400 -32.8622 0.0647
49.3600 -32.8755 0.0625
49.3800 -32.8888 0.0651
49.4000 -32.9022 0.0644
49.4200 -32.9156 0.0648
49.4400 -32.9289 0.0668
49.4600 -32.9422 0.0681
49.4800 -32.9556 0.0658
49.5000 -32.9689 0.0689
49.5200 -32.9822 0.0695
49.5400 -32.9955 0.0695
49.5600 -33.0088 0.0700
49.5800 -33.0221 0.0711
49.6000 -33.0355 0.0706
49.6200 -33.0488 0.0744
49.6400 -33.0621 0.0761
49.6600 -33.0755 0.0764
49.6800 -33.0888 0.0791
49.7000 -33.1022 0.0806
49.7200 -33.1155 0.0765
49.7400 -33.1288 0.0807
49.7600 -33.1422 0.0814
49.7800 -33.1555 0.0821
49.8000 -33.1689 0.0861
49.8200 -33.1822 0.0890
49.8400 -33.1955 0.0874
49.8600 -33.2089 0.0902
49.8800 -33.2222 0.0902
49.9000 -33.2355 0.0916
49.9200 -33.2488 0.0927
49.9400 -33.2621 0.0940
49.9600 -33.2755 0.0948
49.9800 -33.2888 0.0962
50.0000 -33.3021 0.0975
50.0200 -33.3155 0.0955
50.0400 -33.3288 0.0999
50.0600 -33.3422 0.1013
50.0800 -33.3556 0.1033
50.1000 -33.3689 0.1040
50.1200 -33.3822 0.1054
50.1400 -33.3956 0.1053
50.1600 -33.4089 0.1077
50.1800 -33.4222 0.1090
50.2000 -33.4355 0.1080
50.2200 -33.4488 0.1092
50.2400 -33.4621 0.1116
50.2600 -33.4754 0.1101
50.2800 -33.4888 0.1137
50.3000 -33.5021 0.1144
50.3200 -33.5155 0.1148
50.3400 -33.5289 0.1160
50.3600 -33.5422 0.1170
50.3800 -33.5555 0.1149
50.4000 -33.5689 0.1176
50.4200 -33.5823 0.1179
50.4400 -33.5956 0.1184
50.4600 -33.6089 0.1208
50.4800 -33.6222 0.1247
50.5000 -33.6356 0.1235
50.5200 -33.6489 0.1263
50.5400 -33.6623 0.1253
50.5600 -33.6756 0.1246
50.5800 -33.6889 0.1265
50.6000 -33.7022 0.1290
50.6200 -33.7155 0.1287
50.6400 -33.7288 0.1301
50.6600 -33.7421 0.1316
50.6800 -33.7555 0.1301
50.7000 -33.7688 0.1331
50.7200 -33.7821 0.1331
50.7400 -33.7955 0.1321
50.7600 -33.8088 0.1342
50.7800 -33.8222 0.1361
50.8000 -33.8356 0.1336
50.8200 -33.8489 0.1361
50.8400 -33.8622 0.1389
50.8600 -33.8755 0.1389
50.8800 -33.8889 0.1406
50.9000 -33.9022 0.1413
50.9200 -33.9155 0.1404
50.9400 -33.9289 0.1432
50.9600 -33.9422 0.1429
50.9800 -33.9555 0.1423
51.0000 -33.9687 0.1429
51.0200 -33.9820 0.1437
51.0400 -33.9954 0.1418
51.0600 -34.0088 0.1440
51.0800 -34.0222 0.1454
51.1000 -34.0355 0.1432
51.1200 -34.0489 0.1446
51.1400 -34.0622 0.1459
51.1600 -34.0756 0.1444
51.1800 -34.0889 0.1451
51.2000 -34.1022 0.1464
51.2200 -34.1155 0.1491
51.2400 -34.1289 0.1469
51.2600 -34.1422 0.1507
51.2800 -34.1555 0.1471
51.3000 -34.1688 0.1495
51.3200 -34.1822 0.1495
51.3400 -34.1955 0.1487
51.3600 -34.2088 0.1500
51.3800 -34.2221 0.1534
51.4000 -34.2355 0.1521
51.4200 -34.2489 0.1536
51.4400 -34.2622 0.1547
51.4600 -34.2755 0.1532
51.4800 -34.2889 0.1530
51.5000 -34.3022 0.1560
51.5200 -34.3156 0.1584
51.5400 -34.3289 0.1571
51.5600 -34.3422 0.1603
51.5800 -34.3556 0.1592
51.6000 -34.3689 0.1611
51.6200 -34.3823 0.1626
51.6400 -34.3955 0.1620
51.6600 -34.4089 0.1661
51.6800 -34.4222 0.1689
51.7000 -34.4355 0.1668
51.7200 -34.4488 0.1675
51.7400 -34.4621 0.1679
51.7600 -34.4755 0.1663
51.7800 -34.4888 0.1713
51.8000 -34.5022 0.1747
51.8200 -34.5155 0.1749
51.8400 -34.5289 0.1757
51.8600 -34.5422 0.1776
51.8800 -34.5556 0.1777
51.9000 -34.5689 0.1792
51.9200 -34.5822 0.1815
51.9400 -34.5956 0.1809
51.9600 -34.6089 0.1830
51.9800 -34.6223 0.1844
52.0000 -34.6355 0.1852
52.0200 -34.6489 0.1862
52.0400 -34.6622 0.1890
52.0600 -34.6755 0.1880
52.0800 -34.6888 0.1893
52.1000 -34.7021 0.1922
52.1200 -34.7154 0.1905
52.1400 -34.7288 0.1915
52.1600 -34.7421 0.1938
52.1800 -34.7555 0.1967
52.2000 -34.7688 0.1954
52.2200 -34.7822 0.1979
52.2400 -34.7956 0.1956
52.2600 -34.8089 0.1973
52.2800 -34.8222 0.1984
52.3000 -34.8356 0.1999
52.3200 -34.8489 0.1997
52.3400 -34.8622 0.2008
52.3600 -34.8755 0.1994
52.3800 -34.8888 0.2005
52.4000 -34.9022 0.2044
52.4200 -34.9155 0.2039
52.4400 -34.9288 0.2035
52.4600 -34.9421 0.2071
52.4800 -34.9554 0.2060
52.5000 -34.9688 0.2084
52.5200 -34.9822 0.2096
52.5400 -34.9955 0.2092
52.5600 -35.0089 0.2085
52.5800 -35.0222 0.2117
52.6000 -35.0356 0.2110
52.6200 -35.0489 0.2128
52.6400 -35.0621 0.2143
52.6600 -35.0755 0.2169
52.6800 -35.0889 0.2143
52.7000 -35.1022 0.2175
52.7200 -35.1155 0.2180
52.7400 -35.1289 0.2175
52.7600 -35.1422 0.2220
52.7800 -35.1556 0.2189
52.8000 -35.1689 0.2198
52.8200 -35.1822 0.2222
52.8400 -35.1955 0.2229
52.8600 -35.2088 0.2205
52.8800 -35.2222 0.2254
52.9000 -35.2355 0.2228
52.9200 -35.2488 0.2231
52.9400 -35.2622 0.2240
52.9600 -35.2756 0.2244
52.9800 -35.2889 0.2230
53.0000 -35.3022 0.2277
53.0200 -35.3155 0.2230
53.0400 -35.3289 0.2268
53.0600 -35.3423 0.2273
53.0800 -35.3556 0.2277
53.1000 -35.3689 0.2300
53.1200 -35.3822 0.2306
53.1400 -35.3955 0.2321
53.1600 -35.4088 0.2327
53.1800 -35.4221 0.2333
53.2000 -35.4355 0.2346
53.2200 -35.4488 0.2340
53.2400 -35.4622 0.2381
53.2600 -35.4755 0.2371
53.2800 -35.4888 0.2392
53.3000 -35.5022 0.2385
53.3200 -35.5156 0.2411
53.3400 -35.5289 0.2395
53.3600 -35.5422 0.2425
53.3800 -35.5555 0.2410
53.4000 -35.5689 0.2426
53.4200 -35.5822 0.2430
53.4400 -35.5955 0.2437
53.4600 -35.6088 0.2422
53.4800 -35.6222 0.2454
53.5000 -35.6355 0.2452
53.5200 -35.6488 0.2441
53.5400 -35.6621 0.2472
53.5600 -35.6755 0.2447
53.5800 -35.6888 0.2476
53.6000 -35.7022 0.2484
53.6200 -35.7155 0.2473
53.6400 -35.7288 0.2476
53.6600 -35.7422 0.2490
53.6800 -35.7555 0.2511
53.7000 -35.7689 0.2515
53.7200 -35.7822 0.2512
53.7400 -35.7955 0.2535
53.7600 -35.8089 0.2510
53.7800 -35.8222 0.2553
53.8000 -35.8355 0.2567
53.8200 -35.8489 0.2580
53.8400 -35.8622 0.2599
53.8600 -35.8756 0.2601
53.8800 -35.8889 0.2601
53.9000 -35.9021 0.2620
53.9200 -35.9155 0.2626
53.9400 -35.9288 0.2629
53.9600 -35.9422 0.2652
53.9800 -35.9555 0.2656
54.0000 -35.9688 0.2675
54.0200 -35.9822 0.2703
54.0400 -35.9956 0.2694
54.0600 -36.0089 0.2715
54.0800 -36.0222 0.2720
54.1000 -36.0355 0.2750
54.1200 -36.0489 0.2735
54.1400 -36.0622 0.2770
54.1600 -36.0755 0.2778
54.1800 -36.0889 0.2784
54.2000 -36.1022 0.2809
54.2200 -36.1155 0.2830
54.2400 -36.1288 0.2810
54.2600 -36.1421 0.2839
54.2800 -36.1555 0.2852
54.3000 -36.1688 0.2848
54.3200 -36.1822 0.2894
54.3400 -36.1955 0.2869
54.3600 -36.2089 0.2873
54.3800 -36.2222 0.2894
54.4000 -36.2356 0.2905
54.4200 -36.2489 0.2921
54.4400 -36.2622 0.2948
54.4600 -36.2755 0.2960
54.4800 -36.2889 0.2957
54.5000 -36.3022 0.2973
54.5200 -36.3155 0.2961
54.5400 -36.3288 0.2952
54.5600 -36.3422 0.2988
54.5800 -36.3555 0.2988
54.6000 -36.3688 0.2978
54.6200 -36.3821 0.3005
54.6400 -36.3955 0.3017
54.6600 -36.4089 0.3006
54.6800 -36.4222 0.3034
54.7000 -36.4355 0.3042
54.7200 -36.4488 0.3037
54.7400 -36.4622 0.3068
54.7600 -36.4756 0.3060
54.7800 -36.4889 0.3041
54.8000 -36.5022 0.3070
54.8200 -36.5155 0.3089
54.8400 -36.5289 0.3072
54.8600 -36.5422 0.3123
54.8800 -36.5555 0.3109
54.9000 -36.5689 0.3105
54.9200 -36.5822 0.3112
54.9400 -36.5956 0.3157
54.9600 -36.6089 0.3147
54.9800 -36.6222 0.3190
55.0000 -36.6355 0.3193
55.0200 -36.6488 0.3192
55.0400 -36.6621 0.3208
55.0600 -36.6754 0.3216
55.0800 -36.6888 0.3221
55.1000 -36.7021 0.3229
55.1200 -36.7155 0.3223
55.1400 -36.7289 0.3232
55.1600 -36.7422 0.3245
55.1800 -36.7556 0.3252
55.2000 -36.7689 0.3258
55.2200 -36.7823 0.3271
55.2400 -36.7956 0.3273
55.2600 -36.8089 0.3284
55.2800 -36.8222 0.3291
55.3000 -36.8355 0.3313
55.3200 -36.8488 0.3333
55.3400 -36.8621 0.3337
55.3600 -36.8755 0.3358
55.3800 -36.8888 0.3358
55.4000 -36.9022 0.3375
55.4200 -36.9155 0.3355
55.4400 -36.9288 0.3363
55.4600 -36.9422 0.3388
55.4800 -36.9556 0.3417
55.5000 -36.9689 0.3397
55.5200 -36.9822 0.3397
55.5400 -36.9955 0.3441
55.5600 -37.0089 0.3429
55.5800 -37.0222 0.3464
55.6000 -37.0355 0.3458
55.6200 -37.0489 0.3443
55.6400 -37.0622 0.3469
55.6600 -37.0755 0.3470
55.6800 -37.0888 0.3473
55.7000 -37.1021 0.3483
55.7200 -37.1155 0.3521
55.7400 -37.1288 0.3492
55.7600 -37.1422 0.3527
55.7800 -37.1555 0.3536
55.8000 -37.1688 0.3540
55.8200 -37.1822 0.3536
55.8400 -37.1955 0.3577
55.8600 -37.2089 0.3561
55.8800 -37.2222 0.3592
55.9000 -37.2355 0.3588
55.9200 -37.2489 0.3579
55.9400 -37.2622 0.3593
55.9600 -37.2756 0.3596
55.9800 -37.2889 0.3593
56.0000 -37.3022 0.3612
56.0200 -37.3156 0.3628
56.0400 -37.3289 0.3641
56.0600 -37.3421 0.3663
56.0800 -37.3554 0.3684
56.1000 -37.3688 0.3673
56.1200 -37.3822 0.3702
56.1400 -37.3955 0.3725
56.1600 -37.4088 0.3710
56.1800 -37.4222 0.3743
56.2000 -37.4356 0.3754
56.2200 -37.4489 0.3755
56.2400 -37.4622 0.3745
56.2600 -37.4756 0.3771
56.2800 -37.4889 0.3783
56.3000 -37.5022 0.3819
56.3200 -37.5156 0.3818
56.3400 -37.5289 0.3825
56.3600 -37.5422 0.3812
56.3800 -37.5555 0.3839
56.4000 -37.5689 0.3808
56.4200 -37.5822 0.3844
56.4400 -37.5955 0.3850
56.4600 -37.6088 0.3851
56.4800 -37.6222 0.3869
56.5000 -37.6355 0.3890
56.5200 -37.6488 0.3870
56.5400 -37.6622 0.3910
56.5600 -37.6755 0.3935
56.5800 -37.6889 0.3932
56.6000 -37.7022 0.3940
56.6200 -37.7155 0.3991
56.6400 -37.7289 0.4248
56.6600 -37.7422 0.3211
56.6800 -37.7556 0.2676
56.7000 -37.7689 0.2586
56.7200 -37.7822 0.2664
56.7400 -37.7956 0.2689
56.7600 -37.8089 0.2701
56.7800 -37.8222 0.2689
56.8000 -37.8355 0.2682
56.8200 -37.8488 0.2677
56.8400 -37.8622 0.2691
56.8600 -37.8755 0.2686
56.8800 -37.8888 0.2667
56.9000 -37.9022 0.2693
56.9200 -37.9155 0.2692
56.9400 -37.9289 0.2704
56.9600 -37.9422 0.2693
56.9800 -37.9555 0.2710
57.0000 -37.9689 0.2690
57.0200 -37.9822 0.2708
57.0400 -37.9956 0.2699
57.0600 -38.0089 0.2681
57.0800 -38.0222 0.2702
57.1000 -38.0356 0.2716
57.1200 -38.0489 0.2706
57.1400 -38.0622 0.2701
57.1600 -38.0754 0.2722
57.1800 -38.0888 0.2727
57.2000 -38.1022 0.2746
57.2200 -38.1155 0.2740
57.2400 -38.1288 0.2731
57.2600 -38.1421 0.2760
57.2800 -38.1555 0.2757
57.3000 -38.1689 0.2761
57.3200 -38.1822 0.2742
57.3400 -38.1956 0.2761
57.3600 -38.2089 0.2773
57.3800 -38.2223 0.2775
57.4000 -38.2356 0.2800
57.4200 -38.2489 0.2765
57.4400 -38.2622 0.2784
57.4600 -38.2755 0.2797
57.4800 -38.2888 0.2797
57.5000 -38.3021 0.2772
57.5200 -38.3154 0.2791
57.5400 -38.3288 0.2767
57.5600 -38.3422 0.2793
57.5800 -38.3555 0.2804
57.6000 -38.3688 0.2807
57.6200 -38.3822 0.2810
57.6400 -38.3955 0.2826
57.6600 -38.4089 0.2808
57.6800 -38.4222 0.2804
57.7000 -38.4355 0.2835
57.7200 -38.4489 0.2822
57.7400 -38.4622 0.2818
57.7600 -38.4756 0.2832
57.7800 -38.4889 0.2838
57.8000 -38.5022 0.2850
57.8200 -38.5155 0.2865
57.8400 -38.5289 0.2830
57.8600 -38.5422 0.2854
57.8800 -38.5555 0.2863
57.9000 -38.5688 0.2870
57.9200 -38.5822 0.2886
57.9400 -38.5955 0.2883
57.9600 -38.6088 0.2887
57.9800 -38.6221 0.2858
58.0000 -38.6355 0.2890
58.0200 -38.6489 0.2865
58.0400 -38.6622 0.2876
58.0600 -38.6755 0.2887
58.0800 -38.6888 0.2916
58.1000 -38.7022 0.2898
58.1200 -38.7155 0.2913
58.1400 -38.7289 0.2883
58.1600 -38.7422 0.2922
58.1800 -38.7555 0.2914
58.2000 -38.7689 0.2943
58.2200 -38.7822 0.2909
58.2400 -38.7955 0.2932
58.2600 -38.8088 0.2926
58.2800 -38.8222 0.2948
58.3000 -38.8355 0.2962
58.3200 -38.8488 0.2959
58.3400 -38.8622 0.2968
58.3600 -38.8755 0.2976
58.3800 -38.8889 0.2973
58.4000 -38.9023 0.2970
58.4200 -38.9155 0.2976
58.4400 -38.9289 0.2966
58.4600 -38.9422 0.2975
58.4800 -38.9555 0.3005
58.5000 -38.9688 0.2995
58.5200 -38.9822 0.2994
58.5400 -38.9955 0.3013
58.5600 -39.0088 0.3019
58.5800 -39.0221 0.3009
58.6000 -39.0355 0.3035
58.6200 -39.0488 0.3006
58.6400 -39.0622 0.3016
58.6600 -39.0756 0.3019
58.6800 -39.0889 0.3031
58.7000 -39.1022 0.3052
58.7200 -39.1155 0.3054
58.7400 -39.1289 0.3049
58.7600 -39.1422 0.3051
58.7800 -39.1555 0.3072
58.8000 -39.1689 0.3055
58.8200 -39.1822 0.3053
58.8400 -39.1956 0.3043
58.8600 -39.2089 0.3059
58.8800 -39.2222 0.3070
58.9000 -39.2355 0.3083
58.9200 -39.2488 0.3066
58.9400 -39.2621 0.3084
58.9600 -39.2754 0.3090
58.9800 -39.2888 0.3105
59.0000 -39.3021 0.3065
59.0200 -39.3155 0.3108
59.0400 -39.3288 0.3078
59.0600 -39.3421 0.3085
59.0800 -39.3555 0.3100
59.1000 -39.3689 0.3129
59.1200 -39.3822 0.3128
59.1400 -39.3956 0.3154
59.1600 -39.4089 0.3132
59.1800 -39.4222 0.3139
59.2000 -39.4356 0.3125
59.2200 -39.4489 0.3144
59.2400 -39.4622 0.3155
59.2600 -39.4755 0.3164
59.2800 -39.4889 0.3149
59.3000 -39.5022 0.3146
59.3200 -39.5154 0.3159
59.3400 -39.5288 0.3162
59.3600 -39.5421 0.3169
59.3800 -39.5555 0.3196
59.4000 -39.5688 0.3207
59.4200 -39.5821 0.3204
59.4400 -39.5955 0.3215
59.4600 -39.6089 0.3217
59.4800 -39.6223 0.3219
59.5000 -39.6356 0.3219
59.5200 -39.6489 0.3235
59.5400 -39.6622 0.3234
59.5600 -39.6756 0.3236
59.5800 -39.6889 0.3225
59.6000 -39.7022 0.3231
59.6200 -39.7155 0.3228
59.6400 -39.7289 0.3263
59.6600 -39.7422 0.3239
59.6800 -39.7555 0.3261
59.7000 -39.7688 0.3240
59.7200 -39.7822 0.3255
59.7400 -39.7955 0.3260
59.7600 -39.8088 0.3267
59.7800 -39.8222 0.3260
59.8000 -39.8355 0.3272
59.8200 -39.8489 0.3271
59.8400 -39.8622 0.3286
59.8600 -39.8755 0.3307
59.8800 -39.8888 0.3316
59.9000 -39.9022 0.3312
59.9200 -39.9155 0.3313
59.9400 -39.9289 0.3322
59.9600 -39.9422 0.3344
59.9800 -39.9555 0.3327
60.0000 -39.9689 0.3342
60.0200 -39.9822 0.3340
60.0400 -39.9955 0.3356
60.0470 -40.0000 0.3406
