Raw Data
Time Displacement Force
(s) (mm) (N)
0.0000 -0.0001 -0.6741
0.0200 -0.0001 -0.6755
0.0400 -0.0020 -0.6886
0.0600 -0.0095 -0.6857
0.0800 -0.0214 -0.6718
0.1000 -0.0341 -0.6723
0.1200 -0.0468 -0.6720
0.1400 -0.0602 -0.6738
0.1600 -0.0741 -0.6689
0.1800 -0.0881 -0.6716
0.2000 -0.1019 -0.6675
0.2200 -0.1155 -0.6689
0.2400 -0.1289 -0.6675
0.2600 -0.1422 -0.6673
0.2800 -0.1555 -0.6670
0.3000 -0.1688 -0.6645
0.3200 -0.1822 -0.6636
0.3400 -0.1955 -0.6609
0.3600 -0.2089 -0.6608
0.3800 -0.2222 -0.6629
0.4000 -0.2355 -0.6625
0.4200 -0.2489 -0.6604
0.4400 -0.2622 -0.6597
0.4600 -0.2756 -0.6573
0.4800 -0.2889 -0.6573
0.5000 -0.3022 -0.6543
0.5200 -0.3156 -0.6519
0.5400 -0.3290 -0.6523
0.5600 -0.3423 -0.6507
0.5800 -0.3556 -0.6504
0.6000 -0.3689 -0.6477
0.6200 -0.3823 -0.6462
0.6400 -0.3956 -0.6452
0.6600 -0.4089 -0.6430
0.6800 -0.4222 -0.6415
0.7000 -0.4356 -0.6405
0.7200 -0.4489 -0.6380
0.7400 -0.4622 -0.6392
0.7600 -0.4755 -0.6368
0.7800 -0.4889 -0.6359
0.8000 -0.5022 -0.6320
0.8200 -0.5156 -0.6309
0.8400 -0.5289 -0.6296
0.8600 -0.5423 -0.6281
0.8800 -0.5556 -0.6254
0.9000 -0.5689 -0.6240
0.9200 -0.5822 -0.6232
0.9400 -0.5956 -0.6206
0.9600 -0.6089 -0.6202
0.9800 -0.6223 -0.6183
1.0000 -0.6356 -0.6155
1.0200 -0.6489 -0.6161
1.0400 -0.6622 -0.6140
1.0600 -0.6756 -0.6091
1.0800 -0.6889 -0.6081
1.1000 -0.7021 -0.6057
1.1200 -0.7154 -0.6062
1.1400 -0.7288 -0.6021
1.1600 -0.7422 -0.6008
1.1800 -0.7556 -0.6012
1.2000 -0.7689 -0.6001
1.2200 -0.7823 -0.5978
1.2400 -0.7956 -0.5961
1.2600 -0.8090 -0.5933
1.2800 -0.8223 -0.5951
1.3000 -0.8356 -0.5919
1.3200 -0.8490 -0.5937
1.3400 -0.8623 -0.5914
1.3600 -0.8756 -0.5907
1.3800 -0.8889 -0.5876
1.4000 -0.9023 -0.5885
1.4200 -0.9156 -0.5863
1.4400 -0.9289 -0.5825
1.4600 -0.9422 -0.5819
1.4800 -0.9555 -0.5812
1.5000 -0.9688 -0.5820
1.5200 -0.9822 -0.5805
1.5400 -0.9955 -0.5773
1.5600 -1.0089 -0.5760
1.5800 -1.0222 -0.5753
1.6000 -1.0356 -0.5729
1.6200 -1.0490 -0.5707
1.6400 -1.0623 -0.5697
1.6600 -1.0756 -0.5705
1.6800 -1.0890 -0.5689
1.7000 -1.1023 -0.5685
1.7200 -1.1156 -0.5670
1.7400 -1.1289 -0.5639
1.7600 -1.1422 -0.5623
1.7800 -1.1556 -0.5605
1.8000 -1.1689 -0.5586
1.8200 -1.1822 -0.5578
1.8400 -1.1955 -0.5580
1.8600 -1.2089 -0.5560
1.8800 -1.2223 -0.5546
1.9000 -1.2356 -0.5551
1.9200 -1.2489 -0.5523
1.9400 -1.2623 -0.5503
1.9600 -1.2756 -0.5497
1.9800 -1.2890 -0.5467
2.0000 -1.3022 -0.5450
2.0200 -1.3155 -0.5442
2.0400 -1.3289 -0.5426
2.0600 -1.3423 -0.5423
2.0800 -1.3556 -0.5405
2.1000 -1.3689 -0.5383
2.1200 -1.3823 -0.5373
2.1400 -1.3956 -0.5351
2.1600 -1.4090 -0.5349
2.1800 -1.4222 -0.5317
2.2000 -1.4356 -0.5324
2.2200 -1.4489 -0.5273
2.2400 -1.4622 -0.5293
2.2600 -1.4755 -0.5283
2.2800 -1.4888 -0.5276
2.3000 -1.5022 -0.5260
2.3200 -1.5156 -0.5243
2.3400 -1.5290 -0.5221
2.3600 -1.5423 -0.5228
2.3800 -1.5556 -0.5215
2.4000 -1.5690 -0.5199
2.4200 -1.5823 -0.5193
2.4400 -1.5956 -0.5166
2.4600 -1.6089 -0.5156
2.4800 -1.6222 -0.5143
2.5000 -1.6356 -0.5146
2.5200 -1.6489 -0.5126
2.5400 -1.6622 -0.5142
2.5600 -1.6755 -0.5116
2.5800 -1.6888 -0.5104
2.6000 -1.7022 -0.5084
2.6200 -1.7156 -0.5070
2.6400 -1.7289 -0.5056
2.6600 -1.7422 -0.5048
2.6800 -1.7556 -0.5022
2.7000 -1.7690 -0.5002
2.7200 -1.7823 -0.4997
2.7400 -1.7956 -0.4994
2.7600 -1.8089 -0.4978
2.7800 -1.8223 -0.4978
2.8000 -1.8356 -0.4969
2.8200 -1.8489 -0.4954
2.8400 -1.8622 -0.4937
2.8600 -1.8756 -0.4915
2.8800 -1.8889 -0.4891
2.9000 -1.9022 -0.4889
2.9200 -1.9155 -0.4889
2.9400 -1.9289 -0.4879
2.9600 -1.9422 -0.4856
2.9800 -1.9556 -0.4870
3.0000 -1.9689 -0.4842
3.0200 -1.9822 -0.4854
3.0400 -1.9956 -0.4826
3.0600 -2.0090 -0.4818
3.0800 -2.0223 -0.4803
3.1000 -2.0356 -0.4800
3.1200 -2.0489 -0.4770
3.1400 -2.0623 -0.4770
3.1600 -2.0756 -0.4743
3.1800 -2.0889 -0.4770
3.2000 -2.1023 -0.4745
3.2200 -2.1156 -0.4741
3.2400 -2.1289 -0.4703
3.2600 -2.1422 -0.4701
3.2800 -2.1555 -0.4706
3.3000 -2.1689 -0.4705
3.3200 -2.1822 -0.4687
3.3400 -2.1956 -0.4683
3.3600 -2.2089 -0.4646
3.3800 -2.2222 -0.4640
3.4000 -2.2356 -0.4651
3.4200 -2.2490 -0.4626
3.4400 -2.2623 -0.4625
3.4600 -2.2756 -0.4605
3.4800 -2.2889 -0.4595
3.5000 -2.3023 -0.4569
3.5200 -2.3156 -0.4571
3.5400 -2.3289 -0.4553
3.5600 -2.3422 -0.4533
3.5800 -2.3556 -0.4526
3.6000 -2.3689 -0.4507
3.6200 -2.3822 -0.4481
3.6400 -2.3955 -0.4496
3.6600 -2.4089 -0.4473
3.6800 -2.4222 -0.4461
3.7000 -2.4356 -0.4437
3.7200 -2.4489 -0.4437
3.7400 -2.4622 -0.4408
3.7600 -2.4756 -0.4428
3.7800 -2.4890 -0.4408
3.8000 -2.5023 -0.4394
3.8200 -2.5156 -0.4390
3.8400 -2.5289 -0.4381
3.8600 -2.5423 -0.4372
3.8800 -2.5556 -0.4371
3.9000 -2.5689 -0.4342
3.9200 -2.5822 -0.4348
3.9400 -2.5956 -0.4344
3.9600 -2.6089 -0.4311
3.9800 -2.6222 -0.4303
4.0000 -2.6355 -0.4302
4.0200 -2.6489 -0.4279
4.0400 -2.6623 -0.4274
4.0600 -2.6756 -0.4275
4.0800 -2.6889 -0.4264
4.1000 -2.7022 -0.4231
4.1200 -2.7156 -0.4238
4.1400 -2.7290 -0.4238
4.1600 -2.7423 -0.4230
4.1800 -2.7556 -0.4208
4.2000 -2.7689 -0.4193
4.2200 -2.7823 -0.4182
4.2400 -2.7956 -0.4181
4.2600 -2.8089 -0.4165
4.2800 -2.8223 -0.4161
4.3000 -2.8356 -0.4148
4.3200 -2.8489 -0.4146
4.3400 -2.8622 -0.4135
4.3600 -2.8755 -0.4132
4.3800 -2.8889 -0.4124
4.4000 -2.9022 -0.4106
4.4200 -2.9155 -0.4098
4.4400 -2.9288 -0.4091
4.4600 -2.9422 -0.4089
4.4800 -2.9556 -0.4073
4.5000 -2.9690 -0.4055
4.5200 -2.9823 -0.4040
4.5400 -2.9956 -0.4051
4.5600 -3.0089 -0.4040
4.5800 -3.0223 -0.4010
4.6000 -3.0357 -0.4000
4.6200 -3.0489 -0.3983
4.6400 -3.0622 -0.3988
4.6600 -3.0755 -0.3994
4.6800 -3.0889 -0.3991
4.7000 -3.1022 -0.3979
4.7200 -3.1155 -0.3954
4.7400 -3.1289 -0.3947
4.7600 -3.1422 -0.3950
4.7800 -3.1556 -0.3941
4.8000 -3.1689 -0.3946
4.8200 -3.1822 -0.3915
4.8400 -3.1956 -0.3918
4.8600 -3.2090 -0.3892
4.8800 -3.2223 -0.3899
4.9000 -3.2356 -0.3897
4.9200 -3.2489 -0.3891
4.9400 -3.2623 -0.3863
4.9600 -3.2756 -0.3861
4.9800 -3.2889 -0.3847
5.0000 -3.3023 -0.3858
5.0200 -3.3156 -0.3843
5.0400 -3.3289 -0.3824
5.0600 -3.3422 -0.3812
5.0800 -3.3555 -0.3815
5.1000 -3.3689 -0.3796
5.1200 -3.3822 -0.3794
5.1400 -3.3956 -0.3786
5.1600 -3.4089 -0.3767
5.1800 -3.4222 -0.3768
5.2000 -3.4356 -0.3763
5.2200 -3.4490 -0.3741
5.2400 -3.4623 -0.3730
5.2600 -3.4756 -0.3729
5.2800 -3.4889 -0.3715
5.3000 -3.5023 -0.3715
5.3200 -3.5157 -0.3697
5.3400 -3.5290 -0.3701
5.3600 -3.5423 -0.3659
5.3800 -3.5556 -0.3669
5.4000 -3.5689 -0.3640
5.4200 -3.5822 -0.3633
5.4400 -3.5955 -0.3631
5.4600 -3.6088 -0.3617
5.4800 -3.6222 -0.3601
5.5000 -3.6355 -0.3614
5.5200 -3.6489 -0.3579
5.5400 -3.6622 -0.3596
5.5600 -3.6756 -0.3576
5.5800 -3.6890 -0.3565
5.6000 -3.7023 -0.3529
5.6200 -3.7156 -0.3564
5.6400 -3.7290 -0.3522
5.6600 -3.7423 -0.3531
5.6800 -3.7557 -0.3501
5.7000 -3.7690 -0.3513
5.7200 -3.7823 -0.3461
5.7400 -3.7956 -0.3494
5.7600 -3.8089 -0.3462
5.7800 -3.8223 -0.3477
5.8000 -3.8355 -0.3454
5.8200 -3.8489 -0.3451
5.8400 -3.8622 -0.3432
5.8600 -3.8756 -0.3427
5.8800 -3.8889 -0.3424
5.9000 -3.9022 -0.3406
5.9200 -3.9156 -0.3413
5.9400 -3.9289 -0.3394
5.9600 -3.9423 -0.3383
5.9800 -3.9556 -0.3382
6.0000 -3.9689 -0.3375
6.0200 -3.9823 -0.3341
6.0400 -3.9957 -0.3341
6.0600 -4.0090 -0.3336
6.0800 -4.0223 -0.3345
6.1000 -4.0356 -0.3319
6.1200 -4.0490 -0.3345
6.1400 -4.0623 -0.3299
6.1600 -4.0755 -0.3314
6.1800 -4.0889 -0.3277
6.2000 -4.1022 -0.3276
6.2200 -4.1156 -0.3254
6.2400 -4.1289 -0.3257
6.2600 -4.1422 -0.3249
6.2800 -4.1556 -0.3250
6.3000 -4.1689 -0.3220
6.3200 -4.1823 -0.3205
6.3400 -4.1956 -0.3201
6.3600 -4.2089 -0.3193
6.3800 -4.2223 -0.3182
6.4000 -4.2356 -0.3184
6.4200 -4.2490 -0.3171
6.4400 -4.2623 -0.3174
6.4600 -4.2756 -0.3143
6.4800 -4.2890 -0.3178
6.5000 -4.3023 -0.3142
6.5200 -4.3156 -0.3176
6.5400 -4.3289 -0.3140
6.5600 -4.3422 -0.3129
6.5800 -4.3556 -0.3126
6.6000 -4.3689 -0.3139
6.6200 -4.3822 -0.3112
6.6400 -4.3955 -0.3105
6.6600 -4.4089 -0.3114
6.6800 -4.4223 -0.3090
6.7000 -4.4356 -0.3092
6.7200 -4.4489 -0.3062
6.7400 -4.4623 -0.3059
6.7600 -4.4756 -0.3052
6.7800 -4.4890 -0.3052
6.8000 -4.5023 -0.3025
6.8200 -4.5156 -0.3035
6.8400 -4.5289 -0.3012
6.8600 -4.5422 -0.2992
6.8800 -4.5555 -0.2983
6.9000 -4.5688 -0.2990
6.9200 -4.5822 -0.2986
6.9400 -4.5956 -0.2972
6.9600 -4.6089 -0.2950
6.9800 -4.6222 -0.2923
7.0000 -4.6356 -0.2928
7.0200 -4.6490 -0.2942
7.0400 -4.6623 -0.2913
7.0600 -4.6756 -0.2902
7.0800 -4.6889 -0.2901
7.1000 -4.7022 -0.2877
7.1200 -4.7156 -0.2875
7.1400 -4.7290 -0.2869
7.1600 -4.7423 -0.2855
7.1800 -4.7556 -0.2855
7.2000 -4.7689 -0.2844
7.2200 -4.7823 -0.2836
7.2400 -4.7956 -0.2835
7.2600 -4.8089 -0.2834
7.2800 -4.8222 -0.2802
7.3000 -4.8356 -0.2812
7.3200 -4.8489 -0.2821
7.3400 -4.8622 -0.2791
7.3600 -4.8756 -0.2804
7.3800 -4.8890 -0.2786
7.4000 -4.9023 -0.2782
7.4200 -4.9156 -0.2773
7.4400 -4.9289 -0.2775
7.4600 -4.9423 -0.2717
7.4800 -4.9556 -0.2725
7.5000 -4.9690 -0.2719
7.5200 -4.9823 -0.2719
7.5400 -4.9956 -0.2702
7.5600 -5.0089 -0.2729
7.5800 -5.0223 -0.2680
7.6000 -5.0356 -0.2713
7.6200 -5.0489 -0.2693
7.6400 -5.0622 -0.2659
7.6600 -5.0756 -0.2667
7.6800 -5.0889 -0.2648
7.7000 -5.1022 -0.2625
7.7200 -5.1156 -0.2629
7.7400 -5.1289 -0.2651
7.7600 -5.1423 -0.2601
7.7800 -5.1556 -0.2610
7.8000 -5.1689 -0.2606
7.8200 -5.1823 -0.2589
7.8400 -5.1956 -0.2568
7.8600 -5.2089 -0.2584
7.8800 -5.2222 -0.2566
7.9000 -5.2355 -0.2565
7.9200 -5.2489 -0.2551
7.9400 -5.2622 -0.2544
7.9600 -5.2755 -0.2541
7.9800 -5.2888 -0.2543
8.0000 -5.3022 -0.2541
8.0200 -5.3156 -0.2536
8.0400 -5.3289 -0.2561
8.0600 -5.3423 -0.2540
8.0800 -5.3556 -0.2516
8.1000 -5.3690 -0.2522
8.1200 -5.3823 -0.2483
8.1400 -5.3956 -0.2494
8.1600 -5.4089 -0.2492
8.1800 -5.4223 -0.2469
8.2000 -5.4356 -0.2459
8.2200 -5.4490 -0.2481
8.2400 -5.4623 -0.2444
8.2600 -5.4756 -0.2448
8.2800 -5.4889 -0.2440
8.3000 -5.5022 -0.2437
8.3200 -5.5155 -0.2419
8.3400 -5.5288 -0.2429
8.3600 -5.5422 -0.2384
8.3800 -5.5555 -0.2382
8.4000 -5.5689 -0.2380
8.4200 -5.5822 -0.2367
8.4400 -5.5956 -0.2352
8.4600 -5.6089 -0.2351
8.4800 -5.6223 -0.2321
8.5000 -5.6356 -0.2332
8.5200 -5.6489 -0.2320
8.5400 -5.6623 -0.2296
8.5600 -5.6756 -0.2292
8.5800 -5.6890 -0.2295
8.6000 -5.7023 -0.2288
8.6200 -5.7156 -0.2269
8.6400 -5.7289 -0.2258
8.6600 -5.7423 -0.2210
8.6800 -5.7556 -0.2221
8.7000 -5.7689 -0.2251
8.7200 -5.7822 -0.2219
8.7400 -5.7955 -0.2214
8.7600 -5.8089 -0.2213
8.7800 -5.8222 -0.2188
8.8000 -5.8356 -0.2201
8.8200 -5.8489 -0.2188
8.8400 -5.8623 -0.2178
8.8600 -5.8757 -0.2168
8.8800 -5.8889 -0.2172
8.9000 -5.9022 -0.2145
8.9200 -5.9156 -0.2149
8.9400 -5.9290 -0.2151
8.9600 -5.9423 -0.2131
8.9800 -5.9556 -0.2120
9.0000 -5.9689 -0.2135
9.0200 -5.9823 -0.2116
9.0400 -5.9956 -0.2110
9.0600 -6.0089 -0.2111
9.0800 -6.0222 -0.2107
9.1000 -6.0356 -0.2089
9.1200 -6.0489 -0.2082
9.1400 -6.0622 -0.2070
9.1600 -6.0756 -0.2057
9.1800 -6.0889 -0.2061
9.2000 -6.1023 -0.2038
9.2200 -6.1156 -0.2034
9.2400 -6.1289 -0.2056
9.2600 -6.1422 -0.2037
9.2800 -6.1556 -0.2021
9.3000 -6.1689 -0.2018
9.3200 -6.1823 -0.2028
9.3400 -6.1956 -0.1992
9.3600 -6.2089 -0.1987
9.3800 -6.2223 -0.1980
9.4000 -6.2356 -0.1986
9.4200 -6.2489 -0.1990
9.4400 -6.2622 -0.1981
9.4600 -6.2755 -0.1961
9.4800 -6.2889 -0.1942
9.5000 -6.3022 -0.1921
9.5200 -6.3156 -0.1922
9.5400 -6.3289 -0.1913
9.5600 -6.3423 -0.1906
9.5800 -6.3557 -0.1880
9.6000 -6.3690 -0.1903
9.6200 -6.3823 -0.1904
9.6400 -6.3956 -0.1882
9.6600 -6.4090 -0.1885
9.6800 -6.4223 -0.1882
9.7000 -6.4356 -0.1873
9.7200 -6.4489 -0.1896
9.7400 -6.4623 -0.1873
9.7600 -6.4756 -0.1833
9.7800 -6.4889 -0.1837
9.8000 -6.5022 -0.1814
9.8200 -6.5155 -0.1811
9.8400 -6.5289 -0.1822
9.8600 -6.5422 -0.1816
9.8800 -6.5556 -0.1805
9.9000 -6.5689 -0.1802
9.9200 -6.5823 -0.1782
9.9400 -6.5956 -0.1749
9.9600 -6.6089 -0.1779
9.9800 -6.6223 -0.1757
10.0000 -6.6356 -0.1752
10.0200 -6.6490 -0.1733
10.0400 -6.6623 -0.1729
10.0600 -6.6756 -0.1702
10.0800 -6.6889 -0.1747
10.1000 -6.7023 -0.1738
10.1200 -6.7156 -0.1694
10.1400 -6.7289 -0.1708
10.1600 -6.7422 -0.1687
10.1800 -6.7555 -0.1678
10.2000 -6.7689 -0.1692
10.2200 -6.7823 -0.1661
10.2400 -6.7956 -0.1625
10.2600 -6.8089 -0.1650
10.2800 -6.8223 -0.1628
10.3000 -6.8356 -0.1614
10.3200 -6.8489 -0.1651
10.3400 -6.8622 -0.1607
10.3600 -6.8756 -0.1601
10.3800 -6.8890 -0.1615
10.4000 -6.9023 -0.1585
10.4200 -6.9156 -0.1559
10.4400 -6.9289 -0.1586
10.4600 -6.9423 -0.1557
10.4800 -6.9556 -0.1542
10.5000 -6.9689 -0.1568
10.5200 -6.9822 -0.1530
10.5400 -6.9955 -0.1510
10.5600 -7.0089 -0.1512
10.5800 -7.0222 -0.1493
10.6000 -7.0356 -0.1467
10.6200 -7.0489 -0.1481
10.6400 -7.0623 -0.1454
10.6600 -7.0757 -0.1477
10.6800 -7.0889 -0.1468
10.7000 -7.1022 -0.1453
10.7200 -7.1156 -0.1418
10.7400 -7.1289 -0.1461
10.7600 -7.1423 -0.1423
10.7800 -7.1556 -0.1411
10.8000 -7.1689 -0.1415
10.8200 -7.1822 -0.1395
10.8400 -7.1956 -0.1382
10.8600 -7.2089 -0.1384
10.8800 -7.2222 -0.1377
10.9000 -7.2356 -0.1364
10.9200 -7.2489 -0.1369
10.9400 -7.2623 -0.1360
10.9600 -7.2756 -0.1334
10.9800 -7.2889 -0.1354
11.0000 -7.3023 -0.1347
11.0200 -7.3156 -0.1330
11.0400 -7.3289 -0.1350
11.0600 -7.3423 -0.1352
11.0800 -7.3556 -0.1297
11.1000 -7.3690 -0.1324
11.1200 -7.3823 -0.1302
11.1400 -7.3956 -0.1300
11.1600 -7.4089 -0.1295
11.1800 -7.4222 -0.1307
11.2000 -7.4356 -0.1277
11.2200 -7.4489 -0.1279
11.2400 -7.4622 -0.1288
11.2600 -7.4756 -0.1252
11.2800 -7.4889 -0.1268
11.3000 -7.5023 -0.1249
11.3200 -7.5156 -0.1237
11.3400 -7.5289 -0.1230
11.3600 -7.5423 -0.1231
11.3800 -7.5557 -0.1187
11.4000 -7.5690 -0.1232
11.4200 -7.5823 -0.1207
11.4400 -7.5956 -0.1194
11.4600 -7.6090 -0.1186
11.4800 -7.6223 -0.1186
11.5000 -7.6356 -0.1152
11.5200 -7.6489 -0.1178
11.5400 -7.6623 -0.1160
11.5600 -7.6756 -0.1121
11.5800 -7.6889 -0.1145
11.6000 -7.7022 -0.1136
11.6200 -7.7155 -0.1107
11.6400 -7.7289 -0.1126
11.6600 -7.7422 -0.1103
11.6800 -7.7555 -0.1087
11.7000 -7.7689 -0.1088
11.7200 -7.7823 -0.1096
11.7400 -7.7957 -0.1061
11.7600 -7.8090 -0.1075
11.7800 -7.8223 -0.1060
11.8000 -7.8356 -0.1055
11.8200 -7.8490 -0.1056
11.8400 -7.8623 -0.1051
11.8600 -7.8756 -0.1028
11.8800 -7.8889 -0.1052
11.9000 -7.9022 -0.1017
11.9200 -7.9156 -0.0988
11.9400 -7.9289 -0.1007
11.9600 -7.9422 -0.0979
11.9800 -7.9555 -0.0988
12.0000 -7.9689 -0.1008
12.0200 -7.9823 -0.0986
12.0400 -7.9956 -0.0964
12.0600 -8.0089 -0.0972
12.0800 -8.0223 -0.0964
12.1000 -8.0356 -0.0952
12.1200 -8.0490 -0.0955
12.1400 -8.0622 -0.0949
12.1600 -8.0756 -0.0925
12.1800 -8.0889 -0.0940
12.2000 -8.1023 -0.0922
12.2200 -8.1156 -0.0926
12.2400 -8.1289 -0.0929
12.2600 -8.1423 -0.0931
12.2800 -8.1556 -0.0895
12.3000 -8.1689 -0.0899
12.3200 -8.1822 -0.0881
12.3400 -8.1955 -0.0847
12.3600 -8.2089 -0.0864
12.3800 -8.2223 -0.0865
12.4000 -8.2356 -0.0845
12.4200 -8.2489 -0.0841
12.4400 -8.2623 -0.0831
12.4600 -8.2756 -0.0828
12.4800 -8.2889 -0.0841
12.5000 -8.3023 -0.0833
12.5200 -8.3156 -0.0816
12.5400 -8.3290 -0.0812
12.5600 -8.3423 -0.0811
12.5800 -8.3556 -0.0777
12.6000 -8.3689 -0.0786
12.6200 -8.3823 -0.0794
12.6400 -8.3956 -0.0762
12.6600 -8.4089 -0.0769
12.6800 -8.4222 -0.0783
12.7000 -8.4355 -0.0734
12.7200 -8.4489 -0.0759
12.7400 -8.4622 -0.0749
12.7600 -8.4755 -0.0706
12.7800 -8.4889 -0.0707
12.8000 -8.5023 -0.0727
12.8200 -8.5156 -0.0696
12.8400 -8.5289 -0.0700
12.8600 -8.5422 -0.0693
12.8800 -8.5556 -0.0671
12.9000 -8.5690 -0.0667
12.9200 -8.5823 -0.0670
12.9400 -8.5956 -0.0630
12.9600 -8.6089 -0.0641
12.9800 -8.6223 -0.0645
13.0000 -8.6356 -0.0609
13.0200 -8.6489 -0.0631
13.0400 -8.6622 -0.0625
13.0600 -8.6755 -0.0607
13.0800 -8.6889 -0.0580
13.1000 -8.7023 -0.0599
13.1200 -8.7156 -0.0556
13.1400 -8.7289 -0.0565
13.1600 -8.7422 -0.0565
13.1800 -8.7556 -0.0532
13.2000 -8.7689 -0.0533
13.2200 -8.7823 -0.0535
13.2400 -8.7956 -0.0524
13.2600 -8.8090 -0.0526
13.2800 -8.8223 -0.0505
13.3000 -8.8356 -0.0490
13.3200 -8.8489 -0.0486
13.3400 -8.8623 -0.0509
13.3600 -8.8756 -0.0483
13.3800 -8.8889 -0.0497
13.4000 -8.9022 -0.0502
13.4200 -8.9155 -0.0483
13.4400 -8.9289 -0.0490
13.4600 -8.9422 -0.0496
13.4800 -8.9556 -0.0458
13.5000 -8.9689 -0.0461
13.5200 -8.9822 -0.0472
13.5400 -8.9956 -0.0446
13.5600 -9.0089 -0.0454
13.5800 -9.0222 -0.0457
13.6000 -9.0356 -0.0420
13.6200 -9.0490 -0.0422
13.6400 -9.0623 -0.0412
13.6600 -9.0756 -0.0401
13.6800 -9.0889 -0.0387
13.7000 -9.1023 -0.0378
13.7200 -9.1156 -0.0352
13.7400 -9.1289 -0.0339
13.7600 -9.1422 -0.0353
13.7800 -9.1555 -0.0324
13.8000 -9.1689 -0.0332
13.8200 -9.1822 -0.0325
13.8400 -9.1955 -0.0334
13.8600 -9.2089 -0.0333
13.8800 -9.2222 -0.0331
13.9000 -9.2356 -0.0293
13.9200 -9.2490 -0.0304
13.9400 -9.2623 -0.0300
13.9600 -9.2756 -0.0267
13.9800 -9.2890 -0.0286
14.0000 -9.3023 -0.0300
14.0200 -9.3156 -0.0270
14.0400 -9.3289 -0.0288
14.0600 -9.3422 -0.0270
14.0800 -9.3555 -0.0273
14.1000 -9.3689 -0.0245
14.1200 -9.3822 -0.0270
14.1400 -9.3955 -0.0244
14.1600 -9.4089 -0.0243
14.1800 -9.4222 -0.0249
14.2000 -9.4356 -0.0248
14.2200 -9.4489 -0.0230
14.2400 -9.4623 -0.0235
14.2600 -9.4756 -0.0211
14.2800 -9.4890 -0.0190
14.3000 -9.5022 -0.0200
14.3200 -9.5156 -0.0171
14.3400 -9.5289 -0.0171
14.3600 -9.5423 -0.0186
14.3800 -9.5556 -0.0163
14.4000 -9.5690 -0.0131
14.4200 -9.5823 -0.0146
14.4400 -9.5956 -0.0121
14.4600 -9.6089 -0.0113
14.4800 -9.6222 -0.0142
14.5000 -9.6355 -0.0127
14.5200 -9.6489 -0.0100
14.5400 -9.6622 -0.0126
14.5600 -9.6756 -0.0078
14.5800 -9.6889 -0.0085
14.6000 -9.7023 -0.0065
14.6200 -9.7156 -0.0043
14.6400 -9.7290 -0.0052
14.6600 -9.7423 -0.0051
14.6800 -9.7556 -0.0032
14.7000 -9.7689 -0.0028
14.7200 -9.7823 -0.0040
14.7400 -9.7956 -0.0029
14.7600 -9.8089 -0.0023
14.7800 -9.8222 -0.0025
14.8000 -9.8356 0.0004
14.8200 -9.8489 0.0028
14.8400 -9.8622 0.0012
14.8600 -9.8755 0.0022
14.8800 -9.8889 0.0033
14.9000 -9.9022 0.0027
14.9200 -9.9156 0.0064
14.9400 -9.9289 0.0070
14.9600 -9.9422 0.0055
14.9800 -9.9556 0.0064
15.0000 -9.9690 0.0093
15.0200 -9.9823 0.0079
15.0400 -9.9956 0.0108
15.0600 -10.0089 0.0104
15.0800 -10.0223 0.0098
15.1000 -10.0356 0.0130
15.1200 -10.0489 0.0132
15.1400 -10.0622 0.0124
15.1600 -10.0756 0.0150
15.1800 -10.0889 0.0161
15.2000 -10.1022 0.0142
15.2200 -10.1155 0.0160
15.2400 -10.1289 0.0178
15.2600 -10.1423 0.0165
15.2800 -10.1556 0.0172
15.3000 -10.1689 0.0200
15.3200 -10.1823 0.0185
15.3400 -10.1956 0.0209
15.3600 -10.2090 0.0203
15.3800 -10.2223 0.0202
15.4000 -10.2356 0.0216
15.4200 -10.2490 0.0229
15.4400 -10.2623 0.0209
15.4600 -10.2756 0.0240
15.4800 -10.2889 0.0239
15.5000 -10.3023 0.0231
15.5200 -10.3156 0.0240
15.5400 -10.3289 0.0257
15.5600 -10.3422 0.0240
15.5800 -10.3555 0.0266
15.6000 -10.3688 0.0302
15.6200 -10.3822 0.0279
15.6400 -10.3956 0.0306
15.6600 -10.4089 0.0295
15.6800 -10.4222 0.0298
15.7000 -10.4356 0.0309
15.7200 -10.4490 0.0317
15.7400 -10.4623 0.0327
15.7600 -10.4756 0.0319
15.7800 -10.4890 0.0335
15.8000 -10.5023 0.0331
15.8200 -10.5156 0.0360
15.8400 -10.5289 0.0370
15.8600 -10.5423 0.0356
15.8800 -10.5556 0.0372
15.9000 -10.5689 0.0388
15.9200 -10.5822 0.0372
15.9400 -10.5955 0.0394
15.9600 -10.6088 0.0396
15.9800 -10.6222 0.0393
16.0000 -10.6355 0.0407
16.0200 -10.6489 0.0411
16.0400 -10.6622 0.0422
16.0600 -10.6756 0.0413
16.0800 -10.6890 0.0442
16.1000 -10.7023 0.0434
16.1200 -10.7156 0.0461
16.1400 -10.7289 0.0448
16.1600 -10.7423 0.0448
16.1800 -10.7556 0.0460
16.2000 -10.7689 0.0481
16.2200 -10.7822 0.0480
16.2400 -10.7956 0.0491
16.2600 -10.8089 0.0506
16.2800 -10.8222 0.0506
16.3000 -10.8355 0.0503
16.3200 -10.8489 0.0521
16.3400 -10.8622 0.0525
16.3600 -10.8756 0.0534
16.3800 -10.8889 0.0548
16.4000 -10.9022 0.0539
16.4200 -10.9156 0.0561
16.4400 -10.9290 0.0579
16.4600 -10.9423 0.0582
16.4800 -10.9556 0.0589
16.5000 -10.9689 0.0601
16.5200 -10.9823 0.0575
16.5400 -10.9956 0.0607
16.5600 -11.0089 0.0603
16.5800 -11.0223 0.0605
16.6000 -11.0356 0.0597
16.6200 -11.0489 0.0633
16.6400 -11.0623 0.0619
16.6600 -11.0756 0.0644
16.6800 -11.0889 0.0665
16.7000 -11.1022 0.0656
16.7200 -11.1155 0.0647
16.7400 -11.1289 0.0646
16.7600 -11.1422 0.0647
16.7800 -11.1556 0.0671
16.8000 -11.1690 0.0682
16.8200 -11.1823 0.0683
16.8400 -11.1956 0.0668
16.8600 -11.2090 0.0698
16.8800 -11.2223 0.0684
16.9000 -11.2357 0.0692
16.9200 -11.2490 0.0719
16.9400 -11.2623 0.0724
16.9600 -11.2756 0.0732
16.9800 -11.2889 0.0748
17.0000 -11.3022 0.0733
17.0200 -11.3155 0.0744
17.0400 -11.3289 0.0783
17.0600 -11.3422 0.0773
17.0800 -11.3556 0.0768
17.1000 -11.3689 0.0758
17.1200 -11.3822 0.0781
17.1400 -11.3956 0.0796
17.1600 -11.4090 0.0799
17.1800 -11.4223 0.0780
17.2000 -11.4356 0.0781
17.2200 -11.4489 0.0810
17.2400 -11.4623 0.0809
17.2600 -11.4756 0.0829
17.2800 -11.4889 0.0835
17.3000 -11.5022 0.0820
17.3200 -11.5156 0.0827
17.3400 -11.5289 0.0843
17.3600 -11.5422 0.0856
17.3800 -11.5555 0.0846
17.4000 -11.5689 0.0898
17.4200 -11.5822 0.0884
17.4400 -11.5956 0.0896
17.4600 -11.6089 0.0911
17.4800 -11.6222 0.0925
17.5000 -11.6356 0.0937
17.5200 -11.6489 0.0962
17.5400 -11.6623 0.0930
17.5600 -11.6756 0.0958
17.5800 -11.6889 0.0956
17.6000 -11.7023 0.0945
17.6200 -11.7156 0.0948
17.6400 -11.7289 0.0949
17.6600 -11.7423 0.0964
17.6800 -11.7556 0.0959
17.7000 -11.7690 0.0993
17.7200 -11.7822 0.0977
17.7400 -11.7955 0.0991
17.7600 -11.8089 0.0988
17.7800 -11.8222 0.0992
17.8000 -11.8356 0.0992
17.8200 -11.8489 0.1014
17.8400 -11.8622 0.0994
17.8600 -11.8756 0.0999
17.8800 -11.8890 0.0994
17.9000 -11.9023 0.1015
17.9200 -11.9156 0.1029
17.9400 -11.9289 0.1052
17.9600 -11.9422 0.1047
17.9800 -11.9556 0.1056
18.0000 -11.9689 0.1065
18.0200 -11.9822 0.1063
18.0400 -11.9956 0.1060
18.0600 -12.0089 0.1079
18.0800 -12.0222 0.1083
18.1000 -12.0355 0.1098
18.1200 -12.0489 0.1104
18.1400 -12.0623 0.1102
18.1600 -12.0756 0.1096
18.1800 -12.0889 0.1113
18.2000 -12.1022 0.1143
18.2200 -12.1156 0.1139
18.2400 -12.1290 0.1167
18.2600 -12.1423 0.1142
18.2800 -12.1556 0.1160
18.3000 -12.1689 0.1159
18.3200 -12.1823 0.1184
18.3400 -12.1956 0.1180
18.3600 -12.2089 0.1209
18.3800 -12.2222 0.1209
18.4000 -12.2356 0.1232
18.4200 -12.2489 0.1219
18.4400 -12.2622 0.1246
18.4600 -12.2755 0.1215
18.4800 -12.2889 0.1262
18.5000 -12.3023 0.1261
18.5200 -12.3156 0.1274
18.5400 -12.3289 0.1282
18.5600 -12.3422 0.1273
18.5800 -12.3556 0.1287
18.6000 -12.3690 0.1296
18.6200 -12.3823 0.1314
18.6400 -12.3956 0.1267
18.6600 -12.4089 0.1300
18.6800 -12.4222 0.1307
18.7000 -12.4356 0.1321
18.7200 -12.4489 0.1323
18.7400 -12.4623 0.1329
18.7600 -12.4756 0.1334
18.7800 -12.4890 0.1328
18.8000 -12.5023 0.1378
18.8200 -12.5155 0.1353
18.8400 -12.5289 0.1387
18.8600 -12.5422 0.1350
18.8800 -12.5555 0.1371
18.9000 -12.5689 0.1369
18.9200 -12.5822 0.1375
18.9400 -12.5956 0.1370
18.9600 -12.6090 0.1406
18.9800 -12.6223 0.1410
19.0000 -12.6356 0.1390
19.0200 -12.6489 0.1408
19.0400 -12.6623 0.1389
19.0600 -12.6757 0.1404
19.0800 -12.6890 0.1409
19.1000 -12.7022 0.1432
19.1200 -12.7155 0.1412
19.1400 -12.7289 0.1461
19.1600 -12.7422 0.1440
19.1800 -12.7555 0.1460
19.2000 -12.7689 0.1467
19.2200 -12.7822 0.1482
19.2400 -12.7956 0.1482
19.2600 -12.8089 0.1491
19.2800 -12.8222 0.1491
19.3000 -12.8356 0.1489
19.3200 -12.8490 0.1514
19.3400 -12.8623 0.1519
19.3600 -12.8756 0.1527
19.3800 -12.8889 0.1535
19.4000 -12.9023 0.1540
19.4200 -12.9156 0.1530
19.4400 -12.9290 0.1546
19.4600 -12.9423 0.1569
19.4800 -12.9556 0.1554
19.5000 -12.9689 0.1569
19.5200 -12.9822 0.1566
19.5400 -12.9955 0.1568
19.5600 -13.0089 0.1580
19.5800 -13.0222 0.1609
19.6000 -13.0356 0.1608
19.6200 -13.0489 0.1624
19.6400 -13.0622 0.1633
19.6600 -13.0756 0.1632
19.6800 -13.0889 0.1642
19.7000 -13.1023 0.1667
19.7200 -13.1156 0.1712
19.7400 -13.1289 0.1781
19.7600 -13.1423 0.1804
19.7800 -13.1557 0.1825
19.8000 -13.1690 0.1818
19.8200 -13.1823 0.1832
19.8400 -13.1956 0.1806
19.8600 -13.2089 0.1805
19.8800 -13.2222 0.1825
19.9000 -13.2355 0.1816
19.9200 -13.2488 0.1834
19.9400 -13.2622 0.1843
19.9600 -13.2756 0.1841
19.9800 -13.2889 0.1845
20.0000 -13.3022 0.1849
20.0200 -13.3156 0.1845
20.0400 -13.3290 0.1878
20.0600 -13.3423 0.1876
20.0800 -13.3556 0.1876
20.1000 -13.3689 0.1900
20.1200 -13.3823 0.1914
20.1400 -13.3956 0.1905
20.1600 -13.4090 0.1926
20.1800 -13.4223 0.1939
20.2000 -13.4356 0.1946
20.2200 -13.4489 0.1965
20.2400 -13.4623 0.1962
20.2600 -13.4755 0.1971
20.2800 -13.4888 0.1970
20.3000 -13.5022 0.1981
20.3200 -13.5156 0.1996
20.3400 -13.5289 0.2021
20.3600 -13.5422 0.2054
20.3800 -13.5556 0.2031
20.4000 -13.5689 0.2057
20.4200 -13.5823 0.2066
20.4400 -13.5956 0.2052
20.4600 -13.6089 0.2050
20.4800 -13.6223 0.2069
20.5000 -13.6356 0.2073
20.5200 -13.6490 0.2079
20.5400 -13.6623 0.2082
20.5600 -13.6756 0.2084
20.5800 -13.6889 0.2101
20.6000 -13.7023 0.2131
20.6200 -13.7155 0.2120
20.6400 -13.7288 0.2137
20.6600 -13.7422 0.2135
20.6800 -13.7556 0.2138
20.7000 -13.7689 0.2137
20.7200 -13.7822 0.2176
20.7400 -13.7956 0.2156
20.7600 -13.8089 0.2169
20.7800 -13.8223 0.2169
20.8000 -13.8356 0.2187
20.8200 -13.8489 0.2176
20.8400 -13.8623 0.2195
20.8600 -13.8756 0.2181
20.8800 -13.8890 0.2178
20.9000 -13.9023 0.2176
20.9200 -13.9156 0.2195
20.9400 -13.9290 0.2208
20.9600 -13.9423 0.2241
20.9800 -13.9556 0.2231
21.0000 -13.9689 0.2251
21.0200 -13.9822 0.2251
21.0400 -13.9956 0.2247
21.0600 -14.0089 0.2259
21.0800 -14.0222 0.2258
21.1000 -14.0355 0.2263
21.1200 -14.0489 0.2260
21.1400 -14.0623 0.2269
21.1600 -14.0757 0.2283
21.1800 -14.0890 0.2295
21.2000 -14.1023 0.2330
21.2200 -14.1157 0.2319
21.2400 -14.1290 0.2316
21.2600 -14.1423 0.2315
21.2800 -14.1556 0.2323
21.3000 -14.1689 0.2342
21.3200 -14.1822 0.2385
21.3400 -14.1955 0.2387
21.3600 -14.2088 0.2416
21.3800 -14.2222 0.2433
21.4000 -14.2356 0.2421
21.4200 -14.2489 0.2451
21.4400 -14.2622 0.2462
21.4600 -14.2756 0.2457
21.4800 -14.2889 0.2466
21.5000 -14.3023 0.2513
21.5200 -14.3156 0.2506
21.5400 -14.3289 0.2530
21.5600 -14.3422 0.2526
21.5800 -14.3556 0.2533
21.6000 -14.3690 0.2547
21.6200 -14.3823 0.2565
21.6400 -14.3956 0.2555
21.6600 -14.4089 0.2560
21.6800 -14.4223 0.2581
21.7000 -14.4356 0.2574
21.7200 -14.4489 0.2554
21.7400 -14.4622 0.2583
21.7600 -14.4756 0.2551
21.7800 -14.4889 0.2565
21.8000 -14.5022 0.2579
21.8200 -14.5155 0.2561
21.8400 -14.5289 0.2578
21.8600 -14.5423 0.2591
21.8800 -14.5556 0.2610
21.9000 -14.5689 0.2606
21.9200 -14.5822 0.2622
21.9400 -14.5956 0.2636
21.9600 -14.6089 0.2631
21.9800 -14.6222 0.2656
22.0000 -14.6356 0.2642
22.0200 -14.6489 0.2660
22.0400 -14.6623 0.2682
22.0600 -14.6756 0.2705
22.0800 -14.6888 0.2697
22.1000 -14.7022 0.2715
22.1200 -14.7156 0.2700
22.1400 -14.7289 0.2725
22.1600 -14.7423 0.2716
22.1800 -14.7556 0.2728
22.2000 -14.7689 0.2736
22.2200 -14.7823 0.2740
22.2400 -14.7956 0.2766
22.2600 -14.8089 0.2778
22.2800 -14.8223 0.2782
22.3000 -14.8356 0.2776
22.3200 -14.8490 0.2792
22.3400 -14.8622 0.2796
22.3600 -14.8756 0.2812
22.3800 -14.8889 0.2813
22.4000 -14.9022 0.2816
22.4200 -14.9155 0.2835
22.4400 -14.9288 0.2838
22.4600 -14.9422 0.2848
22.4800 -14.9556 0.2884
22.5000 -14.9689 0.2884
22.5200 -14.9823 0.2899
22.5400 -14.9956 0.2891
22.5600 -15.0090 0.2914
22.5800 -15.0223 0.2921
22.6000 -15.0356 0.2941
22.6200 -15.0489 0.2913
22.6400 -15.0623 0.2949
22.6600 -15.0756 0.2953
22.6800 -15.0890 0.2979
22.7000 -15.1023 0.2966
22.7200 -15.1156 0.2996
22.7400 -15.1289 0.2995
22.7600 -15.1422 0.3021
22.7800 -15.1555 0.3039
22.8000 -15.1688 0.3025
22.8200 -15.1822 0.3022
22.8400 -15.1955 0.3029
22.8600 -15.2089 0.3028
22.8800 -15.2222 0.3030
22.9000 -15.2355 0.3046
22.9200 -15.2489 0.3046
22.9400 -15.2623 0.3066
22.9600 -15.2757 0.3072
22.9800 -15.2890 0.3050
23.0000 -15.3023 0.3042
23.0200 -15.3156 0.3067
23.0400 -15.3290 0.3071
23.0600 -15.3423 0.3097
23.0800 -15.3556 0.3104
23.1000 -15.3689 0.3079
23.1200 -15.3822 0.3111
23.1400 -15.3955 0.3115
23.1600 -15.4088 0.3139
23.1800 -15.4222 0.3139
23.2000 -15.4355 0.3142
23.2200 -15.4489 0.3144
23.2400 -15.4622 0.3155
23.2600 -15.4755 0.3165
23.2800 -15.4889 0.3155
23.3000 -15.5023 0.3171
23.3200 -15.5157 0.3173
23.3400 -15.5290 0.3160
23.3600 -15.5423 0.3184
23.3800 -15.5556 0.3197
23.4000 -15.5690 0.3203
23.4200 -15.5823 0.3206
23.4400 -15.5956 0.3221
23.4600 -15.6089 0.3221
23.4800 -15.6222 0.3242
23.5000 -15.6356 0.3253
23.5200 -15.6488 0.3266
23.5400 -15.6622 0.3261
23.5600 -15.6755 0.3286
23.5800 -15.6889 0.3271
23.6000 -15.7022 0.3309
23.6200 -15.7156 0.3319
23.6400 -15.7289 0.3343
23.6600 -15.7423 0.3350
23.6800 -15.7556 0.3359
23.7000 -15.7689 0.3341
23.7200 -15.7822 0.3345
23.7400 -15.7956 0.3361
23.7600 -15.8090 0.3376
23.7800 -15.8223 0.3386
23.8000 -15.8356 0.3395
23.8200 -15.8489 0.3375
23.8400 -15.8623 0.3410
23.8600 -15.8756 0.3407
23.8800 -15.8889 0.3410
23.9000 -15.9022 0.3428
23.9200 -15.9155 0.3453
23.9400 -15.9289 0.3447
23.9600 -15.9422 0.3480
23.9800 -15.9555 0.3500
24.0000 -15.9689 0.3515
24.0200 -15.9823 0.3504
24.0400 -15.9956 0.3496
24.0600 -16.0089 0.3510
24.0800 -16.0222 0.3511
24.1000 -16.0356 0.3544
24.1200 -16.0490 0.3537
24.1400 -16.0624 0.3575
24.1600 -16.0756 0.3564
24.1800 -16.0889 0.3601
24.2000 -16.1023 0.3597
24.2200 -16.1156 0.3632
24.2400 -16.1289 0.3617
24.2600 -16.1422 0.3632
24.2800 -16.1555 0.3624
24.3000 -16.1689 0.3673
24.3200 -16.1822 0.3662
24.3400 -16.1956 0.3677
24.3600 -16.2089 0.3687
24.3800 -16.2223 0.3713
24.4000 -16.2356 0.3711
24.4200 -16.2489 0.3717
24.4400 -16.2622 0.3726
24.4600 -16.2756 0.3739
24.4800 -16.2890 0.3753
24.5000 -16.3023 0.3744
24.5200 -16.3156 0.3766
24.5400 -16.3289 0.3770
24.5600 -16.3423 0.3768
24.5800 -16.3556 0.3798
24.6000 -16.3689 0.3821
24.6200 -16.3822 0.3812
24.6400 -16.3955 0.3829
24.6600 -16.4089 0.3829
24.6800 -16.4222 0.3853
24.7000 -16.4355 0.3843
24.7200 -16.4489 0.3871
24.7400 -16.4623 0.3866
24.7600 -16.4756 0.3890
24.7800 -16.4889 0.3869
24.8000 -16.5022 0.3861
24.8200 -16.5156 0.3870
24.8400 -16.5290 0.3876
24.8600 -16.5423 0.3888
24.8800 -16.5556 0.3900
24.9000 -16.5689 0.3926
24.9200 -16.5823 0.3911
24.9400 -16.5956 0.3923
24.9600 -16.6089 0.3923
24.9800 -16.6222 0.3952
25.0000 -16.6356 0.3972
25.0200 -16.6489 0.3970
25.0400 -16.6623 0.3980
25.0600 -16.6756 0.3983
25.0800 -16.6889 0.4026
25.1000 -16.7023 0.4036
25.1200 -16.7157 0.4076
25.1400 -16.7290 0.4052
25.1600 -16.7423 0.4076
25.1800 -16.7556 0.4070
25.2000 -16.7689 0.4082
25.2200 -16.7823 0.4094
25.2400 -16.7956 0.4111
25.2600 -16.8089 0.4111
25.2800 -16.8222 0.4117
25.3000 -16.8356 0.4145
25.3200 -16.8489 0.4153
25.3400 -16.8622 0.4168
25.3600 -16.8756 0.4167
25.3800 -16.8889 0.4202
25.4000 -16.9023 0.4163
25.4200 -16.9156 0.4206
25.4400 -16.9289 0.4187
25.4600 -16.9423 0.4213
25.4800 -16.9556 0.4235
25.5000 -16.9689 0.4240
25.5200 -16.9822 0.4249
25.5400 -16.9956 0.4271
25.5600 -17.0089 0.4271
25.5800 -17.0222 0.4271
25.6000 -17.0355 0.4306
25.6200 -17.0489 0.4309
25.6400 -17.0622 0.4315
25.6600 -17.0755 0.4325
25.6800 -17.0889 0.4346
25.7000 -17.1022 0.4332
25.7200 -17.1156 0.4360
25.7400 -17.1289 0.4355
25.7600 -17.1423 0.4378
25.7800 -17.1556 0.4392
25.8000 -17.1689 0.4388
25.8200 -17.1823 0.4377
25.8400 -17.1956 0.4404
25.8600 -17.2089 0.4433
25.8800 -17.2222 0.4413
25.9000 -17.2356 0.4442
25.9200 -17.2489 0.4455
25.9400 -17.2623 0.4453
25.9600 -17.2756 0.4482
25.9800 -17.2889 0.4478
26.0000 -17.3023 0.4521
26.0200 -17.3156 0.4536
26.0400 -17.3289 0.4540
26.0600 -17.3422 0.4535
26.0800 -17.3555 0.4561
26.1000 -17.3689 0.4555
26.1200 -17.3822 0.4578
26.1400 -17.3955 0.4566
26.1600 -17.4089 0.4588
26.1800 -17.4223 0.4569
26.2000 -17.4356 0.4614
26.2200 -17.4490 0.4615
26.2400 -17.4623 0.4617
26.2600 -17.4756 0.4612
26.2800 -17.4890 0.4628
26.3000 -17.5023 0.4617
26.3200 -17.5156 0.4634
26.3400 -17.5289 0.4625
26.3600 -17.5422 0.4657
26.3800 -17.5556 0.4675
26.4000 -17.5689 0.4698
26.4200 -17.5822 0.4667
26.4400 -17.5955 0.4702
26.4600 -17.6089 0.4722
26.4800 -17.6223 0.4704
26.5000 -17.6356 0.4728
26.5200 -17.6489 0.4729
26.5400 -17.6623 0.4741
26.5600 -17.6757 0.4768
26.5800 -17.6890 0.4779
26.6000 -17.7023 0.4765
26.6200 -17.7156 0.4769
26.6400 -17.7290 0.4790
26.6600 -17.7423 0.4801
26.6800 -17.7556 0.4836
26.7000 -17.7689 0.4859
26.7200 -17.7823 0.4814
26.7400 -17.7956 0.4852
26.7600 -17.8089 0.4844
26.7800 -17.8222 0.4868
26.8000 -17.8355 0.4882
26.8200 -17.8489 0.4888
26.8400 -17.8622 0.4889
26.8600 -17.8756 0.4913
26.8800 -17.8889 0.4930
26.9000 -17.9022 0.4945
26.9200 -17.9156 0.4939
26.9400 -17.9289 0.4964
26.9600 -17.9422 0.4964
26.9800 -17.9556 0.5004
27.0000 -17.9689 0.5002
27.0200 -17.9823 0.5001
27.0400 -17.9956 0.5019
27.0600 -18.0089 0.5035
27.0800 -18.0223 0.5040
27.1000 -18.0356 0.5071
27.1200 -18.0489 0.5089
27.1400 -18.0622 0.5073
27.1600 -18.0755 0.5100
27.1800 -18.0889 0.5119
27.2000 -18.1022 0.5112
27.2200 -18.1155 0.5123
27.2400 -18.1289 0.5160
27.2600 -18.1422 0.5144
27.2800 -18.1556 0.5139
27.3000 -18.1690 0.5155
27.3200 -18.1823 0.5172
27.3400 -18.1956 0.5178
27.3600 -18.2090 0.5203
27.3800 -18.2223 0.5192
27.4000 -18.2356 0.5197
27.4200 -18.2489 0.5217
27.4400 -18.2623 0.5209
27.4600 -18.2756 0.5226
27.4800 -18.2889 0.5229
27.5000 -18.3022 0.5221
27.5200 -18.3155 0.5238
27.5400 -18.3289 0.5273
27.5600 -18.3422 0.5276
27.5800 -18.3555 0.5297
27.6000 -18.3689 0.5319
27.6200 -18.3822 0.5306
27.6400 -18.3956 0.5337
27.6600 -18.4090 0.5364
27.6800 -18.4223 0.5363
27.7000 -18.4356 0.5363
27.7200 -18.4489 0.5379
27.7400 -18.4623 0.5397
27.7600 -18.4756 0.5390
27.7800 -18.4890 0.5446
27.8000 -18.5023 0.5432
27.8200 -18.5156 0.5452
27.8400 -18.5289 0.5454
27.8600 -18.5422 0.5438
27.8800 -18.5555 0.5459
27.9000 -18.5689 0.5499
27.9200 -18.5822 0.5487
27.9400 -18.5956 0.5521
27.9600 -18.6089 0.5536
27.9800 -18.6222 0.5542
28.0000 -18.6356 0.5560
28.0200 -18.6489 0.5581
28.0400 -18.6622 0.5589
28.0600 -18.6756 0.5592
28.0800 -18.6889 0.5627
28.1000 -18.7023 0.5623
28.1200 -18.7156 0.5654
28.1400 -18.7289 0.5658
28.1600 -18.7423 0.5648
28.1800 -18.7556 0.5653
28.2000 -18.7689 0.5694
28.2200 -18.7822 0.5691
28.2400 -18.7955 0.5715
28.2600 -18.8089 0.5738
28.2800 -18.8222 0.5740
28.3000 -18.8356 0.5748
28.3200 -18.8489 0.5792
28.3400 -18.8622 0.5763
28.3600 -18.8756 0.5788
28.3800 -18.8890 0.5803
28.4000 -18.9023 0.5799
28.4200 -18.9156 0.5810
28.4400 -18.9290 0.5844
28.4600 -18.9423 0.5843
28.4800 -18.9556 0.5870
28.5000 -18.9689 0.5900
28.5200 -18.9822 0.5880
28.5400 -18.9955 0.5871
28.5600 -19.0089 0.5922
28.5800 -19.0222 0.5924
28.6000 -19.0355 0.5944
28.6200 -19.0489 0.5943
28.6400 -19.0622 0.5933
28.6600 -19.0756 0.5963
28.6800 -19.0889 0.5979
28.7000 -19.1023 0.5970
28.7200 -19.1156 0.5996
28.7400 -19.1290 0.6023
28.7600 -19.1423 0.6010
28.7800 -19.1556 0.6010
28.8000 -19.1689 0.6037
28.8200 -19.1823 0.6020
28.8400 -19.1956 0.6040
28.8600 -19.2089 0.6079
28.8800 -19.2223 0.6073
28.9000 -19.2356 0.6097
28.9200 -19.2490 0.6111
28.9400 -19.2622 0.6122
28.9600 -19.2755 0.6119
28.9800 -19.2889 0.6149
29.0000 -19.3022 0.6141
29.0200 -19.3156 0.6170
29.0400 -19.3289 0.6163
29.0600 -19.3422 0.6193
29.0800 -19.3556 0.6172
29.1000 -19.3690 0.6210
29.1200 -19.3823 0.6195
29.1400 -19.3956 0.6230
29.1600 -19.4089 0.6236
29.1800 -19.4223 0.6243
29.2000 -19.4356 0.6229
29.2200 -19.4489 0.6265
29.2400 -19.4622 0.6241
29.2600 -19.4756 0.6253
29.2800 -19.4889 0.6279
29.3000 -19.5022 0.6264
29.3200 -19.5155 0.6286
29.3400 -19.5289 0.6314
29.3600 -19.5422 0.6312
29.3800 -19.5556 0.6322
29.4000 -19.5689 0.6351
29.4200 -19.5822 0.6339
29.4400 -19.5956 0.6342
29.4600 -19.6090 0.6374
29.4800 -19.6223 0.6376
29.5000 -19.6356 0.6366
29.5200 -19.6489 0.6387
29.5400 -19.6623 0.6405
29.5600 -19.6756 0.6414
29.5800 -19.6889 0.6447
29.6000 -19.7022 0.6453
29.6200 -19.7156 0.6459
29.6400 -19.7289 0.6497
29.6600 -19.7422 0.6495
29.6800 -19.7555 0.6512
29.7000 -19.7689 0.6555
29.7200 -19.7823 0.6578
29.7400 -19.7956 0.6570
29.7600 -19.8089 0.6606
29.7800 -19.8222 0.6606
29.8000 -19.8356 0.6630
29.8200 -19.8490 0.6638
29.8400 -19.8623 0.6531
29.8600 -19.8756 0.5995
29.8800 -19.8889 0.5265
29.9000 -19.9023 0.4377
29.9200 -19.9156 0.3454
29.9400 -19.9289 0.2559
29.9600 -19.9422 0.1663
29.9800 -19.9556 0.0799
30.0000 -19.9689 0.0010
30.0200 -19.9822 -0.0777
30.0400 -19.9955 -0.1515
30.0600 -20.0088 -0.2213
30.0800 -20.0222 -0.2875
30.1000 -20.0356 -0.3390
30.1200 -20.0489 -0.3639
30.1400 -20.0622 -0.4069
30.1600 -20.0756 -0.4631
30.1800 -20.0890 -0.5172
30.2000 -20.1023 -0.5795
30.2200 -20.1156 -0.6409
30.2400 -20.1289 -0.6996
30.2600 -20.1423 -0.7618
30.2800 -20.1556 -0.8257
30.3000 -20.1690 -0.8878
30.3200 -20.1823 -0.9553
30.3400 -20.1956 -1.0188
30.3600 -20.2089 -1.0785
30.3800 -20.2222 -1.1376
30.4000 -20.2355 -1.1947
30.4200 -20.2488 -1.2557
30.4400 -20.2622 -1.3233
30.4600 -20.2755 -1.3625
30.4800 -20.2889 -1.3665
30.5000 -20.3022 -1.3661
30.5200 -20.3156 -1.3619
30.5400 -20.3290 -1.3573
30.5600 -20.3423 -1.3570
30.5800 -20.3556 -1.3570
30.6000 -20.3689 -1.3534
30.6200 -20.3823 -1.3509
30.6400 -20.3956 -1.3482
30.6600 -20.4089 -1.3457
30.6800 -20.4222 -1.3449
30.7000 -20.4356 -1.3437
30.7200 -20.4489 -1.3391
30.7400 -20.4622 -1.3378
30.7600 -20.4755 -1.3377
30.7800 -20.4889 -1.3323
30.8000 -20.5022 -1.3296
30.8200 -20.5156 -1.3298
30.8400 -20.5289 -1.3231
30.8600 -20.5422 -1.3219
30.8800 -20.5556 -1.3184
30.9000 -20.5690 -1.3155
30.9200 -20.5823 -1.3125
30.9400 -20.5955 -1.3116
30.9600 -20.6089 -1.3035
30.9800 -20.6222 -1.3028
31.0000 -20.6356 -1.2993
31.0200 -20.6489 -1.2958
31.0400 -20.6622 -1.2937
31.0600 -20.6756 -1.2936
31.0800 -20.6889 -1.2888
31.1000 -20.7022 -1.2880
31.1200 -20.7155 -1.2854
31.1400 -20.7289 -1.2835
31.1600 -20.7422 -1.2818
31.1800 -20.7555 -1.2796
31.2000 -20.7689 -1.2770
31.2200 -20.7822 -1.2735
31.2400 -20.7956 -1.2726
31.2600 -20.8090 -1.2679
31.2800 -20.8223 -1.2662
31.3000 -20.8356 -1.2651
31.3200 -20.8490 -1.2604
31.3400 -20.8623 -1.2555
31.3600 -20.8757 -1.2556
31.3800 -20.8890 -1.2515
31.4000 -20.9023 -1.2494
31.4200 -20.9156 -1.2459
31.4400 -20.9289 -1.2426
31.4600 -20.9422 -1.2395
31.4800 -20.9555 -1.2399
31.5000 -20.9689 -1.2352
31.5200 -20.9822 -1.2342
31.5400 -20.9956 -1.2317
31.5600 -21.0089 -1.2295
31.5800 -21.0222 -1.2273
31.6000 -21.0356 -1.2274
31.6200 -21.0490 -1.2217
31.6400 -21.0623 -1.2207
31.6600 -21.0756 -1.2201
31.6800 -21.0889 -1.2197
31.7000 -21.1023 -1.2155
31.7200 -21.1156 -1.2161
31.7400 -21.1289 -1.2125
31.7600 -21.1423 -1.2109
31.7800 -21.1556 -1.2087
31.8000 -21.1690 -1.2039
31.8200 -21.1823 -1.2013
31.8400 -21.1955 -1.2006
31.8600 -21.2089 -1.1968
31.8800 -21.2222 -1.1949
31.9000 -21.2356 -1.1928
31.9200 -21.2489 -1.1889
31.9400 -21.2622 -1.1860
31.9600 -21.2756 -1.1822
31.9800 -21.2889 -1.1780
32.0000 -21.3023 -1.1764
32.0200 -21.3156 -1.1731
32.0400 -21.3289 -1.1704
32.0600 -21.3423 -1.1657
32.0800 -21.3556 -1.1652
32.1000 -21.3689 -1.1591
32.1200 -21.3823 -1.1562
32.1400 -21.3956 -1.1554
32.1600 -21.4090 -1.1518
32.1800 -21.4223 -1.1485
32.2000 -21.4355 -1.1488
32.2200 -21.4489 -1.1411
32.2400 -21.4622 -1.1365
32.2600 -21.4756 -1.1358
32.2800 -21.4889 -1.1323
32.3000 -21.5022 -1.1300
32.3200 -21.5156 -1.1278
32.3400 -21.5290 -1.1243
32.3600 -21.5423 -1.1196
32.3800 -21.5556 -1.1210
32.4000 -21.5689 -1.1168
32.4200 -21.5823 -1.1141
32.4400 -21.5956 -1.1111
32.4600 -21.6089 -1.1089
32.4800 -21.6222 -1.1043
32.5000 -21.6356 -1.1042
32.5200 -21.6489 -1.1018
32.5400 -21.6622 -1.1009
32.5600 -21.6755 -1.1017
32.5800 -21.6889 -1.0987
32.6000 -21.7022 -1.0954
32.6200 -21.7156 -1.0960
32.6400 -21.7289 -1.0954
32.6600 -21.7422 -1.0921
32.6800 -21.7556 -1.0952
32.7000 -21.7690 -1.0909
32.7200 -21.7823 -1.0893
32.7400 -21.7956 -1.0910
32.7600 -21.8089 -1.0899
32.7800 -21.8223 -1.0886
32.8000 -21.8356 -1.0887
32.8200 -21.8489 -1.0879
32.8400 -21.8622 -1.0841
32.8600 -21.8755 -1.0869
32.8800 -21.8889 -1.0830
32.9000 -21.9022 -1.0808
32.9200 -21.9155 -1.0796
32.9400 -21.9289 -1.0766
32.9600 -21.9422 -1.0727
32.9800 -21.9556 -1.0736
33.0000 -21.9689 -1.0722
33.0200 -21.9822 -1.0711
33.0400 -21.9956 -1.0696
33.0600 -22.0090 -1.0671
33.0800 -22.0223 -1.0626
33.1000 -22.0356 -1.0623
33.1200 -22.0489 -1.0587
33.1400 -22.0623 -1.0563
33.1600 -22.0756 -1.0550
33.1800 -22.0889 -1.0520
33.2000 -22.1023 -1.0480
33.2200 -22.1156 -1.0501
33.2400 -22.1290 -1.0497
33.2600 -22.1423 -1.0465
33.2800 -22.1556 -1.0452
33.3000 -22.1688 -1.0434
33.3200 -22.1822 -1.0387
33.3400 -22.1955 -1.0407
33.3600 -22.2088 -1.0377
33.3800 -22.2222 -1.0329
33.4000 -22.2356 -1.0343
33.4200 -22.2490 -1.0317
33.4400 -22.2623 -1.0289
33.4600 -22.2756 -1.0306
33.4800 -22.2889 -1.0274
33.5000 -22.3023 -1.0241
33.5200 -22.3157 -1.0227
33.5400 -22.3290 -1.0212
33.5600 -22.3423 -1.0194
33.5800 -22.3556 -1.0179
33.6000 -22.3689 -1.0162
33.6200 -22.3822 -1.0108
33.6400 -22.3955 -1.0123
33.6600 -22.4089 -1.0088
33.6800 -22.4222 -1.0051
33.7000 -22.4356 -1.0048
33.7200 -22.4489 -1.0012
33.7400 -22.4622 -0.9984
33.7600 -22.4756 -0.9974
33.7800 -22.4890 -0.9949
33.8000 -22.5023 -0.9906
33.8200 -22.5156 -0.9910
33.8400 -22.5289 -0.9902
33.8600 -22.5423 -0.9879
33.8800 -22.5556 -0.9883
33.9000 -22.5690 -0.9869
33.9200 -22.5823 -0.9796
33.9400 -22.5956 -0.9791
33.9600 -22.6089 -0.9776
33.9800 -22.6222 -0.9746
34.0000 -22.6355 -0.9731
34.0200 -22.6489 -0.9685
34.0400 -22.6622 -0.9657
34.0600 -22.6756 -0.9656
34.0800 -22.6889 -0.9640
34.1000 -22.7022 -0.9610
34.1200 -22.7156 -0.9600
34.1400 -22.7289 -0.9569
34.1600 -22.7423 -0.9551
34.1800 -22.7556 -0.9535
34.2000 -22.7689 -0.9548
34.2200 -22.7823 -0.9479
34.2400 -22.7957 -0.9478
34.2600 -22.8090 -0.9455
34.2800 -22.8223 -0.9412
34.3000 -22.8356 -0.9427
34.3200 -22.8489 -0.9416
34.3400 -22.8623 -0.9367
34.3600 -22.8755 -0.9365
34.3800 -22.8888 -0.9340
34.4000 -22.9022 -0.9312
34.4200 -22.9156 -0.9317
34.4400 -22.9289 -0.9313
34.4600 -22.9422 -0.9255
34.4800 -22.9556 -0.9258
34.5000 -22.9690 -0.9228
34.5200 -22.9823 -0.9245
34.5400 -22.9956 -0.9245
34.5600 -23.0089 -0.9207
34.5800 -23.0223 -0.9184
34.6000 -23.0357 -0.9195
34.6200 -23.0490 -0.9196
34.6400 -23.0623 -0.9157
34.6600 -23.0756 -0.9131
34.6800 -23.0889 -0.9119
34.7000 -23.1022 -0.9064
34.7200 -23.1155 -0.9067
34.7400 -23.1288 -0.9062
34.7600 -23.1422 -0.9027
34.7800 -23.1556 -0.9046
34.8000 -23.1689 -0.9038
34.8200 -23.1822 -0.9007
34.8400 -23.1955 -0.8995
34.8600 -23.2089 -0.8975
34.8800 -23.2223 -0.8939
34.9000 -23.2356 -0.8947
34.9200 -23.2489 -0.8922
34.9400 -23.2622 -0.8881
34.9600 -23.2756 -0.8865
34.9800 -23.2890 -0.8859
35.0000 -23.3023 -0.8843
35.0200 -23.3156 -0.8856
35.0400 -23.3289 -0.8841
35.0600 -23.3423 -0.8792
35.0800 -23.3555 -0.8800
35.1000 -23.3689 -0.8796
35.1200 -23.3822 -0.8779
35.1400 -23.3956 -0.8756
35.1600 -23.4089 -0.8758
35.1800 -23.4222 -0.8732
35.2000 -23.4356 -0.8704
35.2200 -23.4489 -0.8700
35.2400 -23.4623 -0.8663
35.2600 -23.4756 -0.8659
35.2800 -23.4889 -0.8657
35.3000 -23.5022 -0.8604
35.3200 -23.5156 -0.8599
35.3400 -23.5290 -0.8571
35.3600 -23.5423 -0.8543
35.3800 -23.5556 -0.8544
35.4000 -23.5690 -0.8528
35.4200 -23.5823 -0.8500
35.4400 -23.5956 -0.8490
35.4600 -23.6089 -0.8477
35.4800 -23.6222 -0.8429
35.5000 -23.6356 -0.8407
35.5200 -23.6489 -0.8418
35.5400 -23.6622 -0.8382
35.5600 -23.6756 -0.8390
35.5800 -23.6889 -0.8390
35.6000 -23.7023 -0.8325
35.6200 -23.7156 -0.8318
35.6400 -23.7290 -0.8308
35.6600 -23.7423 -0.8288
35.6800 -23.7557 -0.8285
35.7000 -23.7690 -0.8259
35.7200 -23.7823 -0.8225
35.7400 -23.7956 -0.8218
35.7600 -23.8089 -0.8202
35.7800 -23.8222 -0.8161
35.8000 -23.8355 -0.8163
35.8200 -23.8488 -0.8152
35.8400 -23.8622 -0.8108
35.8600 -23.8756 -0.8105
35.8800 -23.8889 -0.8089
35.9000 -23.9022 -0.8076
35.9200 -23.9156 -0.8056
35.9400 -23.9289 -0.8051
35.9600 -23.9423 -0.7998
35.9800 -23.9556 -0.8000
36.0000 -23.9689 -0.8003
36.0200 -23.9822 -0.7982
36.0400 -23.9956 -0.7937
36.0600 -24.0090 -0.7949
36.0800 -24.0223 -0.7872
36.1000 -24.0356 -0.7887
36.1200 -24.0489 -0.7868
36.1400 -24.0623 -0.7843
36.1600 -24.0756 -0.7826
36.1800 -24.0889 -0.7840
36.2000 -24.1022 -0.7788
36.2200 -24.1156 -0.7808
36.2400 -24.1289 -0.7778
36.2600 -24.1422 -0.7743
36.2800 -24.1555 -0.7736
36.3000 -24.1689 -0.7717
36.3200 -24.1823 -0.7683
36.3400 -24.1956 -0.7653
36.3600 -24.2089 -0.7673
36.3800 -24.2222 -0.7633
36.4000 -24.2356 -0.7621
36.4200 -24.2490 -0.7600
36.4400 -24.2623 -0.7574
36.4600 -24.2756 -0.7573
36.4800 -24.2889 -0.7569
36.5000 -24.3023 -0.7527
36.5200 -24.3156 -0.7526
36.5400 -24.3289 -0.7503
36.5600 -24.3422 -0.7485
36.5800 -24.3555 -0.7462
36.6000 -24.3689 -0.7483
36.6200 -24.3822 -0.7425
36.6400 -24.3956 -0.7433
36.6600 -24.4089 -0.7414
36.6800 -24.4223 -0.7393
36.7000 -24.4356 -0.7383
36.7200 -24.4489 -0.7382
36.7400 -24.4623 -0.7359
36.7600 -24.4756 -0.7356
36.7800 -24.4890 -0.7343
36.8000 -24.5023 -0.7318
36.8200 -24.5156 -0.7295
36.8400 -24.5289 -0.7292
36.8600 -24.5423 -0.7282
36.8800 -24.5556 -0.7262
36.9000 -24.5689 -0.7275
36.9200 -24.5822 -0.7235
36.9400 -24.5956 -0.7221
36.9600 -24.6089 -0.7208
36.9800 -24.6223 -0.7204
37.0000 -24.6356 -0.7190
37.0200 -24.6489 -0.7183
37.0400 -24.6623 -0.7157
37.0600 -24.6756 -0.7155
37.0800 -24.6889 -0.7152
37.1000 -24.7023 -0.7144
37.1200 -24.7156 -0.7124
37.1400 -24.7290 -0.7133
37.1600 -24.7423 -0.7114
37.1800 -24.7556 -0.7100
37.2000 -24.7689 -0.7087
37.2200 -24.7823 -0.7054
37.2400 -24.7956 -0.7067
37.2600 -24.8088 -0.7051
37.2800 -24.8222 -0.7040
37.3000 -24.8355 -0.7014
37.3200 -24.8489 -0.6998
37.3400 -24.8622 -0.6981
37.3600 -24.8755 -0.6973
37.3800 -24.8889 -0.6954
37.4000 -24.9023 -0.6941
37.4200 -24.9156 -0.6922
37.4400 -24.9290 -0.6902
37.4600 -24.9423 -0.6865
37.4800 -24.9556 -0.6859
37.5000 -24.9690 -0.6855
37.5200 -24.9823 -0.6836
37.5400 -24.9956 -0.6800
37.5600 -25.0089 -0.6807
37.5800 -25.0222 -0.6766
37.6000 -25.0356 -0.6743
37.6200 -25.0488 -0.6730
37.6400 -25.0622 -0.6699
37.6600 -25.0755 -0.6662
37.6800 -25.0889 -0.6673
37.7000 -25.1022 -0.6633
37.7200 -25.1155 -0.6625
37.7400 -25.1289 -0.6612
37.7600 -25.1423 -0.6583
37.7800 -25.1557 -0.6563
37.8000 -25.1690 -0.6569
37.8200 -25.1823 -0.6537
37.8400 -25.1956 -0.6532
37.8600 -25.2090 -0.6497
37.8800 -25.2223 -0.6481
37.9000 -25.2356 -0.6444
37.9200 -25.2489 -0.6467
37.9400 -25.2622 -0.6416
37.9600 -25.2756 -0.6418
37.9800 -25.2889 -0.6402
38.0000 -25.3022 -0.6388
38.0200 -25.3155 -0.6352
38.0400 -25.3289 -0.6334
38.0600 -25.3422 -0.6303
38.0800 -25.3556 -0.6282
38.1000 -25.3689 -0.6269
38.1200 -25.3823 -0.6250
38.1400 -25.3956 -0.6236
38.1600 -25.4089 -0.6202
38.1800 -25.4222 -0.6211
38.2000 -25.4356 -0.6170
38.2200 -25.4489 -0.6195
38.2400 -25.4623 -0.6138
38.2600 -25.4756 -0.6150
38.2800 -25.4889 -0.6110
38.3000 -25.5022 -0.6097
38.3200 -25.5156 -0.6058
38.3400 -25.5289 -0.6071
38.3600 -25.5422 -0.6038
38.3800 -25.5555 -0.6013
38.4000 -25.5689 -0.5982
38.4200 -25.5822 -0.5998
38.4400 -25.5955 -0.5960
38.4600 -25.6089 -0.5953
38.4800 -25.6223 -0.5930
38.5000 -25.6356 -0.5905
38.5200 -25.6490 -0.5922
38.5400 -25.6623 -0.5914
38.5600 -25.6756 -0.5861
38.5800 -25.6890 -0.5860
38.6000 -25.7023 -0.5840
38.6200 -25.7156 -0.5847
38.6400 -25.7289 -0.5830
38.6600 -25.7423 -0.5831
38.6800 -25.7556 -0.5800
38.7000 -25.7689 -0.5828
38.7200 -25.7822 -0.5812
38.7400 -25.7955 -0.5795
38.7600 -25.8089 -0.5799
38.7800 -25.8222 -0.5781
38.8000 -25.8356 -0.5772
38.8200 -25.8489 -0.5775
38.8400 -25.8623 -0.5752
38.8600 -25.8756 -0.5759
38.8800 -25.8889 -0.5767
38.9000 -25.9022 -0.5763
38.9200 -25.9156 -0.5770
38.9400 -25.9289 -0.5736
38.9600 -25.9423 -0.5749
38.9800 -25.9556 -0.5735
39.0000 -25.9689 -0.5748
39.0200 -25.9823 -0.5721
39.0400 -25.9956 -0.5711
39.0600 -26.0089 -0.5699
39.0800 -26.0222 -0.5699
39.1000 -26.0355 -0.5659
39.1200 -26.0489 -0.5655
39.1400 -26.0622 -0.5647
39.1600 -26.0755 -0.5649
39.1800 -26.0889 -0.5644
39.2000 -26.1023 -0.5616
39.2200 -26.1156 -0.5597
39.2400 -26.1289 -0.5598
39.2600 -26.1422 -0.5578
39.2800 -26.1556 -0.5552
39.3000 -26.1689 -0.5536
39.3200 -26.1823 -0.5513
39.3400 -26.1956 -0.5507
39.3600 -26.2089 -0.5507
39.3800 -26.2223 -0.5497
39.4000 -26.2356 -0.5491
39.4200 -26.2489 -0.5466
39.4400 -26.2622 -0.5452
39.4600 -26.2755 -0.5418
39.4800 -26.2889 -0.5409
39.5000 -26.3022 -0.5388
39.5200 -26.3156 -0.5358
39.5400 -26.3289 -0.5337
39.5600 -26.3423 -0.5319
39.5800 -26.3557 -0.5300
39.6000 -26.3690 -0.5306
39.6200 -26.3822 -0.5292
39.6400 -26.3956 -0.5271
39.6600 -26.4089 -0.5251
39.6800 -26.4223 -0.5226
39.7000 -26.4356 -0.5211
39.7200 -26.4489 -0.5162
39.7400 -26.4622 -0.5172
39.7600 -26.4756 -0.5138
39.7800 -26.4889 -0.5139
39.8000 -26.5022 -0.5134
39.8200 -26.5156 -0.5081
39.8400 -26.5289 -0.5089
39.8600 -26.5423 -0.5058
39.8800 -26.5556 -0.5050
39.9000 -26.5689 -0.5014
39.9200 -26.5823 -0.5009
39.9400 -26.5956 -0.4992
39.9600 -26.6090 -0.4980
39.9800 -26.6223 -0.4960
40.0000 -26.6356 -0.4943
40.0200 -26.6489 -0.4926
40.0400 -26.6623 -0.4908
40.0600 -26.6756 -0.4885
40.0800 -26.6889 -0.4867
40.1000 -26.7022 -0.4834
40.1200 -26.7156 -0.4831
40.1400 -26.7289 -0.4810
40.1600 -26.7422 -0.4794
40.1800 -26.7555 -0.4761
40.2000 -26.7689 -0.4741
40.2200 -26.7823 -0.4724
40.2400 -26.7956 -0.4710
40.2600 -26.8089 -0.4695
40.2800 -26.8222 -0.4679
40.3000 -26.8356 -0.4668
40.3200 -26.8489 -0.4648
40.3400 -26.8622 -0.4645
40.3600 -26.8756 -0.4619
40.3800 -26.8889 -0.4600
40.4000 -26.9023 -0.4571
40.4200 -26.9156 -0.4568
40.4400 -26.9289 -0.4560
40.4600 -26.9423 -0.4538
40.4800 -26.9556 -0.4517
40.5000 -26.9689 -0.4511
40.5200 -26.9822 -0.4488
40.5400 -26.9955 -0.4469
40.5600 -27.0088 -0.4451
40.5800 -27.0222 -0.4442
40.6000 -27.0355 -0.4408
40.6200 -27.0489 -0.4382
40.6400 -27.0622 -0.4364
40.6600 -27.0756 -0.4332
40.6800 -27.0890 -0.4316
40.7000 -27.1023 -0.4307
40.7200 -27.1156 -0.4284
40.7400 -27.1290 -0.4278
40.7600 -27.1423 -0.4249
40.7800 -27.1556 -0.4218
40.8000 -27.1689 -0.4211
40.8200 -27.1822 -0.4225
40.8400 -27.1956 -0.4191
40.8600 -27.2089 -0.4197
40.8800 -27.2222 -0.4148
40.9000 -27.2355 -0.4157
40.9200 -27.2489 -0.4152
40.9400 -27.2623 -0.4152
40.9600 -27.2756 -0.4132
40.9800 -27.2889 -0.4141
41.0000 -27.3023 -0.4102
41.0200 -27.3157 -0.4103
41.0400 -27.3290 -0.4094
41.0600 -27.3423 -0.4093
41.0800 -27.3556 -0.4080
41.1000 -27.3689 -0.4070
41.1200 -27.3823 -0.4068
41.1400 -27.3956 -0.4064
41.1600 -27.4089 -0.4053
41.1800 -27.4222 -0.4060
41.2000 -27.4356 -0.4047
41.2200 -27.4489 -0.4030
41.2400 -27.4622 -0.4018
41.2600 -27.4755 -0.4008
41.2800 -27.4889 -0.3999
41.3000 -27.5023 -0.3983
41.3200 -27.5156 -0.3988
41.3400 -27.5289 -0.3977
41.3600 -27.5422 -0.3968
41.3800 -27.5556 -0.3945
41.4000 -27.5690 -0.3948
41.4200 -27.5823 -0.3933
41.4400 -27.5956 -0.3915
41.4600 -27.6090 -0.3896
41.4800 -27.6223 -0.3877
41.5000 -27.6356 -0.3861
41.5200 -27.6489 -0.3866
41.5400 -27.6623 -0.3857
41.5600 -27.6756 -0.3847
41.5800 -27.6889 -0.3817
41.6000 -27.7022 -0.3830
41.6200 -27.7155 -0.3794
41.6400 -27.7289 -0.3787
41.6600 -27.7422 -0.3762
41.6800 -27.7555 -0.3762
41.7000 -27.7689 -0.3736
41.7200 -27.7822 -0.3723
41.7400 -27.7956 -0.3697
41.7600 -27.8090 -0.3693
41.7800 -27.8223 -0.3680
41.8000 -27.8356 -0.3673
41.8200 -27.8490 -0.3637
41.8400 -27.8623 -0.3630
41.8600 -27.8756 -0.3634
41.8800 -27.8889 -0.3622
41.9000 -27.9022 -0.3601
41.9200 -27.9156 -0.3572
41.9400 -27.9289 -0.3542
41.9600 -27.9422 -0.3561
41.9800 -27.9555 -0.3524
42.0000 -27.9689 -0.3515
42.0200 -27.9822 -0.3475
42.0400 -27.9956 -0.3470
42.0600 -28.0089 -0.3451
42.0800 -28.0222 -0.3447
42.1000 -28.0356 -0.3423
42.1200 -28.0490 -0.3415
42.1400 -28.0623 -0.3404
42.1600 -28.0756 -0.3393
42.1800 -28.0890 -0.3369
42.2000 -28.1023 -0.3355
42.2200 -28.1157 -0.3343
42.2400 -28.1290 -0.3311
42.2600 -28.1423 -0.3319
42.2800 -28.1556 -0.3297
42.3000 -28.1689 -0.3267
42.3200 -28.1822 -0.3235
42.3400 -28.1955 -0.3215
42.3600 -28.2089 -0.3190
42.3800 -28.2222 -0.3169
42.4000 -28.2356 -0.3174
42.4200 -28.2489 -0.3143
42.4400 -28.2622 -0.3119
42.4600 -28.2756 -0.3095
42.4800 -28.2890 -0.3082
42.5000 -28.3022 -0.3082
42.5200 -28.3156 -0.3064
42.5400 -28.3289 -0.3039
42.5600 -28.3423 -0.2994
42.5800 -28.3556 -0.2985
42.6000 -28.3690 -0.2968
42.6200 -28.3823 -0.2948
42.6400 -28.3956 -0.2927
42.6600 -28.4089 -0.2909
42.6800 -28.4222 -0.2893
42.7000 -28.4355 -0.2865
42.7200 -28.4489 -0.2844
42.7400 -28.4622 -0.2814
42.7600 -28.4755 -0.2821
42.7800 -28.4888 -0.2806
42.8000 -28.5022 -0.2779
42.8200 -28.5156 -0.2759
42.8400 -28.5290 -0.2726
42.8600 -28.5423 -0.2709
42.8800 -28.5556 -0.2697
42.9000 -28.5690 -0.2674
42.9200 -28.5823 -0.2656
42.9400 -28.5956 -0.2661
42.9600 -28.6089 -0.2655
42.9800 -28.6222 -0.2644
43.0000 -28.6356 -0.2610
43.0200 -28.6489 -0.2596
43.0400 -28.6622 -0.2608
43.0600 -28.6755 -0.2585
43.0800 -28.6889 -0.2552
43.1000 -28.7022 -0.2541
43.1200 -28.7156 -0.2531
43.1400 -28.7289 -0.2531
43.1600 -28.7422 -0.2504
43.1800 -28.7556 -0.2514
43.2000 -28.7690 -0.2500
43.2200 -28.7823 -0.2507
43.2400 -28.7956 -0.2475
43.2600 -28.8089 -0.2463
43.2800 -28.8223 -0.2441
43.3000 -28.8356 -0.2429
43.3200 -28.8489 -0.2413
43.3400 -28.8623 -0.2414
43.3600 -28.8756 -0.2390
43.3800 -28.8890 -0.2411
43.4000 -28.9023 -0.2385
43.4200 -28.9155 -0.2389
43.4400 -28.9289 -0.2357
43.4600 -28.9422 -0.2344
43.4800 -28.9556 -0.2339
43.5000 -28.9689 -0.2344
43.5200 -28.9822 -0.2325
43.5400 -28.9956 -0.2318
43.5600 -29.0090 -0.2294
43.5800 -29.0223 -0.2282
43.6000 -29.0356 -0.2286
43.6200 -29.0489 -0.2293
43.6400 -29.0623 -0.2237
43.6600 -29.0756 -0.2242
43.6800 -29.0889 -0.2225
43.7000 -29.1023 -0.2220
43.7200 -29.1156 -0.2211
43.7400 -29.1289 -0.2194
43.7600 -29.1422 -0.2182
43.7800 -29.1555 -0.2174
43.8000 -29.1689 -0.2162
43.8200 -29.1822 -0.2144
43.8400 -29.1956 -0.2136
43.8600 -29.2089 -0.2110
43.8800 -29.2223 -0.2107
43.9000 -29.2356 -0.2103
43.9200 -29.2490 -0.2088
43.9400 -29.2623 -0.2066
43.9600 -29.2756 -0.2044
43.9800 -29.2889 -0.2025
44.0000 -29.3023 -0.2027
44.0200 -29.3156 -0.1991
44.0400 -29.3289 -0.1972
44.0600 -29.3422 -0.1939
44.0800 -29.3556 -0.1949
44.1000 -29.3689 -0.1919
44.1200 -29.3822 -0.1927
44.1400 -29.3955 -0.1913
44.1600 -29.4088 -0.1928
44.1800 -29.4222 -0.1887
44.2000 -29.4356 -0.1866
44.2200 -29.4489 -0.1855
44.2400 -29.4623 -0.1833
44.2600 -29.4756 -0.1826
44.2800 -29.4890 -0.1798
44.3000 -29.5023 -0.1773
44.3200 -29.5156 -0.1795
44.3400 -29.5289 -0.1763
44.3600 -29.5423 -0.1758
44.3800 -29.5556 -0.1738
44.4000 -29.5689 -0.1736
44.4200 -29.5822 -0.1702
44.4400 -29.5956 -0.1698
44.4600 -29.6089 -0.1711
44.4800 -29.6222 -0.1683
44.5000 -29.6355 -0.1666
44.5200 -29.6488 -0.1634
44.5400 -29.6622 -0.1624
44.5600 -29.6756 -0.1606
44.5800 -29.6889 -0.1590
44.6000 -29.7022 -0.1562
44.6200 -29.7156 -0.1565
44.6400 -29.7290 -0.1531
44.6600 -29.7423 -0.1524
44.6800 -29.7556 -0.1515
44.7000 -29.7689 -0.1489
44.7200 -29.7823 -0.1477
44.7400 -29.7956 -0.1459
44.7600 -29.8089 -0.1436
44.7800 -29.8222 -0.1419
44.8000 -29.8356 -0.1412
44.8200 -29.8489 -0.1375
44.8400 -29.8622 -0.1352
44.8600 -29.8755 -0.1352
44.8800 -29.8888 -0.1335
44.9000 -29.9022 -0.1336
44.9200 -29.9155 -0.1312
44.9400 -29.9289 -0.1308
44.9600 -29.9422 -0.1292
44.9800 -29.9556 -0.1273
45.0000 -29.9690 -0.1257
45.0200 -29.9823 -0.1237
45.0400 -29.9956 -0.1214
45.0600 -30.0089 -0.1216
45.0800 -30.0223 -0.1192
45.1000 -30.0356 -0.1168
45.1200 -30.0489 -0.1175
45.1400 -30.0622 -0.1157
45.1600 -30.0756 -0.1145
45.1800 -30.0889 -0.1129
45.2000 -30.1022 -0.1139
45.2200 -30.1155 -0.1119
45.2400 -30.1289 -0.1135
45.2600 -30.1422 -0.1101
45.2800 -30.1556 -0.1074
45.3000 -30.1689 -0.1090
45.3200 -30.1822 -0.1079
45.3400 -30.1956 -0.1087
45.3600 -30.2090 -0.1065
45.3800 -30.2223 -0.1041
45.4000 -30.2355 -0.1054
45.4200 -30.2489 -0.1036
45.4400 -30.2623 -0.1029
45.4600 -30.2756 -0.1017
45.4800 -30.2890 -0.1017
45.5000 -30.3023 -0.0995
45.5200 -30.3156 -0.0978
45.5400 -30.3290 -0.0971
45.5600 -30.3423 -0.0965
45.5800 -30.3555 -0.0948
45.6000 -30.3689 -0.0956
45.6200 -30.3822 -0.0909
45.6400 -30.3955 -0.0898
45.6600 -30.4089 -0.0883
45.6800 -30.4222 -0.0871
45.7000 -30.4356 -0.0861
45.7200 -30.4490 -0.0849
45.7400 -30.4623 -0.0830
45.7600 -30.4756 -0.0812
45.7800 -30.4889 -0.0788
45.8000 -30.5023 -0.0752
45.8200 -30.5157 -0.0732
45.8400 -30.5290 -0.0722
45.8600 -30.5423 -0.0714
45.8800 -30.5556 -0.0683
45.9000 -30.5689 -0.0675
45.9200 -30.5822 -0.0621
45.9400 -30.5955 -0.0633
45.9600 -30.6088 -0.0590
45.9800 -30.6222 -0.0575
46.0000 -30.6356 -0.0537
46.0200 -30.6489 -0.0541
46.0400 -30.6622 -0.0499
46.0600 -30.6756 -0.0510
46.0800 -30.6889 -0.0498
46.1000 -30.7023 -0.0481
46.1200 -30.7156 -0.0455
46.1400 -30.7289 -0.0448
46.1600 -30.7423 -0.0422
46.1800 -30.7556 -0.0412
46.2000 -30.7689 -0.0403
46.2200 -30.7822 -0.0381
46.2400 -30.7956 -0.0363
46.2600 -30.8089 -0.0336
46.2800 -30.8223 -0.0319
46.3000 -30.8355 -0.0304
46.3200 -30.8489 -0.0309
46.3400 -30.8622 -0.0277
46.3600 -30.8756 -0.0278
46.3800 -30.8889 -0.0268
46.4000 -30.9022 -0.0219
46.4200 -30.9156 -0.0206
46.4400 -30.9289 -0.0198
46.4600 -30.9423 -0.0167
46.4800 -30.9556 -0.0170
46.5000 -30.9689 -0.0145
46.5200 -30.9823 -0.0117
46.5400 -30.9956 -0.0107
46.5600 -31.0090 -0.0092
46.5800 -31.0223 -0.0073
46.6000 -31.0356 -0.0069
46.6200 -31.0490 -0.0068
46.6400 -31.0623 -0.0032
46.6600 -31.0756 -0.0012
46.6800 -31.0889 -0.0031
46.7000 -31.1022 0.0015
46.7200 -31.1156 0.0017
46.7400 -31.1289 0.0030
46.7600 -31.1422 0.0053
46.7800 -31.1556 0.0083
46.8000 -31.1690 0.0092
46.8200 -31.1823 0.0120
46.8400 -31.1956 0.0114
46.8600 -31.2089 0.0143
46.8800 -31.2222 0.0169
46.9000 -31.2356 0.0183
46.9200 -31.2489 0.0186
46.9400 -31.2622 0.0204
46.9600 -31.2756 0.0250
46.9800 -31.2889 0.0205
47.0000 -31.3022 0.0259
47.0200 -31.3155 0.0266
47.0400 -31.3289 0.0289
47.0600 -31.3422 0.0306
47.0800 -31.3556 0.0334
47.1000 -31.3689 0.0325
47.1200 -31.3822 0.0360
47.1400 -31.3956 0.0378
47.1600 -31.4090 0.0383
47.1800 -31.4223 0.0415
47.2000 -31.4356 0.0425
47.2200 -31.4489 0.0445
47.2400 -31.4623 0.0468
47.2600 -31.4756 0.0497
47.2800 -31.4889 0.0481
47.3000 -31.5022 0.0523
47.3200 -31.5156 0.0525
47.3400 -31.5289 0.0547
47.3600 -31.5422 0.0574
47.3800 -31.5555 0.0599
47.4000 -31.5688 0.0618
47.4200 -31.5822 0.0636
47.4400 -31.5956 0.0663
47.4600 -31.6089 0.0658
47.4800 -31.6222 0.0719
47.5000 -31.6356 0.0706
47.5200 -31.6489 0.0713
47.5400 -31.6623 0.0730
47.5600 -31.6756 0.0773
47.5800 -31.6889 0.0771
47.6000 -31.7022 0.0811
47.6200 -31.7156 0.0821
47.6400 -31.7289 0.0809
47.6600 -31.7423 0.0850
47.6800 -31.7556 0.0866
47.7000 -31.7690 0.0877
47.7200 -31.7823 0.0896
47.7400 -31.7956 0.0928
47.7600 -31.8089 0.0896
47.7800 -31.8222 0.0935
47.8000 -31.8355 0.0923
47.8200 -31.8489 0.0948
47.8400 -31.8622 0.0967
47.8600 -31.8755 0.0999
47.8800 -31.8889 0.0996
47.9000 -31.9023 0.1016
47.9200 -31.9156 0.1028
47.9400 -31.9289 0.1026
47.9600 -31.9423 0.1063
47.9800 -31.9557 0.1086
48.0000 -31.9690 0.1097
48.0200 -31.9823 0.1125
48.0400 -31.9956 0.1135
48.0600 -32.0089 0.1133
48.0800 -32.0222 0.1170
48.1000 -32.0356 0.1185
48.1200 -32.0489 0.1204
48.1400 -32.0622 0.1235
48.1600 -32.0756 0.1258
48.1800 -32.0889 0.1256
48.2000 -32.1022 0.1271
48.2200 -32.1156 0.1305
48.2400 -32.1290 0.1292
48.2600 -32.1423 0.1318
48.2800 -32.1556 0.1342
48.3000 -32.1689 0.1334
48.3200 -32.1822 0.1370
48.3400 -32.1956 0.1371
48.3600 -32.2089 0.1383
48.3800 -32.2223 0.1396
48.4000 -32.2356 0.1423
48.4200 -32.2489 0.1409
48.4400 -32.2623 0.1461
48.4600 -32.2756 0.1466
48.4800 -32.2888 0.1472
48.5000 -32.3022 0.1495
48.5200 -32.3155 0.1531
48.5400 -32.3289 0.1510
48.5600 -32.3422 0.1536
48.5800 -32.3556 0.1564
48.6000 -32.3689 0.1561
48.6200 -32.3823 0.1586
48.6400 -32.3956 0.1571
48.6600 -32.4089 0.1569
48.6800 -32.4223 0.1589
48.7000 -32.4356 0.1612
48.7200 -32.4490 0.1610
48.7400 -32.4623 0.1629
48.7600 -32.4756 0.1647
48.7800 -32.4889 0.1629
48.8000 -32.5023 0.1659
48.8200 -32.5156 0.1667
48.8400 -32.5288 0.1660
48.8600 -32.5422 0.1681
48.8800 -32.5556 0.1691
48.9000 -32.5689 0.1688
48.9200 -32.5822 0.1707
48.9400 -32.5956 0.1701
48.9600 -32.6089 0.1685
48.9800 -32.6223 0.1701
49.0000 -32.6356 0.1723
49.0200 -32.6490 0.1718
49.0400 -32.6623 0.1693
49.0600 -32.6757 0.1742
49.0800 -32.6890 0.1727
49.1000 -32.7023 0.1750
49.1200 -32.7156 0.1762
49.1400 -32.7289 0.1747
49.1600 -32.7423 0.1767
49.1800 -32.7556 0.1793
49.2000 -32.7689 0.1796
49.2200 -32.7822 0.1838
49.2400 -32.7956 0.1841
49.2600 -32.8089 0.1832
49.2800 -32.8222 0.1832
49.3000 -32.8355 0.1890
49.3200 -32.8489 0.1869
49.3400 -32.8623 0.1909
49.3600 -32.8756 0.1936
49.3800 -32.8889 0.1927
49.4000 -32.9023 0.1949
49.4200 -32.9156 0.1974
49.4400 -32.9290 0.1995
49.4600 -32.9423 0.2016
49.4800 -32.9556 0.2048
49.5000 -32.9690 0.2045
49.5200 -32.9823 0.2079
49.5400 -32.9956 0.2115
49.5600 -33.0089 0.2132
49.5800 -33.0222 0.2155
49.6000 -33.0355 0.2194
49.6200 -33.0489 0.2195
49.6400 -33.0622 0.2216
49.6600 -33.0755 0.2246
49.6800 -33.0889 0.2239
49.7000 -33.1023 0.2286
49.7200 -33.1156 0.2322
49.7400 -33.1289 0.2350
49.7600 -33.1422 0.2365
49.7800 -33.1556 0.2397
49.8000 -33.1690 0.2406
49.8200 -33.1823 0.2442
49.8400 -33.1956 0.2487
49.8600 -33.2089 0.2495
49.8800 -33.2223 0.2533
49.9000 -33.2356 0.2547
49.9200 -33.2489 0.2559
49.9400 -33.2622 0.2594
49.9600 -33.2755 0.2610
49.9800 -33.2889 0.2613
50.0000 -33.3022 0.2650
50.0200 -33.3155 0.2686
50.0400 -33.3289 0.2713
50.0600 -33.3423 0.2730
50.0800 -33.3556 0.2758
50.1000 -33.3689 0.2763
50.1200 -33.3823 0.2785
50.1400 -33.3956 0.2823
50.1600 -33.4090 0.2823
50.1800 -33.4223 0.2854
50.2000 -33.4356 0.2877
50.2200 -33.4489 0.2882
50.2400 -33.4622 0.2898
50.2600 -33.4755 0.2917
50.2800 -33.4888 0.2915
50.3000 -33.5022 0.2951
50.3200 -33.5156 0.2974
50.3400 -33.5289 0.2981
50.3600 -33.5422 0.2969
50.3800 -33.5556 0.3012
50.4000 -33.5689 0.3004
50.4200 -33.5823 0.3016
50.4400 -33.5957 0.3049
50.4600 -33.6089 0.3051
50.4800 -33.6223 0.3068
50.5000 -33.6356 0.3097
50.5200 -33.6490 0.3085
50.5400 -33.6623 0.3078
50.5600 -33.6756 0.3098
50.5800 -33.6889 0.3100
50.6000 -33.7023 0.3103
50.6200 -33.7156 0.3146
50.6400 -33.7289 0.3130
50.6600 -33.7422 0.3151
50.6800 -33.7556 0.3166
50.7000 -33.7689 0.3155
50.7200 -33.7822 0.3177
50.7400 -33.7955 0.3178
50.7600 -33.8089 0.3176
50.7800 -33.8223 0.3180
50.8000 -33.8356 0.3206
50.8200 -33.8489 0.3192
50.8400 -33.8623 0.3215
50.8600 -33.8756 0.3237
50.8800 -33.8890 0.3247
50.9000 -33.9023 0.3217
50.9200 -33.9156 0.3260
50.9400 -33.9289 0.3242
50.9600 -33.9423 0.3265
50.9800 -33.9556 0.3251
51.0000 -33.9688 0.3259
51.0200 -33.9821 0.3276
51.0400 -33.9955 0.3305
51.0600 -34.0089 0.3313
51.0800 -34.0222 0.3321
51.1000 -34.0356 0.3326
51.1200 -34.0489 0.3330
51.1400 -34.0623 0.3331
51.1600 -34.0756 0.3380
51.1800 -34.0889 0.3375
51.2000 -34.1023 0.3384
51.2200 -34.1156 0.3419
51.2400 -34.1289 0.3428
51.2600 -34.1423 0.3446
51.2800 -34.1556 0.3489
51.3000 -34.1689 0.3474
51.3200 -34.1822 0.3514
51.3400 -34.1956 0.3541
51.3600 -34.2089 0.3549
51.3800 -34.2222 0.3565
51.4000 -34.2355 0.3600
51.4200 -34.2489 0.3613
51.4400 -34.2623 0.3612
51.4600 -34.2756 0.3645
51.4800 -34.2889 0.3650
51.5000 -34.3023 0.3675
51.5200 -34.3157 0.3706
51.5400 -34.3289 0.3740
51.5600 -34.3423 0.3736
51.5800 -34.3556 0.3793
51.6000 -34.3690 0.3807
51.6200 -34.3823 0.3819
51.6400 -34.3956 0.3861
51.6600 -34.4089 0.3887
51.6800 -34.4223 0.3879
51.7000 -34.4356 0.3934
51.7200 -34.4489 0.3917
51.7400 -34.4622 0.3934
51.7600 -34.4755 0.3989
51.7800 -34.4889 0.3979
51.8000 -34.5022 0.3992
51.8200 -34.5155 0.4025
51.8400 -34.5289 0.4014
51.8600 -34.5423 0.4066
51.8800 -34.5557 0.4084
51.9000 -34.5690 0.4124
51.9200 -34.5823 0.4123
51.9400 -34.5956 0.4165
51.9600 -34.6090 0.4157
51.9800 -34.6223 0.4170
52.0000 -34.6356 0.4208
52.0200 -34.6489 0.4214
52.0400 -34.6622 0.4211
52.0600 -34.6756 0.4265
52.0800 -34.6889 0.4258
52.1000 -34.7022 0.4268
52.1200 -34.7155 0.4291
52.1400 -34.7289 0.4308
52.1600 -34.7422 0.4304
52.1800 -34.7555 0.4348
52.2000 -34.7689 0.4356
52.2200 -34.7823 0.4353
52.2400 -34.7957 0.4374
52.2600 -34.8090 0.4378
52.2800 -34.8223 0.4390
52.3000 -34.8356 0.4432
52.3200 -34.8490 0.4427
52.3400 -34.8623 0.4443
52.3600 -34.8756 0.4505
52.3800 -34.8889 0.4488
52.4000 -34.9022 0.4512
52.4200 -34.9156 0.4504
52.4400 -34.9289 0.4528
52.4600 -34.9422 0.4519
52.4800 -34.9555 0.4573
52.5000 -34.9689 0.4579
52.5200 -34.9823 0.4588
52.5400 -34.9956 0.4624
52.5600 -35.0089 0.4619
52.5800 -35.0223 0.4622
52.6000 -35.0356 0.4662
52.6200 -35.0489 0.4647
52.6400 -35.0622 0.4650
52.6600 -35.0756 0.4678
52.6800 -35.0889 0.4659
52.7000 -35.1023 0.4689
52.7200 -35.1156 0.4708
52.7400 -35.1289 0.4718
52.7600 -35.1423 0.4727
52.7800 -35.1556 0.4747
52.8000 -35.1689 0.4746
52.8200 -35.1822 0.4743
52.8400 -35.1956 0.4777
52.8600 -35.2089 0.4784
52.8800 -35.2222 0.4796
52.9000 -35.2355 0.4819
52.9200 -35.2489 0.4816
52.9400 -35.2623 0.4823
52.9600 -35.2757 0.4856
52.9800 -35.2890 0.4879
53.0000 -35.3023 0.4890
53.0200 -35.3156 0.4918
53.0400 -35.3290 0.4929
53.0600 -35.3423 0.4933
53.0800 -35.3556 0.4966
53.1000 -35.3689 0.4979
53.1200 -35.3823 0.4989
53.1400 -35.3956 0.5017
53.1600 -35.4089 0.5029
53.1800 -35.4222 0.5031
53.2000 -35.4355 0.5072
53.2200 -35.4489 0.5070
53.2400 -35.4622 0.5068
53.2600 -35.4756 0.5083
53.2800 -35.4889 0.5129
53.3000 -35.5023 0.5104
53.3200 -35.5156 0.5149
53.3400 -35.5289 0.5129
53.3600 -35.5422 0.5153
53.3800 -35.5556 0.5159
53.4000 -35.5690 0.5177
53.4200 -35.5823 0.5172
53.4400 -35.5956 0.5216
53.4600 -35.6089 0.5191
53.4800 -35.6223 0.5188
53.5000 -35.6356 0.5200
53.5200 -35.6489 0.5234
53.5400 -35.6622 0.5222
53.5600 -35.6755 0.5278
53.5800 -35.6889 0.5281
53.6000 -35.7022 0.5292
53.6200 -35.7156 0.5298
53.6400 -35.7289 0.5318
53.6600 -35.7422 0.5331
53.6800 -35.7556 0.5358
53.7000 -35.7689 0.5384
53.7200 -35.7822 0.5390
53.7400 -35.7956 0.5422
53.7600 -35.8089 0.5421
53.7800 -35.8223 0.5442
53.8000 -35.8356 0.5463
53.8200 -35.8489 0.5505
53.8400 -35.8623 0.5507
53.8600 -35.8756 0.5556
53.8800 -35.8889 0.5578
53.9000 -35.9022 0.5573
53.9200 -35.9155 0.5610
53.9400 -35.9289 0.5632
53.9600 -35.9422 0.5653
53.9800 -35.9556 0.5694
54.0000 -35.9689 0.5707
54.0200 -35.9823 0.5718
54.0400 -35.9957 0.5739
54.0600 -36.0090 0.5790
54.0800 -36.0223 0.5796
54.1000 -36.0356 0.5849
54.1200 -36.0489 0.5843
54.1400 -36.0623 0.5855
54.1600 -36.0756 0.5879
54.1800 -36.0889 0.5927
54.2000 -36.1022 0.5928
54.2200 -36.1156 0.5963
54.2400 -36.1289 0.5981
54.2600 -36.1422 0.5985
54.2800 -36.1555 0.6006
54.3000 -36.1689 0.6037
54.3200 -36.1823 0.6060
54.3400 -36.1956 0.6080
54.3600 -36.2089 0.6099
54.3800 -36.2223 0.6080
54.4000 -36.2356 0.6142
54.4200 -36.2490 0.6164
54.4400 -36.2623 0.6174
54.4600 -36.2756 0.6204
54.4800 -36.2889 0.6209
54.5000 -36.3023 0.6239
54.5200 -36.3156 0.6261
54.5400 -36.3289 0.6269
54.5600 -36.3422 0.6270
54.5800 -36.3556 0.6304
54.6000 -36.3689 0.6317
54.6200 -36.3822 0.6343
54.6400 -36.3955 0.6376
54.6600 -36.4089 0.6406
54.6800 -36.4223 0.6389
54.7000 -36.4356 0.6431
54.7200 -36.4489 0.6444
54.7400 -36.4623 0.6430
54.7600 -36.4756 0.6485
54.7800 -36.4890 0.6491
54.8000 -36.5023 0.6516
54.8200 -36.5156 0.6521
54.8400 -36.5289 0.6571
54.8600 -36.5423 0.6578
54.8800 -36.5556 0.6603
54.9000 -36.5689 0.6608
54.9200 -36.5823 0.6613
54.9400 -36.5956 0.6651
54.9600 -36.6089 0.6700
54.9800 -36.6222 0.6688
55.0000 -36.6355 0.6712
55.0200 -36.6489 0.6732
55.0400 -36.6622 0.6716
55.0600 -36.6755 0.6755
55.0800 -36.6888 0.6762
55.1000 -36.7022 0.6774
55.1200 -36.7156 0.6788
55.1400 -36.7290 0.6826
55.1600 -36.7423 0.6803
55.1800 -36.7556 0.6836
55.2000 -36.7690 0.6864
55.2200 -36.7823 0.6865
55.2400 -36.7956 0.6900
55.2600 -36.8089 0.6904
55.2800 -36.8222 0.6899
55.3000 -36.8356 0.6915
55.3200 -36.8489 0.6947
55.3400 -36.8622 0.6962
55.3600 -36.8755 0.6979
55.3800 -36.8889 0.7006
55.4000 -36.9022 0.7001
55.4200 -36.9156 0.7036
55.4400 -36.9289 0.7075
55.4600 -36.9423 0.7058
55.4800 -36.9556 0.7105
55.5000 -36.9690 0.7128
55.5200 -36.9823 0.7133
55.5400 -36.9956 0.7159
55.5600 -37.0089 0.7207
55.5800 -37.0223 0.7185
55.6000 -37.0356 0.7205
55.6200 -37.0489 0.7215
55.6400 -37.0622 0.7240
55.6600 -37.0756 0.7252
55.6800 -37.0889 0.7283
55.7000 -37.1022 0.7272
55.7200 -37.1155 0.7311
55.7400 -37.1289 0.7345
55.7600 -37.1422 0.7355
55.7800 -37.1556 0.7377
55.8000 -37.1689 0.7411
55.8200 -37.1822 0.7401
55.8400 -37.1956 0.7421
55.8600 -37.2090 0.7432
55.8800 -37.2223 0.7451
55.9000 -37.2356 0.7463
55.9200 -37.2490 0.7525
55.9400 -37.2623 0.7513
55.9600 -37.2757 0.7538
55.9800 -37.2889 0.7560
56.0000 -37.3023 0.7583
56.0200 -37.3156 0.7598
56.0400 -37.3289 0.7652
56.0600 -37.3422 0.7640
56.0800 -37.3555 0.7666
56.1000 -37.3689 0.7700
56.1200 -37.3822 0.7693
56.1400 -37.3956 0.7727
56.1600 -37.4089 0.7757
56.1800 -37.4222 0.7750
56.2000 -37.4356 0.7768
56.2200 -37.4490 0.7796
56.2400 -37.4623 0.7791
56.2600 -37.4756 0.7863
56.2800 -37.4890 0.8257
56.3000 -37.5023 0.6071
56.3200 -37.5156 0.5033
56.3400 -37.5289 0.4871
56.3600 -37.5423 0.4921
56.3800 -37.5556 0.5009
56.4000 -37.5689 0.5039
56.4200 -37.5822 0.5012
56.4400 -37.5955 0.5003
56.4600 -37.6089 0.5032
56.4800 -37.6222 0.4998
56.5000 -37.6356 0.5021
56.5200 -37.6489 0.5007
56.5400 -37.6622 0.5016
56.5600 -37.6756 0.5030
56.5800 -37.6889 0.5049
56.6000 -37.7023 0.5003
56.6200 -37.7156 0.5020
56.6400 -37.7289 0.5025
56.6600 -37.7423 0.5047
56.6800 -37.7556 0.5054
56.7000 -37.7689 0.5062
56.7200 -37.7823 0.5065
56.7400 -37.7956 0.5063
56.7600 -37.8089 0.5091
56.7800 -37.8222 0.5078
56.8000 -37.8355 0.5085
56.8200 -37.8489 0.5102
56.8400 -37.8622 0.5104
56.8600 -37.8756 0.5116
56.8800 -37.8889 0.5142
56.9000 -37.9022 0.5142
56.9200 -37.9156 0.5144
56.9400 -37.9290 0.5174
56.9600 -37.9423 0.5158
56.9800 -37.9556 0.5157
57.0000 -37.9689 0.5167
57.0200 -37.9823 0.5179
57.0400 -37.9956 0.5197
57.0600 -38.0090 0.5236
57.0800 -38.0223 0.5230
57.1000 -38.0356 0.5231
57.1200 -38.0490 0.5252
57.1400 -38.0622 0.5247
57.1600 -38.0755 0.5252
57.1800 -38.0889 0.5279
57.2000 -38.1022 0.5281
57.2200 -38.1156 0.5262
57.2400 -38.1289 0.5304
57.2600 -38.1422 0.5292
57.2800 -38.1556 0.5300
57.3000 -38.1690 0.5315
57.3200 -38.1823 0.5315
57.3400 -38.1956 0.5303
57.3600 -38.2090 0.5321
57.3800 -38.2223 0.5311
57.4000 -38.2357 0.5329
57.4200 -38.2489 0.5356
57.4400 -38.2622 0.5337
57.4600 -38.2755 0.5334
57.4800 -38.2889 0.5353
57.5000 -38.3022 0.5369
57.5200 -38.3155 0.5370
57.5400 -38.3288 0.5382
57.5600 -38.3422 0.5385
57.5800 -38.3556 0.5393
57.6000 -38.3689 0.5409
57.6200 -38.3822 0.5411
57.6400 -38.3956 0.5431
57.6600 -38.4090 0.5473
57.6800 -38.4223 0.5463
57.7000 -38.4356 0.5468
57.7200 -38.4489 0.5484
57.7400 -38.4623 0.5469
57.7600 -38.4756 0.5488
57.7800 -38.4889 0.5498
57.8000 -38.5023 0.5522
57.8200 -38.5156 0.5534
57.8400 -38.5289 0.5544
57.8600 -38.5422 0.5555
57.8800 -38.5555 0.5530
57.9000 -38.5689 0.5568
57.9200 -38.5822 0.5572
57.9400 -38.5956 0.5579
57.9600 -38.6089 0.5607
57.9800 -38.6222 0.5612
58.0000 -38.6356 0.5585
58.0200 -38.6490 0.5611
58.0400 -38.6623 0.5622
58.0600 -38.6756 0.5629
58.0800 -38.6889 0.5656
58.1000 -38.7023 0.5667
58.1200 -38.7156 0.5650
58.1400 -38.7289 0.5677
58.1600 -38.7422 0.5673
58.1800 -38.7556 0.5667
58.2000 -38.7689 0.5720
58.2200 -38.7822 0.5711
58.2400 -38.7955 0.5735
58.2600 -38.8089 0.5741
58.2800 -38.8222 0.5749
58.3000 -38.8356 0.5744
58.3200 -38.8489 0.5763
58.3400 -38.8622 0.5789
58.3600 -38.8756 0.5790
58.3800 -38.8890 0.5798
58.4000 -38.9023 0.5796
58.4200 -38.9156 0.5796
58.4400 -38.9289 0.5832
58.4600 -38.9423 0.5820
58.4800 -38.9556 0.5821
58.5000 -38.9689 0.5846
58.5200 -38.9822 0.5846
58.5400 -38.9956 0.5835
58.5600 -39.0089 0.5877
58.5800 -39.0222 0.5883
58.6000 -39.0355 0.5893
58.6200 -39.0489 0.5909
58.6400 -39.0622 0.5921
58.6600 -39.0756 0.5900
58.6800 -39.0889 0.5921
58.7000 -39.1022 0.5931
58.7200 -39.1156 0.5932
58.7400 -39.1290 0.5977
58.7600 -39.1423 0.5975
58.7800 -39.1556 0.5982
58.8000 -39.1689 0.5982
58.8200 -39.1823 0.5988
58.8400 -39.1956 0.6001
58.8600 -39.2090 0.6035
58.8800 -39.2223 0.6037
58.9000 -39.2356 0.6069
58.9200 -39.2489 0.6072
58.9400 -39.2622 0.6085
58.9600 -39.2755 0.6073
58.9800 -39.2888 0.6133
59.0000 -39.3022 0.6112
59.0200 -39.3156 0.6137
59.0400 -39.3289 0.6158
59.0600 -39.3422 0.6162
59.0800 -39.3556 0.6161
59.1000 -39.3690 0.6185
59.1200 -39.3823 0.6179
59.1400 -39.3956 0.6193
59.1600 -39.4089 0.6207
59.1800 -39.4223 0.6202
59.2000 -39.4356 0.6223
59.2200 -39.4490 0.6249
59.2400 -39.4623 0.6235
59.2600 -39.4756 0.6243
59.2800 -39.4889 0.6246
59.3000 -39.5022 0.6257
59.3200 -39.5155 0.6260
59.3400 -39.5288 0.6297
59.3600 -39.5422 0.6334
59.3800 -39.5555 0.6350
59.4000 -39.5689 0.6352
59.4200 -39.5822 0.6370
59.4400 -39.5956 0.6363
59.4600 -39.6090 0.6361
59.4800 -39.6223 0.6398
59.5000 -39.6356 0.6402
59.5200 -39.6489 0.6427
59.5400 -39.6623 0.6433
59.5600 -39.6757 0.6454
59.5800 -39.6890 0.6458
59.6000 -39.7023 0.6472
59.6200 -39.7156 0.6459
59.6400 -39.7289 0.6497
59.6600 -39.7422 0.6489
59.6800 -39.7555 0.6519
59.7000 -39.7688 0.6507
59.7200 -39.7822 0.6541
59.7400 -39.7956 0.6510
59.7600 -39.8089 0.6530
59.7800 -39.8222 0.6546
59.8000 -39.8356 0.6520
59.8200 -39.8490 0.6548
59.8400 -39.8623 0.6585
59.8600 -39.8756 0.6579
59.8800 -39.8889 0.6575
59.9000 -39.9022 0.6596
59.9200 -39.9156 0.6598
59.9400 -39.9289 0.6616
59.9600 -39.9423 0.6628
59.9800 -39.9556 0.6607
60.0000 -39.9690 0.6636
60.0200 -39.9823 0.6647
60.0400 -39.9955 0.6680
60.0470 -40.0001 0.6727
