Raw Data
Time Displacement Force
(s) (mm) (N)
0.0000 0.0000 -0.3493
0.0200 -0.0001 -0.3541
0.0400 -0.0019 -0.3694
0.0600 -0.0092 -0.3666
0.0800 -0.0209 -0.3530
0.1000 -0.0334 -0.3538
0.1200 -0.0461 -0.3505
0.1400 -0.0595 -0.3530
0.1600 -0.0736 -0.3508
0.1800 -0.0877 -0.3475
0.2000 -0.1016 -0.3448
0.2200 -0.1152 -0.3472
0.2400 -0.1286 -0.3460
0.2600 -0.1419 -0.3477
0.2800 -0.1552 -0.3480
0.3000 -0.1685 -0.3416
0.3200 -0.1819 -0.3440
0.3400 -0.1952 -0.3437
0.3600 -0.2085 -0.3430
0.3800 -0.2218 -0.3377
0.4000 -0.2351 -0.3418
0.4200 -0.2485 -0.3396
0.4400 -0.2619 -0.3393
0.4600 -0.2752 -0.3406
0.4800 -0.2886 -0.3396
0.5000 -0.3019 -0.3355
0.5200 -0.3153 -0.3361
0.5400 -0.3286 -0.3360
0.5600 -0.3419 -0.3330
0.5800 -0.3553 -0.3336
0.6000 -0.3686 -0.3313
0.6200 -0.3820 -0.3323
0.6400 -0.3953 -0.3322
0.6600 -0.4086 -0.3325
0.6800 -0.4219 -0.3301
0.7000 -0.4352 -0.3320
0.7200 -0.4485 -0.3300
0.7400 -0.4618 -0.3265
0.7600 -0.4752 -0.3282
0.7800 -0.4885 -0.3260
0.8000 -0.5019 -0.3247
0.8200 -0.5153 -0.3271
0.8400 -0.5286 -0.3237
0.8600 -0.5419 -0.3219
0.8800 -0.5553 -0.3248
0.9000 -0.5686 -0.3235
0.9200 -0.5819 -0.3217
0.9400 -0.5952 -0.3215
0.9600 -0.6086 -0.3204
0.9800 -0.6220 -0.3187
1.0000 -0.6353 -0.3222
1.0200 -0.6486 -0.3194
1.0400 -0.6619 -0.3174
1.0600 -0.6752 -0.3202
1.0800 -0.6885 -0.3172
1.1000 -0.7018 -0.3177
1.1200 -0.7151 -0.3180
1.1400 -0.7285 -0.3152
1.1600 -0.7419 -0.3130
1.1800 -0.7552 -0.3134
1.2000 -0.7685 -0.3146
1.2200 -0.7819 -0.3099
1.2400 -0.7953 -0.3120
1.2600 -0.8087 -0.3122
1.2800 -0.8219 -0.3097
1.3000 -0.8353 -0.3122
1.3200 -0.8486 -0.3104
1.3400 -0.8620 -0.3076
1.3600 -0.8753 -0.3090
1.3800 -0.8886 -0.3092
1.4000 -0.9019 -0.3080
1.4200 -0.9153 -0.3079
1.4400 -0.9286 -0.3072
1.4600 -0.9418 -0.3050
1.4800 -0.9551 -0.3072
1.5000 -0.9685 -0.3057
1.5200 -0.9819 -0.3041
1.5400 -0.9952 -0.3033
1.5600 -1.0085 -0.3041
1.5800 -1.0219 -0.3005
1.6000 -1.0353 -0.3049
1.6200 -1.0486 -0.3006
1.6400 -1.0620 -0.3003
1.6600 -1.0753 -0.2993
1.6800 -1.0886 -0.3020
1.7000 -1.1020 -0.2969
1.7200 -1.1153 -0.2996
1.7400 -1.1286 -0.2993
1.7600 -1.1419 -0.2982
1.7800 -1.1552 -0.2987
1.8000 -1.1686 -0.2969
1.8200 -1.1818 -0.2926
1.8400 -1.1952 -0.2942
1.8600 -1.2085 -0.2951
1.8800 -1.2219 -0.2921
1.9000 -1.2352 -0.2931
1.9200 -1.2486 -0.2921
1.9400 -1.2619 -0.2901
1.9600 -1.2753 -0.2889
1.9800 -1.2886 -0.2893
2.0000 -1.3019 -0.2882
2.0200 -1.3152 -0.2884
2.0400 -1.3286 -0.2874
2.0600 -1.3419 -0.2847
2.0800 -1.3553 -0.2859
2.1000 -1.3686 -0.2865
2.1200 -1.3819 -0.2828
2.1400 -1.3952 -0.2842
2.1600 -1.4086 -0.2829
2.1800 -1.4219 -0.2816
2.2000 -1.4352 -0.2830
2.2200 -1.4486 -0.2820
2.2400 -1.4619 -0.2795
2.2600 -1.4752 -0.2803
2.2800 -1.4886 -0.2790
2.3000 -1.5019 -0.2802
2.3200 -1.5153 -0.2798
2.3400 -1.5287 -0.2823
2.3600 -1.5420 -0.2757
2.3800 -1.5553 -0.2781
2.4000 -1.5686 -0.2750
2.4200 -1.5820 -0.2755
2.4400 -1.5953 -0.2728
2.4600 -1.6086 -0.2746
2.4800 -1.6219 -0.2691
2.5000 -1.6352 -0.2725
2.5200 -1.6485 -0.2710
2.5400 -1.6618 -0.2685
2.5600 -1.6751 -0.2694
2.5800 -1.6885 -0.2714
2.6000 -1.7019 -0.2670
2.6200 -1.7152 -0.2672
2.6400 -1.7286 -0.2677
2.6600 -1.7419 -0.2656
2.6800 -1.7553 -0.2660
2.7000 -1.7686 -0.2656
2.7200 -1.7819 -0.2635
2.7400 -1.7952 -0.2631
2.7600 -1.8086 -0.2636
2.7800 -1.8220 -0.2617
2.8000 -1.8353 -0.2612
2.8200 -1.8486 -0.2622
2.8400 -1.8619 -0.2587
2.8600 -1.8753 -0.2604
2.8800 -1.8886 -0.2592
2.9000 -1.9019 -0.2561
2.9200 -1.9152 -0.2584
2.9400 -1.9285 -0.2599
2.9600 -1.9419 -0.2568
2.9800 -1.9552 -0.2585
3.0000 -1.9685 -0.2583
3.0200 -1.9819 -0.2542
3.0400 -1.9952 -0.2559
3.0600 -2.0086 -0.2554
3.0800 -2.0219 -0.2531
3.1000 -2.0352 -0.2526
3.1200 -2.0486 -0.2546
3.1400 -2.0619 -0.2527
3.1600 -2.0753 -0.2517
3.1800 -2.0886 -0.2523
3.2000 -2.1019 -0.2479
3.2200 -2.1153 -0.2501
3.2400 -2.1286 -0.2499
3.2600 -2.1419 -0.2463
3.2800 -2.1552 -0.2495
3.3000 -2.1686 -0.2493
3.3200 -2.1819 -0.2465
3.3400 -2.1952 -0.2458
3.3600 -2.2086 -0.2489
3.3800 -2.2219 -0.2447
3.4000 -2.2353 -0.2471
3.4200 -2.2486 -0.2463
3.4400 -2.2619 -0.2446
3.4600 -2.2752 -0.2435
3.4800 -2.2886 -0.2473
3.5000 -2.3019 -0.2434
3.5200 -2.3153 -0.2445
3.5400 -2.3286 -0.2431
3.5600 -2.3419 -0.2413
3.5800 -2.3552 -0.2401
3.6000 -2.3686 -0.2415
3.6200 -2.3819 -0.2380
3.6400 -2.3952 -0.2384
3.6600 -2.4085 -0.2407
3.6800 -2.4219 -0.2386
3.7000 -2.4353 -0.2382
3.7200 -2.4486 -0.2399
3.7400 -2.4619 -0.2366
3.7600 -2.4753 -0.2357
3.7800 -2.4887 -0.2374
3.8000 -2.5020 -0.2339
3.8200 -2.5153 -0.2347
3.8400 -2.5286 -0.2327
3.8600 -2.5419 -0.2322
3.8800 -2.5553 -0.2308
3.9000 -2.5686 -0.2334
3.9200 -2.5819 -0.2302
3.9400 -2.5952 -0.2312
3.9600 -2.6086 -0.2308
3.9800 -2.6219 -0.2288
4.0000 -2.6352 -0.2306
4.0200 -2.6485 -0.2292
4.0400 -2.6619 -0.2262
4.0600 -2.6753 -0.2263
4.0800 -2.6886 -0.2283
4.1000 -2.7019 -0.2265
4.1200 -2.7153 -0.2258
4.1400 -2.7286 -0.2269
4.1600 -2.7420 -0.2227
4.1800 -2.7553 -0.2247
4.2000 -2.7686 -0.2237
4.2200 -2.7819 -0.2230
4.2400 -2.7953 -0.2215
4.2600 -2.8086 -0.2254
4.2800 -2.8219 -0.2221
4.3000 -2.8353 -0.2246
4.3200 -2.8486 -0.2214
4.3400 -2.8619 -0.2209
4.3600 -2.8752 -0.2190
4.3800 -2.8885 -0.2206
4.4000 -2.9019 -0.2177
4.4200 -2.9152 -0.2172
4.4400 -2.9285 -0.2190
4.4600 -2.9418 -0.2165
4.4800 -2.9552 -0.2158
4.5000 -2.9686 -0.2144
4.5200 -2.9819 -0.2146
4.5400 -2.9953 -0.2146
4.5600 -3.0086 -0.2142
4.5800 -3.0220 -0.2092
4.6000 -3.0353 -0.2107
4.6200 -3.0486 -0.2103
4.6400 -3.0619 -0.2109
4.6600 -3.0752 -0.2085
4.6800 -3.0886 -0.2090
4.7000 -3.1019 -0.2078
4.7200 -3.1152 -0.2082
4.7400 -3.1285 -0.2090
4.7600 -3.1419 -0.2058
4.7800 -3.1553 -0.2058
4.8000 -3.1686 -0.2069
4.8200 -3.1819 -0.2059
4.8400 -3.1953 -0.2065
4.8600 -3.2087 -0.2059
4.8800 -3.2220 -0.2034
4.9000 -3.2352 -0.2038
4.9200 -3.2485 -0.2062
4.9400 -3.2619 -0.2031
4.9600 -3.2753 -0.2020
4.9800 -3.2886 -0.2034
5.0000 -3.3019 -0.2021
5.0200 -3.3152 -0.2011
5.0400 -3.3286 -0.2023
5.0600 -3.3419 -0.2016
5.0800 -3.3552 -0.2012
5.1000 -3.3685 -0.2003
5.1200 -3.3819 -0.1980
5.1400 -3.3952 -0.1976
5.1600 -3.4086 -0.1993
5.1800 -3.4219 -0.1997
5.2000 -3.4353 -0.1980
5.2200 -3.4486 -0.2005
5.2400 -3.4620 -0.1975
5.2600 -3.4753 -0.1972
5.2800 -3.4886 -0.1976
5.3000 -3.5020 -0.1960
5.3200 -3.5153 -0.1929
5.3400 -3.5286 -0.1948
5.3600 -3.5419 -0.1915
5.3800 -3.5553 -0.1919
5.4000 -3.5686 -0.1910
5.4200 -3.5819 -0.1891
5.4400 -3.5952 -0.1882
5.4600 -3.6085 -0.1881
5.4800 -3.6219 -0.1878
5.5000 -3.6352 -0.1882
5.5200 -3.6485 -0.1892
5.5400 -3.6618 -0.1874
5.5600 -3.6752 -0.1855
5.5800 -3.6886 -0.1871
5.6000 -3.7020 -0.1843
5.6200 -3.7153 -0.1859
5.6400 -3.7286 -0.1842
5.6600 -3.7420 -0.1844
5.6800 -3.7553 -0.1831
5.7000 -3.7686 -0.1848
5.7200 -3.7819 -0.1835
5.7400 -3.7952 -0.1828
5.7600 -3.8086 -0.1839
5.7800 -3.8219 -0.1824
5.8000 -3.8352 -0.1813
5.8200 -3.8485 -0.1816
5.8400 -3.8619 -0.1810
5.8600 -3.8753 -0.1785
5.8800 -3.8886 -0.1821
5.9000 -3.9019 -0.1796
5.9200 -3.9152 -0.1781
5.9400 -3.9286 -0.1771
5.9600 -3.9419 -0.1773
5.9800 -3.9552 -0.1773
6.0000 -3.9686 -0.1788
6.0200 -3.9819 -0.1747
6.0400 -3.9953 -0.1757
6.0600 -4.0086 -0.1764
6.0800 -4.0220 -0.1763
6.1000 -4.0353 -0.1738
6.1200 -4.0486 -0.1748
6.1400 -4.0619 -0.1726
6.1600 -4.0752 -0.1713
6.1800 -4.0885 -0.1738
6.2000 -4.1019 -0.1742
6.2200 -4.1152 -0.1718
6.2400 -4.1286 -0.1715
6.2600 -4.1419 -0.1731
6.2800 -4.1552 -0.1715
6.3000 -4.1686 -0.1730
6.3200 -4.1820 -0.1709
6.3400 -4.1952 -0.1699
6.3600 -4.2086 -0.1701
6.3800 -4.2219 -0.1687
6.4000 -4.2353 -0.1670
6.4200 -4.2486 -0.1685
6.4400 -4.2619 -0.1680
6.4600 -4.2753 -0.1643
6.4800 -4.2886 -0.1653
6.5000 -4.3019 -0.1657
6.5200 -4.3152 -0.1664
6.5400 -4.3285 -0.1624
6.5600 -4.3419 -0.1648
6.5800 -4.3552 -0.1599
6.6000 -4.3686 -0.1637
6.6200 -4.3819 -0.1630
6.6400 -4.3952 -0.1619
6.6600 -4.4086 -0.1621
6.6800 -4.4220 -0.1611
6.7000 -4.4353 -0.1608
6.7200 -4.4486 -0.1617
6.7400 -4.4619 -0.1596
6.7600 -4.4753 -0.1564
6.7800 -4.4886 -0.1590
6.8000 -4.5019 -0.1570
6.8200 -4.5152 -0.1563
6.8400 -4.5285 -0.1554
6.8600 -4.5419 -0.1560
6.8800 -4.5551 -0.1539
6.9000 -4.5685 -0.1550
6.9200 -4.5818 -0.1526
6.9400 -4.5952 -0.1518
6.9600 -4.6086 -0.1530
6.9800 -4.6219 -0.1526
7.0000 -4.6352 -0.1507
7.0200 -4.6486 -0.1503
7.0400 -4.6620 -0.1504
7.0600 -4.6753 -0.1526
7.0800 -4.6886 -0.1513
7.1000 -4.7019 -0.1510
7.1200 -4.7153 -0.1475
7.1400 -4.7286 -0.1507
7.1600 -4.7419 -0.1506
7.1800 -4.7553 -0.1491
7.2000 -4.7686 -0.1491
7.2200 -4.7819 -0.1472
7.2400 -4.7952 -0.1465
7.2600 -4.8085 -0.1485
7.2800 -4.8219 -0.1468
7.3000 -4.8352 -0.1448
7.3200 -4.8485 -0.1443
7.3400 -4.8618 -0.1457
7.3600 -4.8752 -0.1454
7.3800 -4.8886 -0.1461
7.4000 -4.9019 -0.1421
7.4200 -4.9153 -0.1442
7.4400 -4.9286 -0.1429
7.4600 -4.9419 -0.1428
7.4800 -4.9553 -0.1393
7.5000 -4.9686 -0.1435
7.5200 -4.9819 -0.1416
7.5400 -4.9952 -0.1409
7.5600 -5.0086 -0.1411
7.5800 -5.0219 -0.1403
7.6000 -5.0352 -0.1379
7.6200 -5.0485 -0.1396
7.6400 -5.0618 -0.1405
7.6600 -5.0752 -0.1391
7.6800 -5.0886 -0.1384
7.7000 -5.1019 -0.1367
7.7200 -5.1152 -0.1370
7.7400 -5.1286 -0.1363
7.7600 -5.1420 -0.1356
7.7800 -5.1553 -0.1335
7.8000 -5.1686 -0.1340
7.8200 -5.1819 -0.1333
7.8400 -5.1953 -0.1354
7.8600 -5.2086 -0.1308
7.8800 -5.2219 -0.1333
7.9000 -5.2352 -0.1297
7.9200 -5.2485 -0.1308
7.9400 -5.2619 -0.1313
7.9600 -5.2752 -0.1319
7.9800 -5.2885 -0.1296
8.0000 -5.3019 -0.1308
8.0200 -5.3152 -0.1292
8.0400 -5.3286 -0.1307
8.0600 -5.3419 -0.1304
8.0800 -5.3553 -0.1290
8.1000 -5.3686 -0.1280
8.1200 -5.3820 -0.1266
8.1400 -5.3953 -0.1272
8.1600 -5.4086 -0.1276
8.1800 -5.4219 -0.1286
8.2000 -5.4353 -0.1272
8.2200 -5.4486 -0.1260
8.2400 -5.4619 -0.1248
8.2600 -5.4752 -0.1237
8.2800 -5.4886 -0.1238
8.3000 -5.5019 -0.1244
8.3200 -5.5152 -0.1241
8.3400 -5.5285 -0.1222
8.3600 -5.5418 -0.1217
8.3800 -5.5552 -0.1221
8.4000 -5.5686 -0.1211
8.4200 -5.5819 -0.1214
8.4400 -5.5952 -0.1195
8.4600 -5.6086 -0.1204
8.4800 -5.6220 -0.1194
8.5000 -5.6353 -0.1174
8.5200 -5.6486 -0.1162
8.5400 -5.6619 -0.1188
8.5600 -5.6753 -0.1167
8.5800 -5.6886 -0.1173
8.6000 -5.7019 -0.1152
8.6200 -5.7152 -0.1162
8.6400 -5.7286 -0.1157
8.6600 -5.7419 -0.1152
8.6800 -5.7552 -0.1147
8.7000 -5.7685 -0.1140
8.7200 -5.7818 -0.1124
8.7400 -5.7952 -0.1114
8.7600 -5.8085 -0.1103
8.7800 -5.8219 -0.1124
8.8000 -5.8352 -0.1102
8.8200 -5.8486 -0.1106
8.8400 -5.8620 -0.1109
8.8600 -5.8753 -0.1102
8.8800 -5.8886 -0.1107
8.9000 -5.9020 -0.1108
8.9200 -5.9153 -0.1098
8.9400 -5.9286 -0.1084
8.9600 -5.9419 -0.1083
8.9800 -5.9552 -0.1079
9.0000 -5.9686 -0.1066
9.0200 -5.9819 -0.1079
9.0400 -5.9952 -0.1087
9.0600 -6.0085 -0.1071
9.0800 -6.0219 -0.1055
9.1000 -6.0352 -0.1053
9.1200 -6.0486 -0.1029
9.1400 -6.0619 -0.1049
9.1600 -6.0752 -0.1039
9.1800 -6.0886 -0.1013
9.2000 -6.1020 -0.1039
9.2200 -6.1153 -0.1037
9.2400 -6.1285 -0.1043
9.2600 -6.1419 -0.1034
9.2800 -6.1552 -0.1031
9.3000 -6.1686 -0.0997
9.3200 -6.1819 -0.1025
9.3400 -6.1952 -0.0995
9.3600 -6.2086 -0.1013
9.3800 -6.2219 -0.1006
9.4000 -6.2353 -0.0993
9.4200 -6.2485 -0.0989
9.4400 -6.2619 -0.0991
9.4600 -6.2752 -0.0982
9.4800 -6.2886 -0.0980
9.5000 -6.3019 -0.0978
9.5200 -6.3152 -0.0970
9.5400 -6.3286 -0.0970
9.5600 -6.3420 -0.0956
9.5800 -6.3553 -0.0953
9.6000 -6.3686 -0.0957
9.6200 -6.3819 -0.0944
9.6400 -6.3953 -0.0941
9.6600 -6.4087 -0.0945
9.6800 -6.4220 -0.0935
9.7000 -6.4352 -0.0937
9.7200 -6.4486 -0.0926
9.7400 -6.4619 -0.0905
9.7600 -6.4752 -0.0911
9.7800 -6.4885 -0.0910
9.8000 -6.5018 -0.0899
9.8200 -6.5152 -0.0902
9.8400 -6.5286 -0.0914
9.8600 -6.5419 -0.0910
9.8800 -6.5552 -0.0902
9.9000 -6.5686 -0.0908
9.9200 -6.5820 -0.0896
9.9400 -6.5953 -0.0892
9.9600 -6.6086 -0.0869
9.9800 -6.6219 -0.0868
10.0000 -6.6353 -0.0890
10.0200 -6.6486 -0.0870
10.0400 -6.6619 -0.0883
10.0600 -6.6752 -0.0864
10.0800 -6.6886 -0.0832
10.1000 -6.7019 -0.0855
10.1200 -6.7152 -0.0839
10.1400 -6.7285 -0.0848
10.1600 -6.7418 -0.0825
10.1800 -6.7552 -0.0805
10.2000 -6.7686 -0.0797
10.2200 -6.7819 -0.0829
10.2400 -6.7952 -0.0793
10.2600 -6.8086 -0.0814
10.2800 -6.8219 -0.0804
10.3000 -6.8353 -0.0811
10.3200 -6.8486 -0.0781
10.3400 -6.8619 -0.0818
10.3600 -6.8753 -0.0793
10.3800 -6.8886 -0.0792
10.4000 -6.9020 -0.0778
10.4200 -6.9153 -0.0768
10.4400 -6.9286 -0.0774
10.4600 -6.9420 -0.0782
10.4800 -6.9553 -0.0780
10.5000 -6.9685 -0.0778
10.5200 -6.9819 -0.0760
10.5400 -6.9952 -0.0742
10.5600 -7.0086 -0.0743
10.5800 -7.0219 -0.0747
10.6000 -7.0352 -0.0747
10.6200 -7.0486 -0.0729
10.6400 -7.0620 -0.0735
10.6600 -7.0753 -0.0713
10.6800 -7.0886 -0.0732
10.7000 -7.1019 -0.0722
10.7200 -7.1152 -0.0719
10.7400 -7.1286 -0.0707
10.7600 -7.1419 -0.0709
10.7800 -7.1552 -0.0695
10.8000 -7.1686 -0.0694
10.8200 -7.1819 -0.0675
10.8400 -7.1952 -0.0695
10.8600 -7.2085 -0.0685
10.8800 -7.2218 -0.0693
10.9000 -7.2352 -0.0684
10.9200 -7.2486 -0.0689
10.9400 -7.2619 -0.0682
10.9600 -7.2752 -0.0675
10.9800 -7.2885 -0.0652
11.0000 -7.3019 -0.0677
11.0200 -7.3153 -0.0664
11.0400 -7.3286 -0.0663
11.0600 -7.3419 -0.0638
11.0800 -7.3553 -0.0657
11.1000 -7.3686 -0.0618
11.1200 -7.3819 -0.0625
11.1400 -7.3952 -0.0625
11.1600 -7.4086 -0.0634
11.1800 -7.4219 -0.0625
11.2000 -7.4352 -0.0624
11.2200 -7.4485 -0.0602
11.2400 -7.4619 -0.0621
11.2600 -7.4752 -0.0615
11.2800 -7.4886 -0.0615
11.3000 -7.5019 -0.0596
11.3200 -7.5152 -0.0608
11.3400 -7.5286 -0.0589
11.3600 -7.5420 -0.0582
11.3800 -7.5553 -0.0586
11.4000 -7.5686 -0.0584
11.4200 -7.5819 -0.0563
11.4400 -7.5953 -0.0566
11.4600 -7.6086 -0.0557
11.4800 -7.6220 -0.0577
11.5000 -7.6353 -0.0596
11.5200 -7.6486 -0.0561
11.5400 -7.6620 -0.0560
11.5600 -7.6753 -0.0538
11.5800 -7.6886 -0.0557
11.6000 -7.7019 -0.0540
11.6200 -7.7152 -0.0547
11.6400 -7.7285 -0.0522
11.6600 -7.7419 -0.0520
11.6800 -7.7552 -0.0502
11.7000 -7.7685 -0.0513
11.7200 -7.7819 -0.0511
11.7400 -7.7953 -0.0515
11.7600 -7.8086 -0.0497
11.7800 -7.8219 -0.0484
11.8000 -7.8353 -0.0490
11.8200 -7.8487 -0.0479
11.8400 -7.8620 -0.0482
11.8600 -7.8753 -0.0495
11.8800 -7.8886 -0.0483
11.9000 -7.9019 -0.0468
11.9200 -7.9152 -0.0451
11.9400 -7.9285 -0.0459
11.9600 -7.9418 -0.0436
11.9800 -7.9552 -0.0453
12.0000 -7.9686 -0.0432
12.0200 -7.9819 -0.0457
12.0400 -7.9952 -0.0450
12.0600 -8.0086 -0.0460
12.0800 -8.0220 -0.0426
12.1000 -8.0353 -0.0442
12.1200 -8.0486 -0.0411
12.1400 -8.0619 -0.0426
12.1600 -8.0752 -0.0429
12.1800 -8.0886 -0.0414
12.2000 -8.1019 -0.0408
12.2200 -8.1152 -0.0409
12.2400 -8.1286 -0.0387
12.2600 -8.1419 -0.0396
12.2800 -8.1553 -0.0408
12.3000 -8.1686 -0.0392
12.3200 -8.1819 -0.0392
12.3400 -8.1952 -0.0367
12.3600 -8.2086 -0.0382
12.3800 -8.2219 -0.0370
12.4000 -8.2352 -0.0390
12.4200 -8.2486 -0.0385
12.4400 -8.2619 -0.0368
12.4600 -8.2753 -0.0369
12.4800 -8.2886 -0.0376
12.5000 -8.3019 -0.0355
12.5200 -8.3153 -0.0360
12.5400 -8.3286 -0.0352
12.5600 -8.3420 -0.0339
12.5800 -8.3553 -0.0343
12.6000 -8.3686 -0.0347
12.6200 -8.3819 -0.0330
12.6400 -8.3952 -0.0335
12.6600 -8.4085 -0.0338
12.6800 -8.4218 -0.0327
12.7000 -8.4351 -0.0332
12.7200 -8.4485 -0.0321
12.7400 -8.4619 -0.0307
12.7600 -8.4752 -0.0324
12.7800 -8.4885 -0.0312
12.8000 -8.5019 -0.0309
12.8200 -8.5153 -0.0279
12.8400 -8.5286 -0.0285
12.8600 -8.5419 -0.0277
12.8800 -8.5552 -0.0281
12.9000 -8.5686 -0.0292
12.9200 -8.5820 -0.0262
12.9400 -8.5953 -0.0257
12.9600 -8.6086 -0.0250
12.9800 -8.6219 -0.0240
13.0000 -8.6353 -0.0265
13.0200 -8.6486 -0.0248
13.0400 -8.6619 -0.0245
13.0600 -8.6752 -0.0251
13.0800 -8.6886 -0.0240
13.1000 -8.7019 -0.0237
13.1200 -8.7152 -0.0252
13.1400 -8.7285 -0.0241
13.1600 -8.7419 -0.0216
13.1800 -8.7553 -0.0212
13.2000 -8.7686 -0.0215
13.2200 -8.7819 -0.0213
13.2400 -8.7953 -0.0210
13.2600 -8.8086 -0.0224
13.2800 -8.8220 -0.0195
13.3000 -8.8353 -0.0192
13.3200 -8.8486 -0.0212
13.3400 -8.8620 -0.0197
13.3600 -8.8753 -0.0195
13.3800 -8.8886 -0.0187
13.4000 -8.9019 -0.0186
13.4200 -8.9152 -0.0191
13.4400 -8.9286 -0.0189
13.4600 -8.9419 -0.0148
13.4800 -8.9552 -0.0154
13.5000 -8.9685 -0.0182
13.5200 -8.9819 -0.0152
13.5400 -8.9953 -0.0145
13.5600 -9.0086 -0.0148
13.5800 -9.0219 -0.0133
13.6000 -9.0352 -0.0161
13.6200 -9.0486 -0.0161
13.6400 -9.0620 -0.0131
13.6600 -9.0753 -0.0111
13.6800 -9.0886 -0.0122
13.7000 -9.1020 -0.0107
13.7200 -9.1153 -0.0117
13.7400 -9.1286 -0.0129
13.7600 -9.1419 -0.0110
13.7800 -9.1552 -0.0106
13.8000 -9.1685 -0.0093
13.8200 -9.1819 -0.0066
13.8400 -9.1952 -0.0077
13.8600 -9.2085 -0.0088
13.8800 -9.2219 -0.0093
13.9000 -9.2353 -0.0068
13.9200 -9.2486 -0.0106
13.9400 -9.2620 -0.0064
13.9600 -9.2753 -0.0069
13.9800 -9.2886 -0.0058
14.0000 -9.3020 -0.0048
14.0200 -9.3153 -0.0039
14.0400 -9.3285 -0.0059
14.0600 -9.3419 -0.0042
14.0800 -9.3552 -0.0030
14.1000 -9.3685 -0.0042
14.1200 -9.3818 -0.0030
14.1400 -9.3952 -0.0031
14.1600 -9.4085 -0.0021
14.1800 -9.4219 -0.0019
14.2000 -9.4352 -0.0028
14.2200 -9.4486 -0.0023
14.2400 -9.4619 -0.0011
14.2600 -9.4753 0.0006
14.2800 -9.4886 0.0022
14.3000 -9.5019 0.0002
14.3200 -9.5153 0.0014
14.3400 -9.5286 0.0007
14.3600 -9.5420 0.0049
14.3800 -9.5553 0.0052
14.4000 -9.5686 0.0035
14.4200 -9.5819 0.0037
14.4400 -9.5953 0.0048
14.4600 -9.6086 0.0022
14.4800 -9.6219 0.0037
14.5000 -9.6352 0.0035
14.5200 -9.6485 0.0035
14.5400 -9.6619 0.0044
14.5600 -9.6752 0.0061
14.5800 -9.6885 0.0043
14.6000 -9.7019 0.0076
14.6200 -9.7153 0.0063
14.6400 -9.7286 0.0073
14.6600 -9.7419 0.0058
14.6800 -9.7553 0.0074
14.7000 -9.7686 0.0058
14.7200 -9.7820 0.0091
14.7400 -9.7953 0.0086
14.7600 -9.8086 0.0098
14.7800 -9.8219 0.0114
14.8000 -9.8353 0.0132
14.8200 -9.8486 0.0106
14.8400 -9.8618 0.0143
14.8600 -9.8751 0.0121
14.8800 -9.8885 0.0148
14.9000 -9.9019 0.0147
14.9200 -9.9152 0.0135
14.9400 -9.9286 0.0136
14.9600 -9.9419 0.0145
14.9800 -9.9553 0.0144
15.0000 -9.9686 0.0124
15.0200 -9.9819 0.0126
15.0400 -9.9952 0.0138
15.0600 -10.0086 0.0161
15.0800 -10.0220 0.0187
15.1000 -10.0353 0.0162
15.1200 -10.0486 0.0148
15.1400 -10.0619 0.0181
15.1600 -10.0752 0.0170
15.1800 -10.0885 0.0175
15.2000 -10.1018 0.0186
15.2200 -10.1152 0.0194
15.2400 -10.1285 0.0191
15.2600 -10.1419 0.0195
15.2800 -10.1553 0.0206
15.3000 -10.1686 0.0212
15.3200 -10.1819 0.0222
15.3400 -10.1953 0.0235
15.3600 -10.2086 0.0208
15.3800 -10.2219 0.0225
15.4000 -10.2353 0.0215
15.4200 -10.2486 0.0227
15.4400 -10.2620 0.0253
15.4600 -10.2753 0.0253
15.4800 -10.2886 0.0240
15.5000 -10.3019 0.0258
15.5200 -10.3152 0.0273
15.5400 -10.3286 0.0264
15.5600 -10.3418 0.0260
15.5800 -10.3552 0.0279
15.6000 -10.3685 0.0253
15.6200 -10.3819 0.0283
15.6400 -10.3952 0.0271
15.6600 -10.4085 0.0263
15.6800 -10.4219 0.0279
15.7000 -10.4353 0.0289
15.7200 -10.4487 0.0275
15.7400 -10.4620 0.0287
15.7600 -10.4753 0.0282
15.7800 -10.4886 0.0281
15.8000 -10.5020 0.0283
15.8200 -10.5153 0.0321
15.8400 -10.5286 0.0289
15.8600 -10.5419 0.0318
15.8800 -10.5552 0.0322
15.9000 -10.5686 0.0309
15.9200 -10.5818 0.0323
15.9400 -10.5951 0.0337
15.9600 -10.6085 0.0330
15.9800 -10.6219 0.0349
16.0000 -10.6352 0.0354
16.0200 -10.6485 0.0368
16.0400 -10.6619 0.0370
16.0600 -10.6753 0.0388
16.0800 -10.6886 0.0351
16.1000 -10.7020 0.0350
16.1200 -10.7153 0.0381
16.1400 -10.7286 0.0382
16.1600 -10.7420 0.0394
16.1800 -10.7553 0.0408
16.2000 -10.7686 0.0388
16.2200 -10.7819 0.0412
16.2400 -10.7952 0.0431
16.2600 -10.8085 0.0416
16.2800 -10.8218 0.0413
16.3000 -10.8351 0.0410
16.3200 -10.8485 0.0404
16.3400 -10.8619 0.0400
16.3600 -10.8752 0.0427
16.3800 -10.8886 0.0396
16.4000 -10.9019 0.0439
16.4200 -10.9153 0.0448
16.4400 -10.9286 0.0439
16.4600 -10.9419 0.0435
16.4800 -10.9552 0.0460
16.5000 -10.9685 0.0444
16.5200 -10.9819 0.0471
16.5400 -10.9953 0.0483
16.5600 -11.0086 0.0480
16.5800 -11.0219 0.0473
16.6000 -11.0353 0.0484
16.6200 -11.0486 0.0482
16.6400 -11.0619 0.0495
16.6600 -11.0752 0.0501
16.6800 -11.0886 0.0483
16.7000 -11.1019 0.0485
16.7200 -11.1152 0.0518
16.7400 -11.1286 0.0481
16.7600 -11.1419 0.0492
16.7800 -11.1553 0.0488
16.8000 -11.1687 0.0515
16.8200 -11.1820 0.0512
16.8400 -11.1953 0.0531
16.8600 -11.2086 0.0499
16.8800 -11.2220 0.0520
16.9000 -11.2353 0.0546
16.9200 -11.2486 0.0535
16.9400 -11.2619 0.0533
16.9600 -11.2752 0.0545
16.9800 -11.2886 0.0535
17.0000 -11.3019 0.0545
17.0200 -11.3152 0.0547
17.0400 -11.3285 0.0547
17.0600 -11.3419 0.0559
17.0800 -11.3552 0.0572
17.1000 -11.3686 0.0564
17.1200 -11.3819 0.0555
17.1400 -11.3953 0.0570
17.1600 -11.4086 0.0563
17.1800 -11.4219 0.0571
17.2000 -11.4352 0.0586
17.2200 -11.4486 0.0592
17.2400 -11.4620 0.0587
17.2600 -11.4753 0.0614
17.2800 -11.4886 0.0568
17.3000 -11.5019 0.0603
17.3200 -11.5152 0.0598
17.3400 -11.5286 0.0599
17.3600 -11.5419 0.0590
17.3800 -11.5552 0.0638
17.4000 -11.5685 0.0623
17.4200 -11.5819 0.0630
17.4400 -11.5952 0.0630
17.4600 -11.6085 0.0625
17.4800 -11.6219 0.0635
17.5000 -11.6352 0.0645
17.5200 -11.6486 0.0645
17.5400 -11.6619 0.0647
17.5600 -11.6752 0.0682
17.5800 -11.6886 0.0640
17.6000 -11.7019 0.0653
17.6200 -11.7153 0.0675
17.6400 -11.7286 0.0663
17.6600 -11.7419 0.0669
17.6800 -11.7553 0.0705
17.7000 -11.7686 0.0677
17.7200 -11.7819 0.0706
17.7400 -11.7952 0.0710
17.7600 -11.8085 0.0687
17.7800 -11.8219 0.0701
17.8000 -11.8352 0.0726
17.8200 -11.8486 0.0686
17.8400 -11.8619 0.0702
17.8600 -11.8753 0.0728
17.8800 -11.8886 0.0721
17.9000 -11.9020 0.0730
17.9200 -11.9152 0.0743
17.9400 -11.9286 0.0730
17.9600 -11.9419 0.0732
17.9800 -11.9553 0.0750
18.0000 -11.9686 0.0744
18.0200 -11.9819 0.0757
18.0400 -11.9952 0.0775
18.0600 -12.0086 0.0742
18.0800 -12.0219 0.0754
18.1000 -12.0352 0.0793
18.1200 -12.0485 0.0763
18.1400 -12.0619 0.0755
18.1600 -12.0753 0.0765
18.1800 -12.0886 0.0771
18.2000 -12.1019 0.0794
18.2200 -12.1153 0.0811
18.2400 -12.1286 0.0771
18.2600 -12.1419 0.0778
18.2800 -12.1552 0.0801
18.3000 -12.1686 0.0799
18.3200 -12.1819 0.0784
18.3400 -12.1953 0.0808
18.3600 -12.2086 0.0779
18.3800 -12.2219 0.0822
18.4000 -12.2352 0.0833
18.4200 -12.2486 0.0815
18.4400 -12.2619 0.0792
18.4600 -12.2752 0.0827
18.4800 -12.2885 0.0823
18.5000 -12.3019 0.0842
18.5200 -12.3153 0.0861
18.5400 -12.3286 0.0833
18.5600 -12.3419 0.0832
18.5800 -12.3553 0.0849
18.6000 -12.3686 0.0849
18.6200 -12.3820 0.0852
18.6400 -12.3953 0.0861
18.6600 -12.4086 0.0851
18.6800 -12.4219 0.0875
18.7000 -12.4353 0.0908
18.7200 -12.4486 0.0885
18.7400 -12.4619 0.0877
18.7600 -12.4753 0.0893
18.7800 -12.4886 0.0874
18.8000 -12.5019 0.0887
18.8200 -12.5152 0.0932
18.8400 -12.5285 0.0909
18.8600 -12.5419 0.0928
18.8800 -12.5552 0.0922
18.9000 -12.5685 0.0918
18.9200 -12.5818 0.0911
18.9400 -12.5952 0.0950
18.9600 -12.6086 0.0911
18.9800 -12.6220 0.0936
19.0000 -12.6353 0.0945
19.0200 -12.6486 0.0957
19.0400 -12.6620 0.0952
19.0600 -12.6753 0.0979
19.0800 -12.6886 0.0958
19.1000 -12.7019 0.0955
19.1200 -12.7152 0.0997
19.1400 -12.7286 0.0971
19.1600 -12.7419 0.0997
19.1800 -12.7552 0.1003
19.2000 -12.7685 0.0990
19.2200 -12.7819 0.1001
19.2400 -12.7953 0.1028
19.2600 -12.8086 0.1005
19.2800 -12.8219 0.1008
19.3000 -12.8353 0.1010
19.3200 -12.8486 0.1006
19.3400 -12.8620 0.0990
19.3600 -12.8753 0.1028
19.3800 -12.8886 0.1017
19.4000 -12.9019 0.1005
19.4200 -12.9153 0.1022
19.4400 -12.9286 0.1028
19.4600 -12.9419 0.1043
19.4800 -12.9552 0.1057
19.5000 -12.9686 0.1047
19.5200 -12.9819 0.1057
19.5400 -12.9952 0.1070
19.5600 -13.0085 0.1075
19.5800 -13.0219 0.1057
19.6000 -13.0352 0.1079
19.6200 -13.0486 0.1059
19.6400 -13.0619 0.1053
19.6600 -13.0752 0.1073
19.6800 -13.0886 0.1072
19.7000 -13.1020 0.1076
19.7200 -13.1153 0.1109
19.7400 -13.1286 0.1064
19.7600 -13.1420 0.1072
19.7800 -13.1553 0.1081
19.8000 -13.1686 0.1109
19.8200 -13.1819 0.1100
19.8400 -13.1953 0.1132
19.8600 -13.2086 0.1119
19.8800 -13.2219 0.1106
19.9000 -13.2352 0.1143
19.9200 -13.2485 0.1118
19.9400 -13.2618 0.1114
19.9600 -13.2752 0.1129
19.9800 -13.2885 0.1133
20.0000 -13.3019 0.1130
20.0200 -13.3152 0.1148
20.0400 -13.3286 0.1152
20.0600 -13.3420 0.1156
20.0800 -13.3553 0.1158
20.1000 -13.3686 0.1156
20.1200 -13.3820 0.1125
20.1400 -13.3953 0.1171
20.1600 -13.4086 0.1159
20.1800 -13.4219 0.1153
20.2000 -13.4352 0.1191
20.2200 -13.4486 0.1193
20.2400 -13.4619 0.1161
20.2600 -13.4752 0.1209
20.2800 -13.4885 0.1199
20.3000 -13.5019 0.1211
20.3200 -13.5152 0.1214
20.3400 -13.5286 0.1222
20.3600 -13.5419 0.1194
20.3800 -13.5552 0.1239
20.4000 -13.5686 0.1234
20.4200 -13.5819 0.1243
20.4400 -13.5953 0.1260
20.4600 -13.6086 0.1260
20.4800 -13.6219 0.1237
20.5000 -13.6353 0.1287
20.5200 -13.6486 0.1259
20.5400 -13.6619 0.1264
20.5600 -13.6753 0.1302
20.5800 -13.6886 0.1275
20.6000 -13.7019 0.1272
20.6200 -13.7152 0.1286
20.6400 -13.7285 0.1305
20.6600 -13.7419 0.1283
20.6800 -13.7552 0.1315
20.7000 -13.7686 0.1320
20.7200 -13.7819 0.1301
20.7400 -13.7952 0.1305
20.7600 -13.8086 0.1287
20.7800 -13.8219 0.1293
20.8000 -13.8352 0.1315
20.8200 -13.8486 0.1304
20.8400 -13.8619 0.1318
20.8600 -13.8753 0.1324
20.8800 -13.8886 0.1328
20.9000 -13.9020 0.1309
20.9200 -13.9153 0.1319
20.9400 -13.9286 0.1349
20.9600 -13.9419 0.1348
20.9800 -13.9552 0.1356
21.0000 -13.9685 0.1354
21.0200 -13.9819 0.1343
21.0400 -13.9952 0.1367
21.0600 -14.0085 0.1359
21.0800 -14.0218 0.1360
21.1000 -14.0352 0.1367
21.1200 -14.0486 0.1376
21.1400 -14.0620 0.1354
21.1600 -14.0753 0.1407
21.1800 -14.0886 0.1368
21.2000 -14.1020 0.1379
21.2200 -14.1153 0.1383
21.2400 -14.1287 0.1404
21.2600 -14.1419 0.1374
21.2800 -14.1552 0.1401
21.3000 -14.1686 0.1401
21.3200 -14.1819 0.1389
21.3400 -14.1952 0.1426
21.3600 -14.2085 0.1409
21.3800 -14.2218 0.1411
21.4000 -14.2352 0.1425
21.4200 -14.2486 0.1429
21.4400 -14.2619 0.1405
21.4600 -14.2752 0.1440
21.4800 -14.2886 0.1434
21.5000 -14.3020 0.1431
21.5200 -14.3153 0.1442
21.5400 -14.3286 0.1474
21.5600 -14.3419 0.1430
21.5800 -14.3553 0.1462
21.6000 -14.3686 0.1454
21.6200 -14.3819 0.1463
21.6400 -14.3953 0.1485
21.6600 -14.4086 0.1488
21.6800 -14.4220 0.1469
21.7000 -14.4353 0.1485
21.7200 -14.4485 0.1501
21.7400 -14.4619 0.1482
21.7600 -14.4752 0.1507
21.7800 -14.4885 0.1499
21.8000 -14.5018 0.1478
21.8200 -14.5152 0.1518
21.8400 -14.5286 0.1527
21.8600 -14.5420 0.1522
21.8800 -14.5553 0.1540
21.9000 -14.5686 0.1534
21.9200 -14.5819 0.1533
21.9400 -14.5953 0.1552
21.9600 -14.6086 0.1564
21.9800 -14.6219 0.1534
22.0000 -14.6352 0.1564
22.0200 -14.6485 0.1562
22.0400 -14.6619 0.1551
22.0600 -14.6752 0.1566
22.0800 -14.6885 0.1594
22.1000 -14.7018 0.1558
22.1200 -14.7152 0.1598
22.1400 -14.7286 0.1583
22.1600 -14.7419 0.1574
22.1800 -14.7552 0.1605
22.2000 -14.7686 0.1610
22.2200 -14.7820 0.1602
22.2400 -14.7953 0.1577
22.2600 -14.8086 0.1608
22.2800 -14.8219 0.1580
22.3000 -14.8353 0.1617
22.3200 -14.8486 0.1628
22.3400 -14.8619 0.1605
22.3600 -14.8752 0.1631
22.3800 -14.8885 0.1645
22.4000 -14.9019 0.1631
22.4200 -14.9152 0.1647
22.4400 -14.9285 0.1671
22.4600 -14.9419 0.1644
22.4800 -14.9552 0.1685
22.5000 -14.9686 0.1676
22.5200 -14.9819 0.1670
22.5400 -14.9953 0.1672
22.5600 -15.0086 0.1683
22.5800 -15.0220 0.1663
22.6000 -15.0353 0.1721
22.6200 -15.0486 0.1701
22.6400 -15.0619 0.1705
22.6600 -15.0753 0.1704
22.6800 -15.0886 0.1705
22.7000 -15.1019 0.1691
22.7200 -15.1152 0.1719
22.7400 -15.1286 0.1715
22.7600 -15.1419 0.1716
22.7800 -15.1552 0.1720
22.8000 -15.1685 0.1739
22.8200 -15.1818 0.1741
22.8400 -15.1952 0.1751
22.8600 -15.2086 0.1755
22.8800 -15.2219 0.1736
22.9000 -15.2352 0.1758
22.9200 -15.2486 0.1760
22.9400 -15.2620 0.1746
22.9600 -15.2753 0.1776
22.9800 -15.2886 0.1786
23.0000 -15.3019 0.1770
23.0200 -15.3153 0.1768
23.0400 -15.3286 0.1781
23.0600 -15.3420 0.1775
23.0800 -15.3553 0.1789
23.1000 -15.3686 0.1794
23.1200 -15.3819 0.1772
23.1400 -15.3952 0.1772
23.1600 -15.4085 0.1787
23.1800 -15.4218 0.1801
23.2000 -15.4352 0.1806
23.2200 -15.4485 0.1841
23.2400 -15.4619 0.1812
23.2600 -15.4752 0.1830
23.2800 -15.4886 0.1825
23.3000 -15.5020 0.1818
23.3200 -15.5153 0.1827
23.3400 -15.5286 0.1858
23.3600 -15.5419 0.1804
23.3800 -15.5553 0.1845
23.4000 -15.5686 0.1855
23.4200 -15.5819 0.1849
23.4400 -15.5952 0.1849
23.4600 -15.6086 0.1854
23.4800 -15.6219 0.1849
23.5000 -15.6352 0.1850
23.5200 -15.6485 0.1874
23.5400 -15.6618 0.1864
23.5600 -15.6752 0.1845
23.5800 -15.6886 0.1869
23.6000 -15.7019 0.1850
23.6200 -15.7152 0.1876
23.6400 -15.7286 0.1901
23.6600 -15.7420 0.1906
23.6800 -15.7553 0.1889
23.7000 -15.7686 0.1911
23.7200 -15.7819 0.1884
23.7400 -15.7952 0.1912
23.7600 -15.8086 0.1936
23.7800 -15.8219 0.1919
23.8000 -15.8353 0.1924
23.8200 -15.8486 0.1931
23.8400 -15.8620 0.1915
23.8600 -15.8753 0.1933
23.8800 -15.8886 0.1963
23.9000 -15.9019 0.1929
23.9200 -15.9152 0.1949
23.9400 -15.9286 0.1959
23.9600 -15.9419 0.1953
23.9800 -15.9552 0.1942
24.0000 -15.9686 0.1979
24.0200 -15.9819 0.1963
24.0400 -15.9953 0.1990
24.0600 -16.0086 0.1987
24.0800 -16.0220 0.1977
24.1000 -16.0353 0.1972
24.1200 -16.0487 0.1989
24.1400 -16.0620 0.1968
24.1600 -16.0753 0.2001
24.1800 -16.0886 0.2019
24.2000 -16.1019 0.2001
24.2200 -16.1152 0.2018
24.2400 -16.1285 0.2017
24.2600 -16.1418 0.2005
24.2800 -16.1552 0.2028
24.3000 -16.1686 0.2020
24.3200 -16.1819 0.2021
24.3400 -16.1952 0.2014
24.3600 -16.2086 0.2052
24.3800 -16.2219 0.2044
24.4000 -16.2353 0.2063
24.4200 -16.2486 0.2058
24.4400 -16.2619 0.2042
24.4600 -16.2753 0.2044
24.4800 -16.2886 0.2080
24.5000 -16.3020 0.2056
24.5200 -16.3153 0.2067
24.5400 -16.3286 0.2069
24.5600 -16.3419 0.2077
24.5800 -16.3553 0.2073
24.6000 -16.3685 0.2098
24.6200 -16.3818 0.2100
24.6400 -16.3952 0.2105
24.6600 -16.4086 0.2121
24.6800 -16.4219 0.2106
24.7000 -16.4352 0.2090
24.7200 -16.4485 0.2115
24.7400 -16.4619 0.2115
24.7600 -16.4753 0.2118
24.7800 -16.4886 0.2122
24.8000 -16.5019 0.2107
24.8200 -16.5152 0.2132
24.8400 -16.5286 0.2139
24.8600 -16.5420 0.2143
24.8800 -16.5553 0.2136
24.9000 -16.5686 0.2152
24.9200 -16.5820 0.2123
24.9400 -16.5953 0.2144
24.9600 -16.6086 0.2176
24.9800 -16.6219 0.2156
25.0000 -16.6352 0.2142
25.0200 -16.6486 0.2184
25.0400 -16.6619 0.2161
25.0600 -16.6752 0.2169
25.0800 -16.6886 0.2175
25.1000 -16.7020 0.2173
25.1200 -16.7153 0.2192
25.1400 -16.7286 0.2199
25.1600 -16.7419 0.2205
25.1800 -16.7553 0.2214
25.2000 -16.7686 0.2233
25.2200 -16.7819 0.2232
25.2400 -16.7952 0.2222
25.2600 -16.8086 0.2249
25.2800 -16.8219 0.2228
25.3000 -16.8352 0.2228
25.3200 -16.8485 0.2228
25.3400 -16.8618 0.2241
25.3600 -16.8752 0.2239
25.3800 -16.8886 0.2275
25.4000 -16.9019 0.2256
25.4200 -16.9152 0.2263
25.4400 -16.9286 0.2273
25.4600 -16.9419 0.2283
25.4800 -16.9553 0.2295
25.5000 -16.9686 0.2303
25.5200 -16.9819 0.2292
25.5400 -16.9952 0.2277
25.5600 -17.0085 0.2302
25.5800 -17.0219 0.2303
25.6000 -17.0352 0.2317
25.6200 -17.0485 0.2321
25.6400 -17.0619 0.2312
25.6600 -17.0752 0.2300
25.6800 -17.0885 0.2337
25.7000 -17.1019 0.2355
25.7200 -17.1152 0.2344
25.7400 -17.1286 0.2359
25.7600 -17.1419 0.2338
25.7800 -17.1552 0.2321
25.8000 -17.1686 0.2352
25.8200 -17.1819 0.2357
25.8400 -17.1953 0.2359
25.8600 -17.2086 0.2349
25.8800 -17.2219 0.2336
25.9000 -17.2352 0.2338
25.9200 -17.2486 0.2362
25.9400 -17.2619 0.2342
25.9600 -17.2753 0.2334
25.9800 -17.2886 0.2357
26.0000 -17.3020 0.2377
26.0200 -17.3153 0.2366
26.0400 -17.3285 0.2382
26.0600 -17.3418 0.2393
26.0800 -17.3552 0.2360
26.1000 -17.3686 0.2383
26.1200 -17.3819 0.2388
26.1400 -17.3952 0.2392
26.1600 -17.4086 0.2403
26.1800 -17.4219 0.2385
26.2000 -17.4353 0.2401
26.2200 -17.4486 0.2414
26.2400 -17.4619 0.2416
26.2600 -17.4753 0.2405
26.2800 -17.4887 0.2434
26.3000 -17.5020 0.2428
26.3200 -17.5153 0.2421
26.3400 -17.5286 0.2443
26.3600 -17.5419 0.2416
26.3800 -17.5553 0.2426
26.4000 -17.5686 0.2471
26.4200 -17.5819 0.2480
26.4400 -17.5952 0.2468
26.4600 -17.6086 0.2489
26.4800 -17.6219 0.2479
26.5000 -17.6353 0.2475
26.5200 -17.6486 0.2485
26.5400 -17.6619 0.2495
26.5600 -17.6753 0.2459
26.5800 -17.6886 0.2512
26.6000 -17.7019 0.2494
26.6200 -17.7152 0.2506
26.6400 -17.7286 0.2494
26.6600 -17.7420 0.2539
26.6800 -17.7553 0.2524
26.7000 -17.7686 0.2550
26.7200 -17.7819 0.2538
26.7400 -17.7953 0.2535
26.7600 -17.8085 0.2552
26.7800 -17.8218 0.2544
26.8000 -17.8352 0.2552
26.8200 -17.8485 0.2541
26.8400 -17.8619 0.2562
26.8600 -17.8752 0.2541
26.8800 -17.8885 0.2573
26.9000 -17.9019 0.2552
26.9200 -17.9153 0.2580
26.9400 -17.9286 0.2567
26.9600 -17.9419 0.2586
26.9800 -17.9553 0.2575
27.0000 -17.9686 0.2600
27.0200 -17.9820 0.2586
27.0400 -17.9953 0.2569
27.0600 -18.0086 0.2598
27.0800 -18.0219 0.2604
27.1000 -18.0353 0.2595
27.1200 -18.0486 0.2612
27.1400 -18.0618 0.2600
27.1600 -18.0751 0.2597
27.1800 -18.0885 0.2657
27.2000 -18.1019 0.2641
27.2200 -18.1152 0.2606
27.2400 -18.1285 0.2626
27.2600 -18.1419 0.2612
27.2800 -18.1553 0.2641
27.3000 -18.1686 0.2643
27.3200 -18.1819 0.2645
27.3400 -18.1953 0.2623
27.3600 -18.2086 0.2655
27.3800 -18.2220 0.2654
27.4000 -18.2353 0.2646
27.4200 -18.2486 0.2648
27.4400 -18.2619 0.2660
27.4600 -18.2753 0.2650
27.4800 -18.2886 0.2661
27.5000 -18.3019 0.2659
27.5200 -18.3152 0.2654
27.5400 -18.3286 0.2682
27.5600 -18.3419 0.2698
27.5800 -18.3552 0.2691
27.6000 -18.3685 0.2701
27.6200 -18.3819 0.2694
27.6400 -18.3953 0.2705
27.6600 -18.4086 0.2730
27.6800 -18.4219 0.2734
27.7000 -18.4352 0.2728
27.7200 -18.4486 0.2730
27.7400 -18.4620 0.2741
27.7600 -18.4753 0.2710
27.7800 -18.4886 0.2728
27.8000 -18.5020 0.2728
27.8200 -18.5153 0.2747
27.8400 -18.5286 0.2749
27.8600 -18.5419 0.2765
27.8800 -18.5552 0.2741
27.9000 -18.5685 0.2764
27.9200 -18.5819 0.2772
27.9400 -18.5952 0.2770
27.9600 -18.6085 0.2764
27.9800 -18.6219 0.2788
28.0000 -18.6353 0.2774
28.0200 -18.6486 0.2816
28.0400 -18.6619 0.2798
28.0600 -18.6752 0.2813
28.0800 -18.6886 0.2824
28.1000 -18.7020 0.2836
28.1200 -18.7153 0.2818
28.1400 -18.7286 0.2847
28.1600 -18.7419 0.2833
28.1800 -18.7553 0.2830
28.2000 -18.7686 0.2846
28.2200 -18.7819 0.2875
28.2400 -18.7952 0.2834
28.2600 -18.8085 0.2851
28.2800 -18.8219 0.2842
28.3000 -18.8352 0.2842
28.3200 -18.8485 0.2857
28.3400 -18.8619 0.2876
28.3600 -18.8753 0.2869
28.3800 -18.8886 0.2885
28.4000 -18.9020 0.2880
28.4200 -18.9153 0.2866
28.4400 -18.9286 0.2871
28.4600 -18.9420 0.2910
28.4800 -18.9553 0.2900
28.5000 -18.9686 0.2922
28.5200 -18.9819 0.2907
28.5400 -18.9952 0.2922
28.5600 -19.0085 0.2928
28.5800 -19.0218 0.2968
28.6000 -19.0352 0.2953
28.6200 -19.0486 0.2973
28.6400 -19.0619 0.2953
28.6600 -19.0752 0.2964
28.6800 -19.0886 0.2957
28.7000 -19.1019 0.2967
28.7200 -19.1153 0.2947
28.7400 -19.1287 0.2963
28.7600 -19.1420 0.2966
28.7800 -19.1553 0.2944
28.8000 -19.1686 0.2969
28.8200 -19.1820 0.2962
28.8400 -19.1953 0.2976
28.8600 -19.2086 0.2963
28.8800 -19.2219 0.2982
28.9000 -19.2353 0.2981
28.9200 -19.2486 0.2991
28.9400 -19.2619 0.2982
28.9600 -19.2752 0.2988
28.9800 -19.2885 0.2979
29.0000 -19.3019 0.2994
29.0200 -19.3152 0.2984
29.0400 -19.3285 0.3016
29.0600 -19.3419 0.3003
29.0800 -19.3553 0.3001
29.1000 -19.3686 0.3013
29.1200 -19.3819 0.3037
29.1400 -19.3952 0.3027
29.1600 -19.4086 0.3056
29.1800 -19.4220 0.3074
29.2000 -19.4353 0.3064
29.2200 -19.4486 0.3057
29.2400 -19.4619 0.3081
29.2600 -19.4753 0.3063
29.2800 -19.4886 0.3082
29.3000 -19.5019 0.3084
29.3200 -19.5152 0.3082
29.3400 -19.5285 0.3074
29.3600 -19.5419 0.3086
29.3800 -19.5552 0.3087
29.4000 -19.5686 0.3103
29.4200 -19.5819 0.3087
29.4400 -19.5953 0.3086
29.4600 -19.6086 0.3093
29.4800 -19.6219 0.3100
29.5000 -19.6352 0.3088
29.5200 -19.6486 0.3123
29.5400 -19.6619 0.3129
29.5600 -19.6753 0.3132
29.5800 -19.6886 0.3126
29.6000 -19.7019 0.3119
29.6200 -19.7152 0.3137
29.6400 -19.7285 0.3152
29.6600 -19.7418 0.3141
29.6800 -19.7552 0.3164
29.7000 -19.7685 0.3142
29.7200 -19.7819 0.3149
29.7400 -19.7953 0.3167
29.7600 -19.8086 0.3160
29.7800 -19.8219 0.3206
29.8000 -19.8353 0.3190
29.8200 -19.8486 0.3207
29.8400 -19.8619 0.3209
29.8600 -19.8752 0.3232
29.8800 -19.8886 0.3232
29.9000 -19.9020 0.3262
29.9200 -19.9153 0.3235
29.9400 -19.9286 0.3263
29.9600 -19.9419 0.3259
29.9800 -19.9553 0.3284
30.0000 -19.9686 0.3272
30.0200 -19.9819 0.3283
30.0400 -19.9951 0.3277
30.0600 -20.0085 0.3289
30.0800 -20.0219 0.3281
30.1000 -20.0352 0.3276
30.1200 -20.0485 0.3286
30.1400 -20.0619 0.3189
30.1600 -20.0753 0.2723
30.1800 -20.0886 0.1966
30.2000 -20.1020 0.1108
30.2200 -20.1153 0.0230
30.2400 -20.1286 -0.0633
30.2600 -20.1420 -0.1466
30.2800 -20.1553 -0.2240
30.3000 -20.1686 -0.2958
30.3200 -20.1819 -0.3303
30.3400 -20.1953 -0.3678
30.3600 -20.2086 -0.4113
30.3800 -20.2219 -0.4582
30.4000 -20.2352 -0.5011
30.4200 -20.2485 -0.5409
30.4400 -20.2619 -0.5801
30.4600 -20.2752 -0.6256
30.4800 -20.2885 -0.6763
30.5000 -20.3019 -0.7308
30.5200 -20.3153 -0.7714
30.5400 -20.3287 -0.7863
30.5600 -20.3420 -0.7846
30.5800 -20.3553 -0.7797
30.6000 -20.3686 -0.7774
30.6200 -20.3820 -0.7766
30.6400 -20.3953 -0.7768
30.6600 -20.4086 -0.7743
30.6800 -20.4219 -0.7727
30.7000 -20.4352 -0.7735
30.7200 -20.4486 -0.7735
30.7400 -20.4619 -0.7720
30.7600 -20.4752 -0.7706
30.7800 -20.4885 -0.7712
30.8000 -20.5019 -0.7712
30.8200 -20.5153 -0.7684
30.8400 -20.5286 -0.7675
30.8600 -20.5419 -0.7647
30.8800 -20.5553 -0.7660
30.9000 -20.5686 -0.7654
30.9200 -20.5819 -0.7599
30.9400 -20.5952 -0.7603
30.9600 -20.6085 -0.7587
30.9800 -20.6219 -0.7589
31.0000 -20.6352 -0.7579
31.0200 -20.6486 -0.7561
31.0400 -20.6619 -0.7541
31.0600 -20.6753 -0.7517
31.0800 -20.6886 -0.7504
31.1000 -20.7019 -0.7500
31.1200 -20.7152 -0.7508
31.1400 -20.7285 -0.7485
31.1600 -20.7419 -0.7475
31.1800 -20.7552 -0.7450
31.2000 -20.7685 -0.7446
31.2200 -20.7819 -0.7411
31.2400 -20.7953 -0.7401
31.2600 -20.8086 -0.7379
31.2800 -20.8220 -0.7383
31.3000 -20.8353 -0.7347
31.3200 -20.8486 -0.7352
31.3400 -20.8620 -0.7335
31.3600 -20.8753 -0.7327
31.3800 -20.8886 -0.7312
31.4000 -20.9019 -0.7293
31.4200 -20.9152 -0.7275
31.4400 -20.9286 -0.7259
31.4600 -20.9419 -0.7239
31.4800 -20.9552 -0.7254
31.5000 -20.9685 -0.7232
31.5200 -20.9819 -0.7226
31.5400 -20.9952 -0.7218
31.5600 -21.0086 -0.7219
31.5800 -21.0219 -0.7212
31.6000 -21.0353 -0.7175
31.6200 -21.0486 -0.7131
31.6400 -21.0620 -0.7141
31.6600 -21.0753 -0.7129
31.6800 -21.0886 -0.7107
31.7000 -21.1019 -0.7121
31.7200 -21.1153 -0.7087
31.7400 -21.1286 -0.7103
31.7600 -21.1419 -0.7104
31.7800 -21.1553 -0.7082
31.8000 -21.1686 -0.7050
31.8200 -21.1819 -0.7042
31.8400 -21.1952 -0.7015
31.8600 -21.2085 -0.7030
31.8800 -21.2219 -0.7003
31.9000 -21.2352 -0.6987
31.9200 -21.2486 -0.6972
31.9400 -21.2619 -0.6961
31.9600 -21.2752 -0.6956
31.9800 -21.2886 -0.6963
32.0000 -21.3019 -0.6956
32.0200 -21.3152 -0.6943
32.0400 -21.3286 -0.6924
32.0600 -21.3419 -0.6912
32.0800 -21.3553 -0.6886
32.1000 -21.3686 -0.6863
32.1200 -21.3819 -0.6850
32.1400 -21.3953 -0.6829
32.1600 -21.4086 -0.6790
32.1800 -21.4219 -0.6797
32.2000 -21.4352 -0.6785
32.2200 -21.4485 -0.6769
32.2400 -21.4619 -0.6734
32.2600 -21.4752 -0.6739
32.2800 -21.4886 -0.6699
32.3000 -21.5019 -0.6706
32.3200 -21.5153 -0.6638
32.3400 -21.5286 -0.6659
32.3600 -21.5419 -0.6624
32.3800 -21.5552 -0.6622
32.4000 -21.5686 -0.6604
32.4200 -21.5819 -0.6630
32.4400 -21.5953 -0.6584
32.4600 -21.6086 -0.6598
32.4800 -21.6219 -0.6550
32.5000 -21.6352 -0.6542
32.5200 -21.6486 -0.6526
32.5400 -21.6619 -0.6501
32.5600 -21.6752 -0.6484
32.5800 -21.6885 -0.6458
32.6000 -21.7019 -0.6472
32.6200 -21.7153 -0.6430
32.6400 -21.7286 -0.6422
32.6600 -21.7419 -0.6405
32.6800 -21.7552 -0.6413
32.7000 -21.7686 -0.6391
32.7200 -21.7820 -0.6387
32.7400 -21.7953 -0.6369
32.7600 -21.8086 -0.6377
32.7800 -21.8219 -0.6358
32.8000 -21.8353 -0.6344
32.8200 -21.8486 -0.6333
32.8400 -21.8619 -0.6338
32.8600 -21.8752 -0.6337
32.8800 -21.8886 -0.6338
32.9000 -21.9019 -0.6337
32.9200 -21.9152 -0.6330
32.9400 -21.9285 -0.6331
32.9600 -21.9419 -0.6336
32.9800 -21.9553 -0.6312
33.0000 -21.9686 -0.6326
33.0200 -21.9819 -0.6305
33.0400 -21.9952 -0.6319
33.0600 -22.0086 -0.6314
33.0800 -22.0220 -0.6336
33.1000 -22.0353 -0.6304
33.1200 -22.0486 -0.6295
33.1400 -22.0619 -0.6282
33.1600 -22.0753 -0.6281
33.1800 -22.0886 -0.6257
33.2000 -22.1019 -0.6274
33.2200 -22.1153 -0.6229
33.2400 -22.1286 -0.6239
33.2600 -22.1419 -0.6246
33.2800 -22.1552 -0.6244
33.3000 -22.1685 -0.6214
33.3200 -22.1818 -0.6219
33.3400 -22.1952 -0.6186
33.3600 -22.2085 -0.6175
33.3800 -22.2218 -0.6162
33.4000 -22.2352 -0.6166
33.4200 -22.2486 -0.6140
33.4400 -22.2620 -0.6153
33.4600 -22.2753 -0.6128
33.4800 -22.2886 -0.6120
33.5000 -22.3020 -0.6106
33.5200 -22.3153 -0.6083
33.5400 -22.3286 -0.6061
33.5600 -22.3419 -0.6062
33.5800 -22.3552 -0.6062
33.6000 -22.3686 -0.6052
33.6200 -22.3819 -0.6048
33.6400 -22.3952 -0.6029
33.6600 -22.4085 -0.6006
33.6800 -22.4219 -0.6017
33.7000 -22.4353 -0.5978
33.7200 -22.4486 -0.5962
33.7400 -22.4619 -0.5968
33.7600 -22.4753 -0.5950
33.7800 -22.4886 -0.5931
33.8000 -22.5020 -0.5945
33.8200 -22.5153 -0.5908
33.8400 -22.5286 -0.5905
33.8600 -22.5419 -0.5898
33.8800 -22.5553 -0.5891
33.9000 -22.5686 -0.5877
33.9200 -22.5819 -0.5867
33.9400 -22.5952 -0.5851
33.9600 -22.6086 -0.5815
33.9800 -22.6219 -0.5815
34.0000 -22.6352 -0.5781
34.0200 -22.6485 -0.5792
34.0400 -22.6619 -0.5808
34.0600 -22.6752 -0.5789
34.0800 -22.6886 -0.5752
34.1000 -22.7019 -0.5770
34.1200 -22.7152 -0.5743
34.1400 -22.7286 -0.5730
34.1600 -22.7420 -0.5714
34.1800 -22.7553 -0.5705
34.2000 -22.7686 -0.5671
34.2200 -22.7819 -0.5678
34.2400 -22.7953 -0.5659
34.2600 -22.8086 -0.5651
34.2800 -22.8219 -0.5648
34.3000 -22.8353 -0.5630
34.3200 -22.8486 -0.5602
34.3400 -22.8619 -0.5612
34.3600 -22.8752 -0.5588
34.3800 -22.8885 -0.5564
34.4000 -22.9018 -0.5552
34.4200 -22.9152 -0.5553
34.4400 -22.9286 -0.5531
34.4600 -22.9419 -0.5514
34.4800 -22.9552 -0.5494
34.5000 -22.9686 -0.5447
34.5200 -22.9820 -0.5469
34.5400 -22.9953 -0.5458
34.5600 -23.0086 -0.5441
34.5800 -23.0220 -0.5456
34.6000 -23.0353 -0.5418
34.6200 -23.0487 -0.5407
34.6400 -23.0619 -0.5394
34.6600 -23.0752 -0.5395
34.6800 -23.0886 -0.5392
34.7000 -23.1019 -0.5389
34.7200 -23.1152 -0.5382
34.7400 -23.1285 -0.5354
34.7600 -23.1418 -0.5361
34.7800 -23.1552 -0.5354
34.8000 -23.1685 -0.5340
34.8200 -23.1819 -0.5350
34.8400 -23.1952 -0.5329
34.8600 -23.2086 -0.5312
34.8800 -23.2219 -0.5318
34.9000 -23.2353 -0.5309
34.9200 -23.2486 -0.5300
34.9400 -23.2619 -0.5294
34.9600 -23.2753 -0.5315
34.9800 -23.2886 -0.5261
35.0000 -23.3019 -0.5297
35.0200 -23.3153 -0.5274
35.0400 -23.3286 -0.5265
35.0600 -23.3419 -0.5261
35.0800 -23.3552 -0.5253
35.1000 -23.3685 -0.5242
35.1200 -23.3819 -0.5233
35.1400 -23.3952 -0.5226
35.1600 -23.4086 -0.5208
35.1800 -23.4219 -0.5228
35.2000 -23.4352 -0.5226
35.2200 -23.4486 -0.5222
35.2400 -23.4620 -0.5187
35.2600 -23.4753 -0.5193
35.2800 -23.4886 -0.5172
35.3000 -23.5019 -0.5178
35.3200 -23.5153 -0.5155
35.3400 -23.5286 -0.5134
35.3600 -23.5419 -0.5145
35.3800 -23.5553 -0.5136
35.4000 -23.5686 -0.5100
35.4200 -23.5819 -0.5098
35.4400 -23.5952 -0.5094
35.4600 -23.6085 -0.5085
35.4800 -23.6218 -0.5070
35.5000 -23.6352 -0.5081
35.5200 -23.6486 -0.5039
35.5400 -23.6619 -0.5034
35.5600 -23.6752 -0.5015
35.5800 -23.6886 -0.5004
35.6000 -23.7020 -0.5020
35.6200 -23.7153 -0.4989
35.6400 -23.7286 -0.4969
35.6600 -23.7420 -0.4968
35.6800 -23.7553 -0.4968
35.7000 -23.7687 -0.4928
35.7200 -23.7819 -0.4932
35.7400 -23.7952 -0.4928
35.7600 -23.8085 -0.4909
35.7800 -23.8219 -0.4902
35.8000 -23.8352 -0.4905
35.8200 -23.8485 -0.4870
35.8400 -23.8618 -0.4876
35.8600 -23.8752 -0.4857
35.8800 -23.8886 -0.4825
35.9000 -23.9019 -0.4853
35.9200 -23.9152 -0.4825
35.9400 -23.9286 -0.4813
35.9600 -23.9420 -0.4821
35.9800 -23.9553 -0.4810
36.0000 -23.9686 -0.4802
36.0200 -23.9819 -0.4803
36.0400 -23.9953 -0.4793
36.0600 -24.0086 -0.4771
36.0800 -24.0220 -0.4767
36.1000 -24.0353 -0.4763
36.1200 -24.0486 -0.4733
36.1400 -24.0620 -0.4745
36.1600 -24.0753 -0.4724
36.1800 -24.0885 -0.4687
36.2000 -24.1018 -0.4699
36.2200 -24.1152 -0.4683
36.2400 -24.1286 -0.4650
36.2600 -24.1419 -0.4661
36.2800 -24.1552 -0.4671
36.3000 -24.1686 -0.4618
36.3200 -24.1820 -0.4641
36.3400 -24.1953 -0.4596
36.3600 -24.2086 -0.4582
36.3800 -24.2219 -0.4580
36.4000 -24.2353 -0.4575
36.4200 -24.2486 -0.4552
36.4400 -24.2619 -0.4541
36.4600 -24.2752 -0.4559
36.4800 -24.2886 -0.4519
36.5000 -24.3019 -0.4518
36.5200 -24.3152 -0.4510
36.5400 -24.3285 -0.4503
36.5600 -24.3418 -0.4488
36.5800 -24.3552 -0.4497
36.6000 -24.3686 -0.4476
36.6200 -24.3819 -0.4475
36.6400 -24.3952 -0.4476
36.6600 -24.4086 -0.4430
36.6800 -24.4220 -0.4444
36.7000 -24.4353 -0.4441
36.7200 -24.4486 -0.4408
36.7400 -24.4619 -0.4421
36.7600 -24.4753 -0.4415
36.7800 -24.4886 -0.4387
36.8000 -24.5019 -0.4386
36.8200 -24.5152 -0.4411
36.8400 -24.5286 -0.4381
36.8600 -24.5419 -0.4386
36.8800 -24.5552 -0.4381
36.9000 -24.5685 -0.4345
36.9200 -24.5819 -0.4320
36.9400 -24.5952 -0.4344
36.9600 -24.6086 -0.4309
36.9800 -24.6219 -0.4336
37.0000 -24.6352 -0.4325
37.0200 -24.6486 -0.4316
37.0400 -24.6620 -0.4309
37.0600 -24.6753 -0.4314
37.0800 -24.6886 -0.4297
37.1000 -24.7019 -0.4278
37.1200 -24.7153 -0.4294
37.1400 -24.7287 -0.4260
37.1600 -24.7420 -0.4252
37.1800 -24.7553 -0.4267
37.2000 -24.7686 -0.4245
37.2200 -24.7819 -0.4262
37.2400 -24.7952 -0.4265
37.2600 -24.8085 -0.4238
37.2800 -24.8218 -0.4228
37.3000 -24.8352 -0.4249
37.3200 -24.8486 -0.4207
37.3400 -24.8619 -0.4209
37.3600 -24.8752 -0.4218
37.3800 -24.8886 -0.4187
37.4000 -24.9020 -0.4178
37.4200 -24.9153 -0.4188
37.4400 -24.9286 -0.4141
37.4600 -24.9419 -0.4145
37.4800 -24.9553 -0.4138
37.5000 -24.9686 -0.4129
37.5200 -24.9820 -0.4121
37.5400 -24.9952 -0.4132
37.5600 -25.0086 -0.4106
37.5800 -25.0219 -0.4090
37.6000 -25.0352 -0.4087
37.6200 -25.0485 -0.4076
37.6400 -25.0618 -0.4050
37.6600 -25.0752 -0.4062
37.6800 -25.0885 -0.4051
37.7000 -25.1019 -0.4023
37.7200 -25.1152 -0.4045
37.7400 -25.1286 -0.3999
37.7600 -25.1420 -0.4005
37.7800 -25.1553 -0.3987
37.8000 -25.1686 -0.3979
37.8200 -25.1819 -0.3964
37.8400 -25.1953 -0.3981
37.8600 -25.2086 -0.3937
37.8800 -25.2219 -0.3953
37.9000 -25.2353 -0.3904
37.9200 -25.2486 -0.3890
37.9400 -25.2619 -0.3855
37.9600 -25.2752 -0.3915
37.9800 -25.2885 -0.3870
38.0000 -25.3018 -0.3886
38.0200 -25.3152 -0.3846
38.0400 -25.3286 -0.3852
38.0600 -25.3419 -0.3830
38.0800 -25.3552 -0.3841
38.1000 -25.3686 -0.3820
38.1200 -25.3820 -0.3835
38.1400 -25.3953 -0.3834
38.1600 -25.4086 -0.3812
38.1800 -25.4219 -0.3792
38.2000 -25.4352 -0.3811
38.2200 -25.4486 -0.3757
38.2400 -25.4619 -0.3772
38.2600 -25.4752 -0.3784
38.2800 -25.4885 -0.3767
38.3000 -25.5019 -0.3766
38.3200 -25.5152 -0.3765
38.3400 -25.5285 -0.3740
38.3600 -25.5419 -0.3745
38.3800 -25.5552 -0.3735
38.4000 -25.5686 -0.3736
38.4200 -25.5819 -0.3695
38.4400 -25.5952 -0.3704
38.4600 -25.6086 -0.3694
38.4800 -25.6219 -0.3684
38.5000 -25.6353 -0.3697
38.5200 -25.6486 -0.3677
38.5400 -25.6619 -0.3677
38.5600 -25.6753 -0.3661
38.5800 -25.6887 -0.3641
38.6000 -25.7020 -0.3621
38.6200 -25.7153 -0.3634
38.6400 -25.7286 -0.3605
38.6600 -25.7419 -0.3599
38.6800 -25.7552 -0.3593
38.7000 -25.7685 -0.3585
38.7200 -25.7818 -0.3557
38.7400 -25.7952 -0.3574
38.7600 -25.8086 -0.3552
38.7800 -25.8219 -0.3550
38.8000 -25.8352 -0.3567
38.8200 -25.8486 -0.3551
38.8400 -25.8619 -0.3546
38.8600 -25.8753 -0.3553
38.8800 -25.8886 -0.3508
38.9000 -25.9019 -0.3531
38.9200 -25.9153 -0.3538
38.9400 -25.9286 -0.3510
38.9600 -25.9419 -0.3504
38.9800 -25.9552 -0.3513
39.0000 -25.9686 -0.3486
39.0200 -25.9819 -0.3498
39.0400 -25.9953 -0.3508
39.0600 -26.0085 -0.3503
39.0800 -26.0218 -0.3488
39.1000 -26.0352 -0.3493
39.1200 -26.0486 -0.3449
39.1400 -26.0619 -0.3460
39.1600 -26.0752 -0.3462
39.1800 -26.0886 -0.3476
39.2000 -26.1019 -0.3441
39.2200 -26.1153 -0.3471
39.2400 -26.1286 -0.3449
39.2600 -26.1419 -0.3431
39.2800 -26.1552 -0.3443
39.3000 -26.1686 -0.3434
39.3200 -26.1820 -0.3402
39.3400 -26.1953 -0.3427
39.3600 -26.2086 -0.3380
39.3800 -26.2220 -0.3365
39.4000 -26.2353 -0.3370
39.4200 -26.2486 -0.3358
39.4400 -26.2619 -0.3347
39.4600 -26.2752 -0.3357
39.4800 -26.2886 -0.3349
39.5000 -26.3019 -0.3295
39.5200 -26.3152 -0.3312
39.5400 -26.3286 -0.3298
39.5600 -26.3420 -0.3283
39.5800 -26.3553 -0.3278
39.6000 -26.3686 -0.3264
39.6200 -26.3819 -0.3259
39.6400 -26.3952 -0.3270
39.6600 -26.4086 -0.3251
39.6800 -26.4219 -0.3228
39.7000 -26.4352 -0.3240
39.7200 -26.4486 -0.3206
39.7400 -26.4619 -0.3196
39.7600 -26.4752 -0.3199
39.7800 -26.4886 -0.3200
39.8000 -26.5019 -0.3190
39.8200 -26.5152 -0.3190
39.8400 -26.5286 -0.3167
39.8600 -26.5419 -0.3138
39.8800 -26.5552 -0.3166
39.9000 -26.5686 -0.3122
39.9200 -26.5819 -0.3108
39.9400 -26.5953 -0.3092
39.9600 -26.6086 -0.3087
39.9800 -26.6219 -0.3060
40.0000 -26.6352 -0.3093
40.0200 -26.6486 -0.3054
40.0400 -26.6619 -0.3044
40.0600 -26.6753 -0.3041
40.0800 -26.6886 -0.3049
40.1000 -26.7019 -0.3011
40.1200 -26.7152 -0.3009
40.1400 -26.7285 -0.2985
40.1600 -26.7418 -0.2975
40.1800 -26.7552 -0.3000
40.2000 -26.7686 -0.2980
40.2200 -26.7819 -0.2939
40.2400 -26.7952 -0.2939
40.2600 -26.8086 -0.2940
40.2800 -26.8219 -0.2942
40.3000 -26.8353 -0.2944
40.3200 -26.8486 -0.2913
40.3400 -26.8619 -0.2899
40.3600 -26.8752 -0.2903
40.3800 -26.8886 -0.2874
40.4000 -26.9019 -0.2862
40.4200 -26.9153 -0.2887
40.4400 -26.9286 -0.2877
40.4600 -26.9419 -0.2853
40.4800 -26.9553 -0.2866
40.5000 -26.9686 -0.2844
40.5200 -26.9819 -0.2826
40.5400 -26.9952 -0.2844
40.5600 -27.0085 -0.2838
40.5800 -27.0219 -0.2807
40.6000 -27.0352 -0.2818
40.6200 -27.0485 -0.2805
40.6400 -27.0619 -0.2773
40.6600 -27.0753 -0.2817
40.6800 -27.0886 -0.2781
40.7000 -27.1019 -0.2777
40.7200 -27.1153 -0.2757
40.7400 -27.1286 -0.2781
40.7600 -27.1420 -0.2750
40.7800 -27.1553 -0.2767
40.8000 -27.1686 -0.2724
40.8200 -27.1819 -0.2727
40.8400 -27.1952 -0.2709
40.8600 -27.2086 -0.2713
40.8800 -27.2219 -0.2674
40.9000 -27.2352 -0.2699
40.9200 -27.2486 -0.2689
40.9400 -27.2619 -0.2673
40.9600 -27.2753 -0.2688
40.9800 -27.2886 -0.2658
41.0000 -27.3020 -0.2637
41.0200 -27.3153 -0.2641
41.0400 -27.3286 -0.2638
41.0600 -27.3419 -0.2611
41.0800 -27.3552 -0.2632
41.1000 -27.3686 -0.2608
41.1200 -27.3819 -0.2597
41.1400 -27.3953 -0.2607
41.1600 -27.4086 -0.2604
41.1800 -27.4219 -0.2568
41.2000 -27.4353 -0.2573
41.2200 -27.4486 -0.2550
41.2400 -27.4619 -0.2522
41.2600 -27.4752 -0.2542
41.2800 -27.4885 -0.2548
41.3000 -27.5019 -0.2514
41.3200 -27.5152 -0.2519
41.3400 -27.5286 -0.2515
41.3600 -27.5419 -0.2473
41.3800 -27.5553 -0.2504
41.4000 -27.5686 -0.2501
41.4200 -27.5819 -0.2486
41.4400 -27.5953 -0.2492
41.4600 -27.6086 -0.2476
41.4800 -27.6220 -0.2459
41.5000 -27.6353 -0.2486
41.5200 -27.6486 -0.2472
41.5400 -27.6619 -0.2443
41.5600 -27.6752 -0.2450
41.5800 -27.6885 -0.2429
41.6000 -27.7018 -0.2406
41.6200 -27.7151 -0.2426
41.6400 -27.7285 -0.2410
41.6600 -27.7419 -0.2391
41.6800 -27.7552 -0.2385
41.7000 -27.7685 -0.2392
41.7200 -27.7819 -0.2351
41.7400 -27.7953 -0.2383
41.7600 -27.8086 -0.2380
41.7800 -27.8219 -0.2379
41.8000 -27.8353 -0.2384
41.8200 -27.8486 -0.2381
41.8400 -27.8620 -0.2352
41.8600 -27.8753 -0.2352
41.8800 -27.8886 -0.2354
41.9000 -27.9019 -0.2320
41.9200 -27.9153 -0.2327
41.9400 -27.9286 -0.2336
41.9600 -27.9419 -0.2316
41.9800 -27.9552 -0.2325
42.0000 -27.9686 -0.2322
42.0200 -27.9819 -0.2293
42.0400 -27.9952 -0.2318
42.0600 -28.0085 -0.2281
42.0800 -28.0219 -0.2268
42.1000 -28.0353 -0.2274
42.1200 -28.0486 -0.2266
42.1400 -28.0619 -0.2242
42.1600 -28.0752 -0.2249
42.1800 -28.0886 -0.2252
42.2000 -28.1020 -0.2221
42.2200 -28.1153 -0.2203
42.2400 -28.1286 -0.2203
42.2600 -28.1420 -0.2166
42.2800 -28.1553 -0.2174
42.3000 -28.1686 -0.2169
42.3200 -28.1819 -0.2159
42.3400 -28.1952 -0.2167
42.3600 -28.2085 -0.2174
42.3800 -28.2219 -0.2124
42.4000 -28.2352 -0.2136
42.4200 -28.2485 -0.2132
42.4400 -28.2619 -0.2101
42.4600 -28.2753 -0.2072
42.4800 -28.2886 -0.2095
42.5000 -28.3019 -0.2065
42.5200 -28.3152 -0.2073
42.5400 -28.3286 -0.2066
42.5600 -28.3420 -0.2028
42.5800 -28.3553 -0.2046
42.6000 -28.3686 -0.2040
42.6200 -28.3819 -0.2006
42.6400 -28.3953 -0.2010
42.6600 -28.4086 -0.1997
42.6800 -28.4219 -0.1985
42.7000 -28.4352 -0.1974
42.7200 -28.4485 -0.1977
42.7400 -28.4619 -0.1950
42.7600 -28.4752 -0.1956
42.7800 -28.4885 -0.1953
42.8000 -28.5019 -0.1930
42.8200 -28.5153 -0.1940
42.8400 -28.5286 -0.1931
42.8600 -28.5420 -0.1888
42.8800 -28.5553 -0.1886
42.9000 -28.5686 -0.1877
42.9200 -28.5820 -0.1872
42.9400 -28.5953 -0.1853
42.9600 -28.6086 -0.1838
42.9800 -28.6219 -0.1815
43.0000 -28.6352 -0.1829
43.0200 -28.6485 -0.1822
43.0400 -28.6618 -0.1808
43.0600 -28.6752 -0.1786
43.0800 -28.6885 -0.1797
43.1000 -28.7019 -0.1770
43.1200 -28.7152 -0.1776
43.1400 -28.7286 -0.1745
43.1600 -28.7419 -0.1737
43.1800 -28.7553 -0.1724
43.2000 -28.7686 -0.1724
43.2200 -28.7819 -0.1688
43.2400 -28.7953 -0.1692
43.2600 -28.8086 -0.1694
43.2800 -28.8220 -0.1676
43.3000 -28.8353 -0.1666
43.3200 -28.8486 -0.1696
43.3400 -28.8619 -0.1647
43.3600 -28.8753 -0.1666
43.3800 -28.8886 -0.1647
43.4000 -28.9019 -0.1636
43.4200 -28.9152 -0.1658
43.4400 -28.9285 -0.1651
43.4600 -28.9419 -0.1622
43.4800 -28.9552 -0.1640
43.5000 -28.9685 -0.1637
43.5200 -28.9819 -0.1624
43.5400 -28.9953 -0.1616
43.5600 -29.0086 -0.1635
43.5800 -29.0219 -0.1614
43.6000 -29.0352 -0.1604
43.6200 -29.0486 -0.1610
43.6400 -29.0620 -0.1562
43.6600 -29.0753 -0.1577
43.6800 -29.0886 -0.1591
43.7000 -29.1019 -0.1562
43.7200 -29.1153 -0.1569
43.7400 -29.1286 -0.1567
43.7600 -29.1419 -0.1558
43.7800 -29.1552 -0.1563
43.8000 -29.1685 -0.1567
43.8200 -29.1819 -0.1556
43.8400 -29.1953 -0.1552
43.8600 -29.2086 -0.1576
43.8800 -29.2219 -0.1518
43.9000 -29.2353 -0.1536
43.9200 -29.2486 -0.1520
43.9400 -29.2619 -0.1500
43.9600 -29.2752 -0.1476
43.9800 -29.2886 -0.1505
44.0000 -29.3019 -0.1460
44.0200 -29.3153 -0.1473
44.0400 -29.3286 -0.1459
44.0600 -29.3419 -0.1458
44.0800 -29.3552 -0.1428
44.1000 -29.3686 -0.1466
44.1200 -29.3819 -0.1426
44.1400 -29.3952 -0.1438
44.1600 -29.4085 -0.1402
44.1800 -29.4219 -0.1399
44.2000 -29.4353 -0.1382
44.2200 -29.4486 -0.1393
44.2400 -29.4619 -0.1362
44.2600 -29.4753 -0.1388
44.2800 -29.4886 -0.1378
44.3000 -29.5020 -0.1383
44.3200 -29.5152 -0.1383
44.3400 -29.5286 -0.1387
44.3600 -29.5420 -0.1357
44.3800 -29.5553 -0.1347
44.4000 -29.5686 -0.1372
44.4200 -29.5819 -0.1344
44.4400 -29.5952 -0.1348
44.4600 -29.6086 -0.1323
44.4800 -29.6219 -0.1315
44.5000 -29.6351 -0.1309
44.5200 -29.6485 -0.1325
44.5400 -29.6619 -0.1293
44.5600 -29.6752 -0.1308
44.5800 -29.6885 -0.1282
44.6000 -29.7019 -0.1278
44.6200 -29.7153 -0.1272
44.6400 -29.7286 -0.1264
44.6600 -29.7420 -0.1250
44.6800 -29.7553 -0.1224
44.7000 -29.7686 -0.1235
44.7200 -29.7820 -0.1215
44.7400 -29.7953 -0.1219
44.7600 -29.8086 -0.1210
44.7800 -29.8219 -0.1209
44.8000 -29.8352 -0.1169
44.8200 -29.8486 -0.1169
44.8400 -29.8619 -0.1150
44.8600 -29.8752 -0.1151
44.8800 -29.8885 -0.1139
44.9000 -29.9018 -0.1137
44.9200 -29.9152 -0.1104
44.9400 -29.9285 -0.1123
44.9600 -29.9419 -0.1082
44.9800 -29.9553 -0.1077
45.0000 -29.9687 -0.1088
45.0200 -29.9820 -0.1045
45.0400 -29.9953 -0.1045
45.0600 -30.0086 -0.1032
45.0800 -30.0220 -0.1036
45.1000 -30.0353 -0.1003
45.1200 -30.0486 -0.1018
45.1400 -30.0619 -0.0989
45.1600 -30.0752 -0.0982
45.1800 -30.0886 -0.0978
45.2000 -30.1019 -0.0971
45.2200 -30.1152 -0.0952
45.2400 -30.1285 -0.0960
45.2600 -30.1419 -0.0953
45.2800 -30.1553 -0.0945
45.3000 -30.1686 -0.0958
45.3200 -30.1819 -0.0942
45.3400 -30.1953 -0.0935
45.3600 -30.2086 -0.0930
45.3800 -30.2219 -0.0923
45.4000 -30.2352 -0.0901
45.4200 -30.2485 -0.0923
45.4400 -30.2619 -0.0887
45.4600 -30.2753 -0.0886
45.4800 -30.2886 -0.0900
45.5000 -30.3019 -0.0887
45.5200 -30.3153 -0.0873
45.5400 -30.3286 -0.0882
45.5600 -30.3419 -0.0857
45.5800 -30.3552 -0.0871
45.6000 -30.3685 -0.0872
45.6200 -30.3819 -0.0878
45.6400 -30.3952 -0.0862
45.6600 -30.4086 -0.0855
45.6800 -30.4219 -0.0834
45.7000 -30.4352 -0.0832
45.7200 -30.4486 -0.0839
45.7400 -30.4620 -0.0843
45.7600 -30.4753 -0.0814
45.7800 -30.4886 -0.0816
45.8000 -30.5020 -0.0797
45.8200 -30.5153 -0.0781
45.8400 -30.5286 -0.0802
45.8600 -30.5419 -0.0781
45.8800 -30.5552 -0.0777
45.9000 -30.5686 -0.0756
45.9200 -30.5819 -0.0752
45.9400 -30.5952 -0.0722
45.9600 -30.6085 -0.0744
45.9800 -30.6219 -0.0706
46.0000 -30.6352 -0.0707
46.0200 -30.6485 -0.0709
46.0400 -30.6619 -0.0716
46.0600 -30.6752 -0.0672
46.0800 -30.6886 -0.0691
46.1000 -30.7019 -0.0658
46.1200 -30.7152 -0.0658
46.1400 -30.7286 -0.0632
46.1600 -30.7419 -0.0644
46.1800 -30.7553 -0.0609
46.2000 -30.7686 -0.0662
46.2200 -30.7819 -0.0617
46.2400 -30.7953 -0.0603
46.2600 -30.8086 -0.0585
46.2800 -30.8219 -0.0574
46.3000 -30.8352 -0.0564
46.3200 -30.8485 -0.0578
46.3400 -30.8619 -0.0557
46.3600 -30.8752 -0.0547
46.3800 -30.8886 -0.0558
46.4000 -30.9019 -0.0530
46.4200 -30.9152 -0.0505
46.4400 -30.9286 -0.0502
46.4600 -30.9419 -0.0483
46.4800 -30.9553 -0.0479
46.5000 -30.9686 -0.0476
46.5200 -30.9819 -0.0468
46.5400 -30.9953 -0.0473
46.5600 -31.0086 -0.0484
46.5800 -31.0219 -0.0471
46.6000 -31.0353 -0.0432
46.6200 -31.0486 -0.0427
46.6400 -31.0619 -0.0409
46.6600 -31.0752 -0.0392
46.6800 -31.0885 -0.0398
46.7000 -31.1019 -0.0379
46.7200 -31.1152 -0.0376
46.7400 -31.1286 -0.0380
46.7600 -31.1419 -0.0370
46.7800 -31.1553 -0.0338
46.8000 -31.1686 -0.0341
46.8200 -31.1820 -0.0337
46.8400 -31.1953 -0.0298
46.8600 -31.2086 -0.0306
46.8800 -31.2219 -0.0297
46.9000 -31.2353 -0.0300
46.9200 -31.2486 -0.0293
46.9400 -31.2619 -0.0288
46.9600 -31.2752 -0.0265
46.9800 -31.2886 -0.0270
47.0000 -31.3019 -0.0279
47.0200 -31.3152 -0.0249
47.0400 -31.3285 -0.0267
47.0600 -31.3419 -0.0248
47.0800 -31.3553 -0.0235
47.1000 -31.3686 -0.0247
47.1200 -31.3819 -0.0221
47.1400 -31.3952 -0.0214
47.1600 -31.4086 -0.0197
47.1800 -31.4220 -0.0202
47.2000 -31.4353 -0.0180
47.2200 -31.4486 -0.0192
47.2400 -31.4619 -0.0160
47.2600 -31.4753 -0.0171
47.2800 -31.4886 -0.0146
47.3000 -31.5019 -0.0176
47.3200 -31.5152 -0.0138
47.3400 -31.5286 -0.0147
47.3600 -31.5419 -0.0132
47.3800 -31.5552 -0.0121
47.4000 -31.5685 -0.0125
47.4200 -31.5819 -0.0114
47.4400 -31.5952 -0.0089
47.4600 -31.6086 -0.0093
47.4800 -31.6219 -0.0072
47.5000 -31.6352 -0.0076
47.5200 -31.6486 -0.0052
47.5400 -31.6620 -0.0052
47.5600 -31.6753 -0.0033
47.5800 -31.6886 -0.0044
47.6000 -31.7019 -0.0034
47.6200 -31.7153 -0.0008
47.6400 -31.7286 -0.0021
47.6600 -31.7419 -0.0001
47.6800 -31.7553 0.0010
47.7000 -31.7686 0.0028
47.7200 -31.7820 0.0021
47.7400 -31.7952 0.0046
47.7600 -31.8085 0.0042
47.7800 -31.8218 0.0059
47.8000 -31.8352 0.0052
47.8200 -31.8485 0.0073
47.8400 -31.8618 0.0058
47.8600 -31.8752 0.0101
47.8800 -31.8886 0.0080
47.9000 -31.9020 0.0112
47.9200 -31.9153 0.0114
47.9400 -31.9286 0.0133
47.9600 -31.9420 0.0128
47.9800 -31.9553 0.0165
48.0000 -31.9687 0.0137
48.0200 -31.9820 0.0172
48.0400 -31.9953 0.0170
48.0600 -32.0086 0.0183
48.0800 -32.0219 0.0177
48.1000 -32.0352 0.0214
48.1200 -32.0485 0.0214
48.1400 -32.0619 0.0221
48.1600 -32.0753 0.0244
48.1800 -32.0886 0.0257
48.2000 -32.1019 0.0253
48.2200 -32.1152 0.0284
48.2400 -32.1286 0.0278
48.2600 -32.1420 0.0280
48.2800 -32.1553 0.0296
48.3000 -32.1686 0.0333
48.3200 -32.1819 0.0321
48.3400 -32.1953 0.0344
48.3600 -32.2086 0.0330
48.3800 -32.2219 0.0348
48.4000 -32.2352 0.0372
48.4200 -32.2486 0.0385
48.4400 -32.2619 0.0398
48.4600 -32.2752 0.0411
48.4800 -32.2885 0.0369
48.5000 -32.3018 0.0409
48.5200 -32.3152 0.0418
48.5400 -32.3286 0.0429
48.5600 -32.3419 0.0432
48.5800 -32.3552 0.0448
48.6000 -32.3686 0.0450
48.6200 -32.3820 0.0474
48.6400 -32.3953 0.0477
48.6600 -32.4086 0.0477
48.6800 -32.4219 0.0477
48.7000 -32.4353 0.0502
48.7200 -32.4486 0.0507
48.7400 -32.4619 0.0503
48.7600 -32.4752 0.0530
48.7800 -32.4886 0.0510
48.8000 -32.5019 0.0533
48.8200 -32.5152 0.0542
48.8400 -32.5285 0.0552
48.8600 -32.5418 0.0514
48.8800 -32.5552 0.0545
48.9000 -32.5686 0.0546
48.9200 -32.5819 0.0557
48.9400 -32.5952 0.0574
48.9600 -32.6086 0.0580
48.9800 -32.6220 0.0587
49.0000 -32.6353 0.0585
49.0200 -32.6486 0.0589
49.0400 -32.6620 0.0586
49.0600 -32.6753 0.0594
49.0800 -32.6887 0.0628
49.1000 -32.7020 0.0604
49.1200 -32.7153 0.0611
49.1400 -32.7286 0.0616
49.1600 -32.7419 0.0629
49.1800 -32.7552 0.0625
49.2000 -32.7685 0.0642
49.2200 -32.7819 0.0612
49.2400 -32.7952 0.0651
49.2600 -32.8086 0.0623
49.2800 -32.8219 0.0637
49.3000 -32.8352 0.0634
49.3200 -32.8486 0.0656
49.3400 -32.8619 0.0655
49.3600 -32.8753 0.0661
49.3800 -32.8886 0.0656
49.4000 -32.9019 0.0665
49.4200 -32.9153 0.0661
49.4400 -32.9286 0.0666
49.4600 -32.9420 0.0674
49.4800 -32.9553 0.0660
49.5000 -32.9686 0.0705
49.5200 -32.9820 0.0689
49.5400 -32.9953 0.0690
49.5600 -33.0085 0.0696
49.5800 -33.0218 0.0694
49.6000 -33.0352 0.0707
49.6200 -33.0486 0.0730
49.6400 -33.0619 0.0726
49.6600 -33.0752 0.0728
49.6800 -33.0886 0.0759
49.7000 -33.1019 0.0762
49.7200 -33.1153 0.0764
49.7400 -33.1285 0.0762
49.7600 -33.1419 0.0776
49.7800 -33.1553 0.0793
49.8000 -33.1686 0.0794
49.8200 -33.1819 0.0811
49.8400 -33.1953 0.0809
49.8600 -33.2086 0.0838
49.8800 -33.2220 0.0840
49.9000 -33.2353 0.0864
49.9200 -33.2485 0.0863
49.9400 -33.2618 0.0881
49.9600 -33.2752 0.0887
49.9800 -33.2886 0.0918
50.0000 -33.3019 0.0910
50.0200 -33.3152 0.0946
50.0400 -33.3285 0.0945
50.0600 -33.3419 0.0961
50.0800 -33.3553 0.0973
50.1000 -33.3686 0.0960
50.1200 -33.3819 0.0975
50.1400 -33.3953 0.0975
50.1600 -33.4086 0.0994
50.1800 -33.4219 0.1001
50.2000 -33.4352 0.1022
50.2200 -33.4485 0.1028
50.2400 -33.4619 0.1053
50.2600 -33.4752 0.1064
50.2800 -33.4885 0.1085
50.3000 -33.5019 0.1081
50.3200 -33.5152 0.1096
50.3400 -33.5286 0.1088
50.3600 -33.5419 0.1112
50.3800 -33.5552 0.1131
50.4000 -33.5686 0.1134
50.4200 -33.5820 0.1145
50.4400 -33.5953 0.1138
50.4600 -33.6086 0.1141
50.4800 -33.6219 0.1161
50.5000 -33.6353 0.1179
50.5200 -33.6487 0.1202
50.5400 -33.6620 0.1197
50.5600 -33.6753 0.1217
50.5800 -33.6886 0.1208
50.6000 -33.7020 0.1223
50.6200 -33.7153 0.1248
50.6400 -33.7286 0.1252
50.6600 -33.7419 0.1260
50.6800 -33.7552 0.1269
50.7000 -33.7686 0.1285
50.7200 -33.7819 0.1276
50.7400 -33.7952 0.1289
50.7600 -33.8086 0.1298
50.7800 -33.8220 0.1315
50.8000 -33.8353 0.1325
50.8200 -33.8486 0.1336
50.8400 -33.8619 0.1336
50.8600 -33.8753 0.1340
50.8800 -33.8886 0.1352
50.9000 -33.9019 0.1370
50.9200 -33.9152 0.1359
50.9400 -33.9286 0.1386
50.9600 -33.9419 0.1397
50.9800 -33.9552 0.1385
51.0000 -33.9685 0.1389
51.0200 -33.9818 0.1412
51.0400 -33.9951 0.1401
51.0600 -34.0085 0.1417
51.0800 -34.0219 0.1394
51.1000 -34.0352 0.1397
51.1200 -34.0486 0.1393
51.1400 -34.0620 0.1402
51.1600 -34.0753 0.1409
51.1800 -34.0886 0.1416
51.2000 -34.1019 0.1434
51.2200 -34.1152 0.1425
51.2400 -34.1286 0.1412
51.2600 -34.1419 0.1428
51.2800 -34.1552 0.1426
51.3000 -34.1686 0.1446
51.3200 -34.1819 0.1429
51.3400 -34.1952 0.1434
51.3600 -34.2085 0.1445
51.3800 -34.2218 0.1458
51.4000 -34.2352 0.1467
51.4200 -34.2486 0.1489
51.4400 -34.2619 0.1493
51.4600 -34.2752 0.1481
51.4800 -34.2886 0.1481
51.5000 -34.3020 0.1518
51.5200 -34.3153 0.1509
51.5400 -34.3286 0.1522
51.5600 -34.3419 0.1544
51.5800 -34.3553 0.1544
51.6000 -34.3687 0.1564
51.6200 -34.3820 0.1564
51.6400 -34.3953 0.1572
51.6600 -34.4086 0.1578
51.6800 -34.4219 0.1582
51.7000 -34.4352 0.1573
51.7200 -34.4485 0.1582
51.7400 -34.4618 0.1603
51.7600 -34.4752 0.1607
51.7800 -34.4886 0.1638
51.8000 -34.5019 0.1643
51.8200 -34.5152 0.1657
51.8400 -34.5286 0.1678
51.8600 -34.5420 0.1691
51.8800 -34.5553 0.1696
51.9000 -34.5686 0.1713
51.9200 -34.5819 0.1720
51.9400 -34.5953 0.1729
51.9600 -34.6087 0.1755
51.9800 -34.6220 0.1761
52.0000 -34.6353 0.1783
52.0200 -34.6486 0.1788
52.0400 -34.6619 0.1795
52.0600 -34.6752 0.1801
52.0800 -34.6885 0.1831
52.1000 -34.7018 0.1843
52.1200 -34.7152 0.1870
52.1400 -34.7285 0.1846
52.1600 -34.7419 0.1840
52.1800 -34.7552 0.1843
52.2000 -34.7686 0.1892
52.2200 -34.7820 0.1887
52.2400 -34.7953 0.1930
52.2600 -34.8086 0.1918
52.2800 -34.8219 0.1953
52.3000 -34.8353 0.1933
52.3200 -34.8486 0.1948
52.3400 -34.8619 0.1942
52.3600 -34.8752 0.1965
52.3800 -34.8886 0.1986
52.4000 -34.9019 0.2006
52.4200 -34.9152 0.2006
52.4400 -34.9285 0.1990
52.4600 -34.9418 0.2012
52.4800 -34.9552 0.2042
52.5000 -34.9686 0.2067
52.5200 -34.9819 0.2053
52.5400 -34.9952 0.2047
52.5600 -35.0086 0.2041
52.5800 -35.0220 0.2079
52.6000 -35.0353 0.2086
52.6200 -35.0486 0.2100
52.6400 -35.0619 0.2098
52.6600 -35.0752 0.2105
52.6800 -35.0886 0.2101
52.7000 -35.1019 0.2129
52.7200 -35.1153 0.2148
52.7400 -35.1286 0.2164
52.7600 -35.1419 0.2156
52.7800 -35.1553 0.2160
52.8000 -35.1686 0.2157
52.8200 -35.1819 0.2186
52.8400 -35.1952 0.2183
52.8600 -35.2086 0.2192
52.8800 -35.2219 0.2185
52.9000 -35.2352 0.2196
52.9200 -35.2486 0.2220
52.9400 -35.2620 0.2217
52.9600 -35.2753 0.2209
52.9800 -35.2886 0.2217
53.0000 -35.3019 0.2215
53.0200 -35.3153 0.2254
53.0400 -35.3286 0.2241
53.0600 -35.3420 0.2251
53.0800 -35.3553 0.2251
53.1000 -35.3686 0.2273
53.1200 -35.3819 0.2281
53.1400 -35.3952 0.2288
53.1600 -35.4085 0.2278
53.1800 -35.4218 0.2301
53.2000 -35.4352 0.2312
53.2200 -35.4485 0.2341
53.2400 -35.4619 0.2338
53.2600 -35.4752 0.2327
53.2800 -35.4886 0.2337
53.3000 -35.5019 0.2352
53.3200 -35.5153 0.2372
53.3400 -35.5286 0.2366
53.3600 -35.5419 0.2386
53.3800 -35.5553 0.2389
53.4000 -35.5686 0.2408
53.4200 -35.5820 0.2412
53.4400 -35.5952 0.2388
53.4600 -35.6086 0.2373
53.4800 -35.6219 0.2398
53.5000 -35.6353 0.2431
53.5200 -35.6486 0.2421
53.5400 -35.6619 0.2421
53.5600 -35.6752 0.2425
53.5800 -35.6886 0.2423
53.6000 -35.7019 0.2458
53.6200 -35.7152 0.2439
53.6400 -35.7285 0.2430
53.6600 -35.7419 0.2452
53.6800 -35.7553 0.2462
53.7000 -35.7686 0.2470
53.7200 -35.7819 0.2485
53.7400 -35.7952 0.2491
53.7600 -35.8086 0.2495
53.7800 -35.8219 0.2490
53.8000 -35.8353 0.2515
53.8200 -35.8486 0.2516
53.8400 -35.8619 0.2535
53.8600 -35.8753 0.2529
53.8800 -35.8886 0.2519
53.9000 -35.9019 0.2541
53.9200 -35.9152 0.2575
53.9400 -35.9285 0.2579
53.9600 -35.9419 0.2614
53.9800 -35.9552 0.2598
54.0000 -35.9686 0.2610
54.0200 -35.9819 0.2621
54.0400 -35.9953 0.2635
54.0600 -36.0086 0.2671
54.0800 -36.0219 0.2669
54.1000 -36.0352 0.2692
54.1200 -36.0486 0.2704
54.1400 -36.0619 0.2721
54.1600 -36.0752 0.2729
54.1800 -36.0886 0.2750
54.2000 -36.1019 0.2750
54.2200 -36.1152 0.2758
54.2400 -36.1286 0.2761
54.2600 -36.1419 0.2795
54.2800 -36.1552 0.2801
54.3000 -36.1686 0.2794
54.3200 -36.1819 0.2797
54.3400 -36.1952 0.2809
54.3600 -36.2086 0.2835
54.3800 -36.2219 0.2843
54.4000 -36.2353 0.2873
54.4200 -36.2486 0.2849
54.4400 -36.2619 0.2875
54.4600 -36.2753 0.2860
54.4800 -36.2886 0.2878
54.5000 -36.3020 0.2897
54.5200 -36.3153 0.2914
54.5400 -36.3286 0.2891
54.5600 -36.3419 0.2894
54.5800 -36.3552 0.2912
54.6000 -36.3685 0.2902
54.6200 -36.3819 0.2948
54.6400 -36.3952 0.2935
54.6600 -36.4086 0.2957
54.6800 -36.4219 0.2958
54.7000 -36.4353 0.2993
54.7200 -36.4486 0.2969
54.7400 -36.4619 0.3004
54.7600 -36.4753 0.2989
54.7800 -36.4886 0.3014
54.8000 -36.5019 0.3024
54.8200 -36.5152 0.3026
54.8400 -36.5286 0.3005
54.8600 -36.5420 0.3030
54.8800 -36.5553 0.3038
54.9000 -36.5686 0.3027
54.9200 -36.5819 0.3056
54.9400 -36.5953 0.3063
54.9600 -36.6086 0.3067
54.9800 -36.6219 0.3073
55.0000 -36.6352 0.3092
55.0200 -36.6485 0.3076
55.0400 -36.6619 0.3125
55.0600 -36.6752 0.3106
55.0800 -36.6885 0.3115
55.1000 -36.7019 0.3120
55.1200 -36.7153 0.3147
55.1400 -36.7286 0.3152
55.1600 -36.7419 0.3170
55.1800 -36.7553 0.3175
55.2000 -36.7686 0.3183
55.2200 -36.7820 0.3206
55.2400 -36.7953 0.3203
55.2600 -36.8086 0.3213
55.2800 -36.8219 0.3235
55.3000 -36.8352 0.3236
55.3200 -36.8486 0.3238
55.3400 -36.8619 0.3240
55.3600 -36.8752 0.3272
55.3800 -36.8886 0.3256
55.4000 -36.9019 0.3294
55.4200 -36.9153 0.3292
55.4400 -36.9286 0.3294
55.4600 -36.9419 0.3290
55.4800 -36.9553 0.3321
55.5000 -36.9686 0.3311
55.5200 -36.9819 0.3343
55.5400 -36.9952 0.3342
55.5600 -37.0086 0.3354
55.5800 -37.0219 0.3366
55.6000 -37.0353 0.3388
55.6200 -37.0486 0.3374
55.6400 -37.0619 0.3417
55.6600 -37.0753 0.3433
55.6800 -37.0886 0.3439
55.7000 -37.1019 0.3436
55.7200 -37.1152 0.3456
55.7400 -37.1285 0.3473
55.7600 -37.1419 0.3455
55.7800 -37.1552 0.3480
55.8000 -37.1686 0.3450
55.8200 -37.1819 0.3481
55.8400 -37.1953 0.3492
55.8600 -37.2086 0.3519
55.8800 -37.2219 0.3512
55.9000 -37.2353 0.3541
55.9200 -37.2486 0.3519
55.9400 -37.2620 0.3576
55.9600 -37.2753 0.3574
55.9800 -37.2886 0.3577
56.0000 -37.3019 0.3572
56.0200 -37.3153 0.3604
56.0400 -37.3286 0.3595
56.0600 -37.3419 0.3623
56.0800 -37.3552 0.3623
56.1000 -37.3685 0.3626
56.1200 -37.3819 0.3630
56.1400 -37.3952 0.3644
56.1600 -37.4085 0.3639
56.1800 -37.4219 0.3671
56.2000 -37.4353 0.3674
56.2200 -37.4486 0.3697
56.2400 -37.4620 0.3707
56.2600 -37.4753 0.3721
56.2800 -37.4886 0.3697
56.3000 -37.5020 0.3703
56.3200 -37.5153 0.3728
56.3400 -37.5286 0.3717
56.3600 -37.5419 0.3759
56.3800 -37.5553 0.3736
56.4000 -37.5686 0.3746
56.4200 -37.5819 0.3758
56.4400 -37.5952 0.3779
56.4600 -37.6085 0.3756
56.4800 -37.6219 0.3784
56.5000 -37.6352 0.3810
56.5200 -37.6485 0.3799
56.5400 -37.6619 0.3828
56.5600 -37.6753 0.3848
56.5800 -37.6886 0.3836
56.6000 -37.7019 0.3848
56.6200 -37.7152 0.3880
56.6400 -37.7286 0.3863
56.6600 -37.7420 0.3896
56.6800 -37.7553 0.3903
56.7000 -37.7686 0.3896
56.7200 -37.7819 0.3917
56.7400 -37.7953 0.3950
56.7600 -37.8086 0.4120
56.7800 -37.8219 0.3644
56.8000 -37.8352 0.2887
56.8200 -37.8485 0.2619
56.8400 -37.8619 0.2679
56.8600 -37.8752 0.2731
56.8800 -37.8885 0.2768
56.9000 -37.9019 0.2742
56.9200 -37.9153 0.2748
56.9400 -37.9286 0.2713
56.9600 -37.9419 0.2734
56.9800 -37.9552 0.2728
57.0000 -37.9686 0.2720
57.0200 -37.9820 0.2727
57.0400 -37.9953 0.2760
57.0600 -38.0086 0.2738
57.0800 -38.0219 0.2744
57.1000 -38.0353 0.2752
57.1200 -38.0486 0.2759
57.1400 -38.0619 0.2743
57.1600 -38.0752 0.2746
57.1800 -38.0885 0.2724
57.2000 -38.1019 0.2773
57.2200 -38.1152 0.2777
57.2400 -38.1285 0.2767
57.2600 -38.1419 0.2768
57.2800 -38.1553 0.2774
57.3000 -38.1686 0.2799
57.3200 -38.1820 0.2784
57.3400 -38.1953 0.2813
57.3600 -38.2086 0.2786
57.3800 -38.2220 0.2783
57.4000 -38.2353 0.2789
57.4200 -38.2486 0.2785
57.4400 -38.2619 0.2795
57.4600 -38.2752 0.2828
57.4800 -38.2885 0.2815
57.5000 -38.3018 0.2822
57.5200 -38.3152 0.2827
57.5400 -38.3285 0.2817
57.5600 -38.3419 0.2797
57.5800 -38.3552 0.2828
57.6000 -38.3686 0.2816
57.6200 -38.3819 0.2836
57.6400 -38.3953 0.2850
57.6600 -38.4086 0.2871
57.6800 -38.4220 0.2842
57.7000 -38.4352 0.2873
57.7200 -38.4486 0.2839
57.7400 -38.4619 0.2877
57.7600 -38.4753 0.2881
57.7800 -38.4886 0.2876
57.8000 -38.5019 0.2883
57.8200 -38.5153 0.2890
57.8400 -38.5286 0.2891
57.8600 -38.5419 0.2898
57.8800 -38.5552 0.2919
57.9000 -38.5685 0.2904
57.9200 -38.5819 0.2889
57.9400 -38.5952 0.2917
57.9600 -38.6085 0.2915
57.9800 -38.6219 0.2922
58.0000 -38.6352 0.2917
58.0200 -38.6486 0.2910
58.0400 -38.6619 0.2910
58.0600 -38.6752 0.2941
58.0800 -38.6886 0.2916
58.1000 -38.7019 0.2929
58.1200 -38.7153 0.2932
58.1400 -38.7286 0.2952
58.1600 -38.7419 0.2935
58.1800 -38.7552 0.2976
58.2000 -38.7686 0.2933
58.2200 -38.7819 0.2951
58.2400 -38.7952 0.2967
58.2600 -38.8085 0.2958
58.2800 -38.8219 0.2945
58.3000 -38.8352 0.2973
58.3200 -38.8486 0.2960
58.3400 -38.8619 0.2959
58.3600 -38.8753 0.2999
58.3800 -38.8886 0.2965
58.4000 -38.9020 0.2954
58.4200 -38.9153 0.2990
58.4400 -38.9286 0.2989
58.4600 -38.9419 0.2980
58.4800 -38.9553 0.3031
58.5000 -38.9686 0.2994
58.5200 -38.9819 0.3003
58.5400 -38.9952 0.3041
58.5600 -39.0086 0.3025
58.5800 -39.0219 0.3010
58.6000 -39.0352 0.3048
58.6200 -39.0485 0.3021
58.6400 -39.0619 0.3025
58.6600 -39.0753 0.3047
58.6800 -39.0886 0.3044
58.7000 -39.1019 0.3045
58.7200 -39.1153 0.3091
58.7400 -39.1286 0.3045
58.7600 -39.1419 0.3058
58.7800 -39.1552 0.3075
58.8000 -39.1686 0.3061
58.8200 -39.1819 0.3055
58.8400 -39.1953 0.3110
58.8600 -39.2086 0.3070
58.8800 -39.2219 0.3069
58.9000 -39.2352 0.3080
58.9200 -39.2486 0.3111
58.9400 -39.2619 0.3091
58.9600 -39.2752 0.3125
58.9800 -39.2885 0.3132
59.0000 -39.3019 0.3139
59.0200 -39.3152 0.3157
59.0400 -39.3285 0.3159
59.0600 -39.3419 0.3160
59.0800 -39.3552 0.3153
59.1000 -39.3686 0.3149
59.1200 -39.3820 0.3159
59.1400 -39.3953 0.3162
59.1600 -39.4086 0.3162
59.1800 -39.4220 0.3168
59.2000 -39.4353 0.3183
59.2200 -39.4486 0.3182
59.2400 -39.4619 0.3172
59.2600 -39.4752 0.3208
59.2800 -39.4886 0.3221
59.3000 -39.5019 0.3203
59.3200 -39.5152 0.3201
59.3400 -39.5285 0.3206
59.3600 -39.5418 0.3213
59.3800 -39.5552 0.3233
59.4000 -39.5685 0.3221
59.4200 -39.5819 0.3196
59.4400 -39.5953 0.3249
59.4600 -39.6086 0.3257
59.4800 -39.6220 0.3261
59.5000 -39.6353 0.3257
59.5200 -39.6486 0.3258
59.5400 -39.6620 0.3232
59.5600 -39.6753 0.3266
59.5800 -39.6886 0.3267
59.6000 -39.7019 0.3267
59.6200 -39.7152 0.3297
59.6400 -39.7286 0.3287
59.6600 -39.7419 0.3316
59.6800 -39.7552 0.3312
59.7000 -39.7685 0.3315
59.7200 -39.7819 0.3289
59.7400 -39.7953 0.3316
59.7600 -39.8086 0.3310
59.7800 -39.8219 0.3294
59.8000 -39.8353 0.3325
59.8200 -39.8486 0.3310
59.8400 -39.8620 0.3321
59.8600 -39.8752 0.3325
59.8800 -39.8885 0.3334
59.9000 -39.9019 0.3317
59.9200 -39.9153 0.3350
59.9400 -39.9286 0.3365
59.9600 -39.9419 0.3358
59.9800 -39.9552 0.3362
60.0000 -39.9686 0.3355
60.0200 -39.9819 0.3329
60.0400 -39.9952 0.3355
60.0480 -40.0004 0.3408
