Raw Data
Time Displacement Force
(s) (mm) (N)
0.0000 0.0000 0.4786
0.0200 -0.0001 0.4761
0.0400 -0.0019 0.4506
0.0600 -0.0093 0.4164
0.0800 -0.0211 0.3653
0.1000 -0.0337 0.3051
0.1200 -0.0464 0.2440
0.1400 -0.0597 0.1855
0.1600 -0.0736 0.1212
0.1800 -0.0878 0.0579
0.2000 -0.1017 -0.0096
0.2200 -0.1152 -0.0760
0.2400 -0.1286 -0.1444
0.2600 -0.1419 -0.2085
0.2800 -0.1553 -0.2625
0.3000 -0.1687 -0.2977
0.3200 -0.1820 -0.3454
0.3400 -0.1954 -0.3948
0.3600 -0.2087 -0.4456
0.3800 -0.2221 -0.4974
0.4000 -0.2354 -0.5569
0.4200 -0.2487 -0.6088
0.4400 -0.2620 -0.6651
0.4600 -0.2753 -0.7239
0.4800 -0.2886 -0.7810
0.5000 -0.3019 -0.8390
0.5200 -0.3152 -0.8986
0.5400 -0.3286 -0.9424
0.5600 -0.3420 -0.9533
0.5800 -0.3553 -0.9560
0.6000 -0.3687 -0.9517
0.6200 -0.3820 -0.9534
0.6400 -0.3954 -0.9514
0.6600 -0.4088 -0.9527
0.6800 -0.4220 -0.9501
0.7000 -0.4354 -0.9508
0.7200 -0.4487 -0.9484
0.7400 -0.4621 -0.9491
0.7600 -0.4754 -0.9497
0.7800 -0.4887 -0.9481
0.8000 -0.5020 -0.9460
0.8200 -0.5154 -0.9439
0.8400 -0.5287 -0.9419
0.8600 -0.5419 -0.9432
0.8800 -0.5553 -0.9426
0.9000 -0.5686 -0.9398
0.9200 -0.5820 -0.9378
0.9400 -0.5953 -0.9368
0.9600 -0.6086 -0.9356
0.9800 -0.6219 -0.9339
1.0000 -0.6353 -0.9324
1.0200 -0.6487 -0.9283
1.0400 -0.6620 -0.9267
1.0600 -0.6753 -0.9252
1.0800 -0.6887 -0.9214
1.1000 -0.7021 -0.9203
1.1200 -0.7154 -0.9194
1.1400 -0.7287 -0.9165
1.1600 -0.7420 -0.9147
1.1800 -0.7553 -0.9131
1.2000 -0.7687 -0.9114
1.2200 -0.7819 -0.9070
1.2400 -0.7953 -0.9068
1.2600 -0.8086 -0.9046
1.2800 -0.8220 -0.9028
1.3000 -0.8353 -0.9007
1.3200 -0.8487 -0.8989
1.3400 -0.8620 -0.8978
1.3600 -0.8754 -0.8962
1.3800 -0.8887 -0.8934
1.4000 -0.9020 -0.8929
1.4200 -0.9154 -0.8920
1.4400 -0.9287 -0.8896
1.4600 -0.9421 -0.8857
1.4800 -0.9554 -0.8851
1.5000 -0.9687 -0.8859
1.5200 -0.9820 -0.8837
1.5400 -0.9954 -0.8835
1.5600 -1.0087 -0.8792
1.5800 -1.0219 -0.8778
1.6000 -1.0353 -0.8767
1.6200 -1.0486 -0.8757
1.6400 -1.0620 -0.8722
1.6600 -1.0753 -0.8724
1.6800 -1.0887 -0.8697
1.7000 -1.1020 -0.8692
1.7200 -1.1154 -0.8668
1.7400 -1.1288 -0.8658
1.7600 -1.1421 -0.8638
1.7800 -1.1554 -0.8628
1.8000 -1.1687 -0.8615
1.8200 -1.1821 -0.8589
1.8400 -1.1954 -0.8576
1.8600 -1.2087 -0.8574
1.8800 -1.2220 -0.8544
1.9000 -1.2354 -0.8525
1.9200 -1.2487 -0.8502
1.9400 -1.2619 -0.8502
1.9600 -1.2752 -0.8474
1.9800 -1.2886 -0.8483
2.0000 -1.3020 -0.8454
2.0200 -1.3153 -0.8435
2.0400 -1.3287 -0.8414
2.0600 -1.3420 -0.8392
2.0800 -1.3554 -0.8396
2.1000 -1.3688 -0.8370
2.1200 -1.3821 -0.8339
2.1400 -1.3954 -0.8338
2.1600 -1.4087 -0.8338
2.1800 -1.4221 -0.8316
2.2000 -1.4354 -0.8319
2.2200 -1.4487 -0.8273
2.2400 -1.4620 -0.8273
2.2600 -1.4753 -0.8261
2.2800 -1.4886 -0.8254
2.3000 -1.5019 -0.8212
2.3200 -1.5152 -0.8213
2.3400 -1.5286 -0.8173
2.3600 -1.5420 -0.8175
2.3800 -1.5553 -0.8170
2.4000 -1.5686 -0.8172
2.4200 -1.5820 -0.8123
2.4400 -1.5954 -0.8128
2.4600 -1.6088 -0.8090
2.4800 -1.6221 -0.8103
2.5000 -1.6353 -0.8081
2.5200 -1.6487 -0.8069
2.5400 -1.6620 -0.8033
2.5600 -1.6754 -0.8028
2.5800 -1.6887 -0.8005
2.6000 -1.7020 -0.7982
2.6200 -1.7153 -0.7978
2.6400 -1.7287 -0.7972
2.6600 -1.7420 -0.7938
2.6800 -1.7553 -0.7936
2.7000 -1.7687 -0.7927
2.7200 -1.7820 -0.7919
2.7400 -1.7954 -0.7897
2.7600 -1.8087 -0.7881
2.7800 -1.8220 -0.7874
2.8000 -1.8354 -0.7836
2.8200 -1.8487 -0.7843
2.8400 -1.8620 -0.7815
2.8600 -1.8753 -0.7821
2.8800 -1.8886 -0.7810
2.9000 -1.9020 -0.7793
2.9200 -1.9154 -0.7764
2.9400 -1.9287 -0.7764
2.9600 -1.9420 -0.7728
2.9800 -1.9554 -0.7732
3.0000 -1.9687 -0.7712
3.0200 -1.9820 -0.7714
3.0400 -1.9953 -0.7679
3.0600 -2.0087 -0.7671
3.0800 -2.0220 -0.7630
3.1000 -2.0353 -0.7631
3.1200 -2.0487 -0.7628
3.1400 -2.0620 -0.7631
3.1600 -2.0754 -0.7595
3.1800 -2.0888 -0.7578
3.2000 -2.1021 -0.7561
3.2200 -2.1154 -0.7558
3.2400 -2.1287 -0.7556
3.2600 -2.1421 -0.7557
3.2800 -2.1554 -0.7531
3.3000 -2.1687 -0.7529
3.3200 -2.1820 -0.7505
3.3400 -2.1954 -0.7477
3.3600 -2.2087 -0.7475
3.3800 -2.2220 -0.7447
3.4000 -2.2353 -0.7438
3.4200 -2.2486 -0.7432
3.4400 -2.2620 -0.7426
3.4600 -2.2753 -0.7399
3.4800 -2.2886 -0.7394
3.5000 -2.3020 -0.7361
3.5200 -2.3154 -0.7361
3.5400 -2.3287 -0.7338
3.5600 -2.3420 -0.7366
3.5800 -2.3553 -0.7329
3.6000 -2.3687 -0.7313
3.6200 -2.3821 -0.7278
3.6400 -2.3954 -0.7280
3.6600 -2.4087 -0.7263
3.6800 -2.4220 -0.7237
3.7000 -2.4353 -0.7219
3.7200 -2.4487 -0.7208
3.7400 -2.4620 -0.7200
3.7600 -2.4753 -0.7191
3.7800 -2.4886 -0.7182
3.8000 -2.5020 -0.7165
3.8200 -2.5153 -0.7137
3.8400 -2.5286 -0.7130
3.8600 -2.5420 -0.7118
3.8800 -2.5553 -0.7091
3.9000 -2.5687 -0.7090
3.9200 -2.5820 -0.7075
3.9400 -2.5953 -0.7082
3.9600 -2.6087 -0.7071
3.9800 -2.6220 -0.7045
4.0000 -2.6354 -0.7028
4.0200 -2.6487 -0.7045
4.0400 -2.6620 -0.7013
4.0600 -2.6754 -0.7009
4.0800 -2.6887 -0.6988
4.1000 -2.7020 -0.6986
4.1200 -2.7153 -0.6963
4.1400 -2.7286 -0.6961
4.1600 -2.7420 -0.6928
4.1800 -2.7554 -0.6930
4.2000 -2.7687 -0.6930
4.2200 -2.7820 -0.6890
4.2400 -2.7954 -0.6891
4.2600 -2.8087 -0.6880
4.2800 -2.8221 -0.6851
4.3000 -2.8354 -0.6855
4.3200 -2.8487 -0.6846
4.3400 -2.8620 -0.6813
4.3600 -2.8754 -0.6802
4.3800 -2.8887 -0.6804
4.4000 -2.9020 -0.6794
4.4200 -2.9153 -0.6779
4.4400 -2.9287 -0.6784
4.4600 -2.9420 -0.6750
4.4800 -2.9553 -0.6734
4.5000 -2.9686 -0.6721
4.5200 -2.9820 -0.6702
4.5400 -2.9954 -0.6691
4.5600 -3.0087 -0.6691
4.5800 -3.0220 -0.6671
4.6000 -3.0354 -0.6687
4.6200 -3.0487 -0.6677
4.6400 -3.0621 -0.6658
4.6600 -3.0754 -0.6640
4.6800 -3.0887 -0.6627
4.7000 -3.1020 -0.6599
4.7200 -3.1154 -0.6592
4.7400 -3.1287 -0.6597
4.7600 -3.1420 -0.6599
4.7800 -3.1553 -0.6568
4.8000 -3.1687 -0.6542
4.8200 -3.1820 -0.6539
4.8400 -3.1953 -0.6538
4.8600 -3.2086 -0.6497
4.8800 -3.2220 -0.6503
4.9000 -3.2354 -0.6458
4.9200 -3.2487 -0.6475
4.9400 -3.2620 -0.6466
4.9600 -3.2753 -0.6450
4.9800 -3.2887 -0.6430
5.0000 -3.3021 -0.6411
5.0200 -3.3154 -0.6401
5.0400 -3.3287 -0.6405
5.0600 -3.3420 -0.6389
5.0800 -3.3554 -0.6381
5.1000 -3.3687 -0.6386
5.1200 -3.3820 -0.6357
5.1400 -3.3954 -0.6344
5.1600 -3.4087 -0.6311
5.1800 -3.4220 -0.6326
5.2000 -3.4353 -0.6287
5.2200 -3.4486 -0.6298
5.2400 -3.4619 -0.6295
5.2600 -3.4753 -0.6286
5.2800 -3.4886 -0.6263
5.3000 -3.5019 -0.6257
5.3200 -3.5153 -0.6240
5.3400 -3.5287 -0.6229
5.3600 -3.5421 -0.6219
5.3800 -3.5554 -0.6214
5.4000 -3.5687 -0.6191
5.4200 -3.5821 -0.6205
5.4400 -3.5954 -0.6181
5.4600 -3.6087 -0.6170
5.4800 -3.6220 -0.6161
5.5000 -3.6353 -0.6155
5.5200 -3.6487 -0.6159
5.5400 -3.6620 -0.6148
5.5600 -3.6753 -0.6129
5.5800 -3.6886 -0.6116
5.6000 -3.7020 -0.6097
5.6200 -3.7154 -0.6081
5.6400 -3.7287 -0.6066
5.6600 -3.7420 -0.6065
5.6800 -3.7554 -0.6053
5.7000 -3.7687 -0.6038
5.7200 -3.7821 -0.6046
5.7400 -3.7954 -0.6022
5.7600 -3.8087 -0.6005
5.7800 -3.8221 -0.6004
5.8000 -3.8354 -0.5981
5.8200 -3.8487 -0.5964
5.8400 -3.8620 -0.5961
5.8600 -3.8753 -0.5949
5.8800 -3.8887 -0.5929
5.9000 -3.9020 -0.5914
5.9200 -3.9153 -0.5905
5.9400 -3.9286 -0.5887
5.9600 -3.9420 -0.5906
5.9800 -3.9553 -0.5873
6.0000 -3.9687 -0.5874
6.0200 -3.9820 -0.5885
6.0400 -3.9953 -0.5855
6.0600 -4.0087 -0.5845
6.0800 -4.0221 -0.5833
6.1000 -4.0354 -0.5802
6.1200 -4.0487 -0.5798
6.1400 -4.0621 -0.5804
6.1600 -4.0754 -0.5792
6.1800 -4.0887 -0.5781
6.2000 -4.1020 -0.5793
6.2200 -4.1153 -0.5776
6.2400 -4.1287 -0.5739
6.2600 -4.1420 -0.5755
6.2800 -4.1553 -0.5719
6.3000 -4.1686 -0.5726
6.3200 -4.1819 -0.5707
6.3400 -4.1953 -0.5699
6.3600 -4.2086 -0.5698
6.3800 -4.2219 -0.5689
6.4000 -4.2353 -0.5642
6.4200 -4.2487 -0.5646
6.4400 -4.2621 -0.5640
6.4600 -4.2754 -0.5633
6.4800 -4.2887 -0.5622
6.5000 -4.3021 -0.5625
6.5200 -4.3154 -0.5584
6.5400 -4.3287 -0.5591
6.5600 -4.3420 -0.5589
6.5800 -4.3553 -0.5583
6.6000 -4.3687 -0.5558
6.6200 -4.3820 -0.5567
6.6400 -4.3953 -0.5548
6.6600 -4.4086 -0.5545
6.6800 -4.4220 -0.5529
6.7000 -4.4354 -0.5514
6.7200 -4.4487 -0.5481
6.7400 -4.4620 -0.5485
6.7600 -4.4753 -0.5471
6.7800 -4.4887 -0.5466
6.8000 -4.5020 -0.5475
6.8200 -4.5154 -0.5457
6.8400 -4.5287 -0.5463
6.8600 -4.5420 -0.5455
6.8800 -4.5554 -0.5447
6.9000 -4.5688 -0.5429
6.9200 -4.5821 -0.5427
6.9400 -4.5954 -0.5419
6.9600 -4.6087 -0.5413
6.9800 -4.6220 -0.5400
7.0000 -4.6353 -0.5395
7.0200 -4.6486 -0.5356
7.0400 -4.6620 -0.5391
7.0600 -4.6753 -0.5358
7.0800 -4.6886 -0.5346
7.1000 -4.7020 -0.5358
7.1200 -4.7153 -0.5337
7.1400 -4.7287 -0.5327
7.1600 -4.7421 -0.5322
7.1800 -4.7554 -0.5300
7.2000 -4.7687 -0.5289
7.2200 -4.7820 -0.5275
7.2400 -4.7954 -0.5247
7.2600 -4.8087 -0.5232
7.2800 -4.8220 -0.5238
7.3000 -4.8354 -0.5228
7.3200 -4.8487 -0.5217
7.3400 -4.8620 -0.5223
7.3600 -4.8753 -0.5209
7.3800 -4.8886 -0.5203
7.4000 -4.9019 -0.5204
7.4200 -4.9153 -0.5178
7.4400 -4.9287 -0.5175
7.4600 -4.9420 -0.5163
7.4800 -4.9553 -0.5154
7.5000 -4.9687 -0.5132
7.5200 -4.9821 -0.5119
7.5400 -4.9954 -0.5114
7.5600 -5.0087 -0.5096
7.5800 -5.0220 -0.5112
7.6000 -5.0354 -0.5081
7.6200 -5.0487 -0.5056
7.6400 -5.0620 -0.5068
7.6600 -5.0753 -0.5053
7.6800 -5.0886 -0.5018
7.7000 -5.1019 -0.5016
7.7200 -5.1152 -0.4995
7.7400 -5.1286 -0.5009
7.7600 -5.1419 -0.4992
7.7800 -5.1553 -0.4981
7.8000 -5.1687 -0.4935
7.8200 -5.1820 -0.4945
7.8400 -5.1953 -0.4933
7.8600 -5.2087 -0.4928
7.8800 -5.2221 -0.4923
7.9000 -5.2354 -0.4916
7.9200 -5.2487 -0.4915
7.9400 -5.2620 -0.4914
7.9600 -5.2754 -0.4884
7.9800 -5.2887 -0.4871
8.0000 -5.3020 -0.4880
8.0200 -5.3153 -0.4863
8.0400 -5.3287 -0.4849
8.0600 -5.3420 -0.4831
8.0800 -5.3553 -0.4830
8.1000 -5.3686 -0.4817
8.1200 -5.3820 -0.4828
8.1400 -5.3953 -0.4789
8.1600 -5.4087 -0.4783
8.1800 -5.4220 -0.4781
8.2000 -5.4353 -0.4788
8.2200 -5.4487 -0.4770
8.2400 -5.4621 -0.4759
8.2600 -5.4754 -0.4751
8.2800 -5.4887 -0.4729
8.3000 -5.5020 -0.4729
8.3200 -5.5154 -0.4726
8.3400 -5.5287 -0.4707
8.3600 -5.5420 -0.4714
8.3800 -5.5553 -0.4703
8.4000 -5.5687 -0.4679
8.4200 -5.5820 -0.4671
8.4400 -5.5953 -0.4669
8.4600 -5.6086 -0.4658
8.4800 -5.6219 -0.4655
8.5000 -5.6353 -0.4650
8.5200 -5.6487 -0.4632
8.5400 -5.6620 -0.4648
8.5600 -5.6753 -0.4644
8.5800 -5.6887 -0.4624
8.6000 -5.7021 -0.4588
8.6200 -5.7154 -0.4625
8.6400 -5.7287 -0.4569
8.6600 -5.7420 -0.4586
8.6800 -5.7554 -0.4558
8.7000 -5.7687 -0.4542
8.7200 -5.7820 -0.4538
8.7400 -5.7953 -0.4511
8.7600 -5.8087 -0.4510
8.7800 -5.8220 -0.4507
8.8000 -5.8353 -0.4510
8.8200 -5.8486 -0.4493
8.8400 -5.8620 -0.4500
8.8600 -5.8753 -0.4475
8.8800 -5.8887 -0.4476
8.9000 -5.9020 -0.4474
8.9200 -5.9153 -0.4456
8.9400 -5.9287 -0.4440
8.9600 -5.9421 -0.4412
8.9800 -5.9554 -0.4428
9.0000 -5.9687 -0.4397
9.0200 -5.9820 -0.4396
9.0400 -5.9954 -0.4379
9.0600 -6.0088 -0.4392
9.0800 -6.0221 -0.4380
9.1000 -6.0354 -0.4396
9.1200 -6.0487 -0.4361
9.1400 -6.0620 -0.4357
9.1600 -6.0753 -0.4349
9.1800 -6.0886 -0.4329
9.2000 -6.1019 -0.4327
9.2200 -6.1153 -0.4317
9.2400 -6.1287 -0.4309
9.2600 -6.1420 -0.4295
9.2800 -6.1553 -0.4297
9.3000 -6.1687 -0.4261
9.3200 -6.1821 -0.4274
9.3400 -6.1954 -0.4235
9.3600 -6.2087 -0.4223
9.3800 -6.2220 -0.4217
9.4000 -6.2354 -0.4237
9.4200 -6.2487 -0.4214
9.4400 -6.2620 -0.4221
9.4600 -6.2753 -0.4219
9.4800 -6.2887 -0.4192
9.5000 -6.3020 -0.4177
9.5200 -6.3153 -0.4171
9.5400 -6.3286 -0.4146
9.5600 -6.3419 -0.4149
9.5800 -6.3553 -0.4154
9.6000 -6.3687 -0.4132
9.6200 -6.3820 -0.4133
9.6400 -6.3953 -0.4134
9.6600 -6.4087 -0.4112
9.6800 -6.4221 -0.4101
9.7000 -6.4354 -0.4111
9.7200 -6.4487 -0.4077
9.7400 -6.4620 -0.4092
9.7600 -6.4754 -0.4075
9.7800 -6.4887 -0.4060
9.8000 -6.5020 -0.4050
9.8200 -6.5153 -0.4057
9.8400 -6.5287 -0.4032
9.8600 -6.5420 -0.4039
9.8800 -6.5553 -0.4036
9.9000 -6.5686 -0.4027
9.9200 -6.5820 -0.4013
9.9400 -6.5953 -0.4024
9.9600 -6.6087 -0.3997
9.9800 -6.6220 -0.3998
10.0000 -6.6354 -0.3999
10.0200 -6.6487 -0.3973
10.0400 -6.6621 -0.3967
10.0600 -6.6754 -0.3954
10.0800 -6.6886 -0.3933
10.1000 -6.7019 -0.3902
10.1200 -6.7153 -0.3900
10.1400 -6.7287 -0.3883
10.1600 -6.7420 -0.3899
10.1800 -6.7553 -0.3897
10.2000 -6.7687 -0.3888
10.2200 -6.7820 -0.3860
10.2400 -6.7954 -0.3862
10.2600 -6.8087 -0.3826
10.2800 -6.8220 -0.3826
10.3000 -6.8353 -0.3824
10.3200 -6.8487 -0.3802
10.3400 -6.8620 -0.3785
10.3600 -6.8753 -0.3786
10.3800 -6.8887 -0.3756
10.4000 -6.9021 -0.3770
10.4200 -6.9154 -0.3771
10.4400 -6.9287 -0.3775
10.4600 -6.9420 -0.3743
10.4800 -6.9554 -0.3751
10.5000 -6.9688 -0.3711
10.5200 -6.9821 -0.3730
10.5400 -6.9954 -0.3727
10.5600 -7.0087 -0.3705
10.5800 -7.0220 -0.3692
10.6000 -7.0354 -0.3707
10.6200 -7.0486 -0.3688
10.6400 -7.0619 -0.3692
10.6600 -7.0753 -0.3676
10.6800 -7.0887 -0.3636
10.7000 -7.1020 -0.3636
10.7200 -7.1153 -0.3656
10.7400 -7.1287 -0.3618
10.7600 -7.1420 -0.3605
10.7800 -7.1554 -0.3626
10.8000 -7.1687 -0.3597
10.8200 -7.1820 -0.3588
10.8400 -7.1954 -0.3589
10.8600 -7.2087 -0.3540
10.8800 -7.2220 -0.3534
10.9000 -7.2354 -0.3556
10.9200 -7.2487 -0.3541
10.9400 -7.2621 -0.3536
10.9600 -7.2754 -0.3531
10.9800 -7.2886 -0.3505
11.0000 -7.3019 -0.3500
11.0200 -7.3153 -0.3518
11.0400 -7.3287 -0.3485
11.0600 -7.3420 -0.3494
11.0800 -7.3553 -0.3492
11.1000 -7.3686 -0.3478
11.1200 -7.3820 -0.3472
11.1400 -7.3954 -0.3484
11.1600 -7.4087 -0.3446
11.1800 -7.4220 -0.3445
11.2000 -7.4353 -0.3439
11.2200 -7.4487 -0.3435
11.2400 -7.4620 -0.3413
11.2600 -7.4754 -0.3445
11.2800 -7.4887 -0.3398
11.3000 -7.5021 -0.3382
11.3200 -7.5154 -0.3388
11.3400 -7.5286 -0.3387
11.3600 -7.5419 -0.3354
11.3800 -7.5553 -0.3365
11.4000 -7.5687 -0.3336
11.4200 -7.5820 -0.3339
11.4400 -7.5953 -0.3325
11.4600 -7.6087 -0.3304
11.4800 -7.6221 -0.3289
11.5000 -7.6354 -0.3300
11.5200 -7.6487 -0.3291
11.5400 -7.6620 -0.3277
11.5600 -7.6753 -0.3278
11.5800 -7.6887 -0.3274
11.6000 -7.7020 -0.3243
11.6200 -7.7153 -0.3281
11.6400 -7.7287 -0.3250
11.6600 -7.7420 -0.3242
11.6800 -7.7553 -0.3249
11.7000 -7.7686 -0.3208
11.7200 -7.7819 -0.3226
11.7400 -7.7953 -0.3223
11.7600 -7.8087 -0.3216
11.7800 -7.8221 -0.3188
11.8000 -7.8354 -0.3215
11.8200 -7.8487 -0.3156
11.8400 -7.8620 -0.3144
11.8600 -7.8754 -0.3139
11.8800 -7.8887 -0.3121
11.9000 -7.9020 -0.3117
11.9200 -7.9154 -0.3135
11.9400 -7.9287 -0.3109
11.9600 -7.9420 -0.3101
11.9800 -7.9553 -0.3108
12.0000 -7.9686 -0.3088
12.0200 -7.9820 -0.3078
12.0400 -7.9953 -0.3058
12.0600 -8.0086 -0.3044
12.0800 -8.0220 -0.3019
12.1000 -8.0353 -0.3047
12.1200 -8.0487 -0.3029
12.1400 -8.0620 -0.2996
12.1600 -8.0753 -0.3019
12.1800 -8.0887 -0.2979
12.2000 -8.1020 -0.2976
12.2200 -8.1154 -0.2993
12.2400 -8.1287 -0.2953
12.2600 -8.1420 -0.2947
12.2800 -8.1554 -0.2956
12.3000 -8.1687 -0.2931
12.3200 -8.1821 -0.2928
12.3400 -8.1954 -0.2923
12.3600 -8.2087 -0.2904
12.3800 -8.2221 -0.2915
12.4000 -8.2354 -0.2918
12.4200 -8.2487 -0.2883
12.4400 -8.2620 -0.2867
12.4600 -8.2753 -0.2873
12.4800 -8.2886 -0.2867
12.5000 -8.3019 -0.2870
12.5200 -8.3152 -0.2852
12.5400 -8.3286 -0.2823
12.5600 -8.3420 -0.2816
12.5800 -8.3554 -0.2820
12.6000 -8.3687 -0.2818
12.6200 -8.3820 -0.2805
12.6400 -8.3954 -0.2809
12.6600 -8.4088 -0.2790
12.6800 -8.4221 -0.2777
12.7000 -8.4354 -0.2783
12.7200 -8.4487 -0.2759
12.7400 -8.4620 -0.2730
12.7600 -8.4753 -0.2756
12.7800 -8.4886 -0.2737
12.8000 -8.5019 -0.2733
12.8200 -8.5153 -0.2725
12.8400 -8.5286 -0.2722
12.8600 -8.5420 -0.2687
12.8800 -8.5553 -0.2725
12.9000 -8.5687 -0.2682
12.9200 -8.5820 -0.2686
12.9400 -8.5954 -0.2682
12.9600 -8.6087 -0.2670
12.9800 -8.6220 -0.2644
13.0000 -8.6354 -0.2667
13.0200 -8.6487 -0.2624
13.0400 -8.6621 -0.2621
13.0600 -8.6754 -0.2629
13.0800 -8.6887 -0.2627
13.1000 -8.7020 -0.2607
13.1200 -8.7153 -0.2616
13.1400 -8.7286 -0.2605
13.1600 -8.7419 -0.2579
13.1800 -8.7553 -0.2579
13.2000 -8.7687 -0.2569
13.2200 -8.7820 -0.2539
13.2400 -8.7953 -0.2540
13.2600 -8.8086 -0.2529
13.2800 -8.8220 -0.2513
13.3000 -8.8354 -0.2527
13.3200 -8.8487 -0.2515
13.3400 -8.8620 -0.2498
13.3600 -8.8754 -0.2501
13.3800 -8.8887 -0.2491
13.4000 -8.9021 -0.2454
13.4200 -8.9154 -0.2451
13.4400 -8.9287 -0.2453
13.4600 -8.9420 -0.2438
13.4800 -8.9554 -0.2422
13.5000 -8.9686 -0.2398
13.5200 -8.9819 -0.2363
13.5400 -8.9952 -0.2388
13.5600 -9.0086 -0.2357
13.5800 -9.0220 -0.2351
13.6000 -9.0353 -0.2346
13.6200 -9.0486 -0.2346
13.6400 -9.0620 -0.2303
13.6600 -9.0754 -0.2315
13.6800 -9.0887 -0.2286
13.7000 -9.1020 -0.2266
13.7200 -9.1153 -0.2282
13.7400 -9.1287 -0.2275
13.7600 -9.1421 -0.2257
13.7800 -9.1554 -0.2264
13.8000 -9.1687 -0.2237
13.8200 -9.1820 -0.2219
13.8400 -9.1954 -0.2240
13.8600 -9.2087 -0.2222
13.8800 -9.2220 -0.2206
13.9000 -9.2353 -0.2213
13.9200 -9.2487 -0.2207
13.9400 -9.2620 -0.2180
13.9600 -9.2753 -0.2209
13.9800 -9.2886 -0.2210
14.0000 -9.3020 -0.2192
14.0200 -9.3154 -0.2211
14.0400 -9.3287 -0.2210
14.0600 -9.3420 -0.2189
14.0800 -9.3553 -0.2195
14.1000 -9.3687 -0.2172
14.1200 -9.3821 -0.2161
14.1400 -9.3954 -0.2162
14.1600 -9.4087 -0.2184
14.1800 -9.4221 -0.2152
14.2000 -9.4354 -0.2146
14.2200 -9.4487 -0.2133
14.2400 -9.4620 -0.2124
14.2600 -9.4753 -0.2126
14.2800 -9.4886 -0.2110
14.3000 -9.5020 -0.2065
14.3200 -9.5153 -0.2068
14.3400 -9.5286 -0.2050
14.3600 -9.5420 -0.2027
14.3800 -9.5554 -0.2032
14.4000 -9.5687 -0.2016
14.4200 -9.5820 -0.2012
14.4400 -9.5953 -0.2017
14.4600 -9.6087 -0.2019
14.4800 -9.6221 -0.1967
14.5000 -9.6354 -0.1989
14.5200 -9.6487 -0.1958
14.5400 -9.6620 -0.1933
14.5600 -9.6754 -0.1932
14.5800 -9.6887 -0.1947
14.6000 -9.7020 -0.1924
14.6200 -9.7153 -0.1931
14.6400 -9.7286 -0.1919
14.6600 -9.7420 -0.1896
14.6800 -9.7553 -0.1879
14.7000 -9.7686 -0.1902
14.7200 -9.7820 -0.1861
14.7400 -9.7954 -0.1870
14.7600 -9.8088 -0.1851
14.7800 -9.8221 -0.1831
14.8000 -9.8354 -0.1851
14.8200 -9.8487 -0.1842
14.8400 -9.8621 -0.1820
14.8600 -9.8754 -0.1836
14.8800 -9.8887 -0.1827
14.9000 -9.9020 -0.1792
14.9200 -9.9153 -0.1810
14.9400 -9.9286 -0.1793
14.9600 -9.9419 -0.1800
14.9800 -9.9552 -0.1787
15.0000 -9.9686 -0.1804
15.0200 -9.9820 -0.1767
15.0400 -9.9953 -0.1785
15.0600 -10.0087 -0.1773
15.0800 -10.0220 -0.1762
15.1000 -10.0354 -0.1767
15.1200 -10.0488 -0.1777
15.1400 -10.0621 -0.1730
15.1600 -10.0754 -0.1755
15.1800 -10.0887 -0.1725
15.2000 -10.1021 -0.1749
15.2200 -10.1154 -0.1736
15.2400 -10.1287 -0.1753
15.2600 -10.1420 -0.1715
15.2800 -10.1554 -0.1715
15.3000 -10.1687 -0.1696
15.3200 -10.1820 -0.1685
15.3400 -10.1953 -0.1680
15.3600 -10.2087 -0.1692
15.3800 -10.2220 -0.1632
15.4000 -10.2354 -0.1652
15.4200 -10.2487 -0.1618
15.4400 -10.2620 -0.1602
15.4600 -10.2754 -0.1612
15.4800 -10.2887 -0.1605
15.5000 -10.3020 -0.1568
15.5200 -10.3153 -0.1574
15.5400 -10.3287 -0.1584
15.5600 -10.3420 -0.1553
15.5800 -10.3554 -0.1551
15.6000 -10.3687 -0.1545
15.6200 -10.3820 -0.1513
15.6400 -10.3953 -0.1504
15.6600 -10.4087 -0.1496
15.6800 -10.4220 -0.1465
15.7000 -10.4353 -0.1468
15.7200 -10.4486 -0.1476
15.7400 -10.4620 -0.1444
15.7600 -10.4753 -0.1436
15.7800 -10.4887 -0.1456
15.8000 -10.5020 -0.1438
15.8200 -10.5154 -0.1412
15.8400 -10.5287 -0.1404
15.8600 -10.5420 -0.1373
15.8800 -10.5553 -0.1384
15.9000 -10.5687 -0.1379
15.9200 -10.5821 -0.1349
15.9400 -10.5954 -0.1369
15.9600 -10.6087 -0.1370
15.9800 -10.6220 -0.1354
16.0000 -10.6353 -0.1350
16.0200 -10.6486 -0.1343
16.0400 -10.6619 -0.1301
16.0600 -10.6753 -0.1307
16.0800 -10.6886 -0.1299
16.1000 -10.7020 -0.1292
16.1200 -10.7154 -0.1275
16.1400 -10.7287 -0.1271
16.1600 -10.7420 -0.1244
16.1800 -10.7554 -0.1233
16.2000 -10.7687 -0.1225
16.2200 -10.7820 -0.1205
16.2400 -10.7954 -0.1223
16.2600 -10.8087 -0.1211
16.2800 -10.8221 -0.1187
16.3000 -10.8354 -0.1180
16.3200 -10.8487 -0.1185
16.3400 -10.8620 -0.1165
16.3600 -10.8753 -0.1168
16.3800 -10.8887 -0.1169
16.4000 -10.9019 -0.1161
16.4200 -10.9152 -0.1160
16.4400 -10.9286 -0.1165
16.4600 -10.9420 -0.1142
16.4800 -10.9553 -0.1134
16.5000 -10.9686 -0.1126
16.5200 -10.9820 -0.1102
16.5400 -10.9954 -0.1099
16.5600 -11.0088 -0.1102
16.5800 -11.0221 -0.1090
16.6000 -11.0354 -0.1085
16.6200 -11.0487 -0.1101
16.6400 -11.0621 -0.1059
16.6600 -11.0754 -0.1073
16.6800 -11.0887 -0.1062
16.7000 -11.1020 -0.1056
16.7200 -11.1153 -0.1032
16.7400 -11.1287 -0.1030
16.7600 -11.1420 -0.1000
16.7800 -11.1553 -0.1006
16.8000 -11.1686 -0.0986
16.8200 -11.1820 -0.0994
16.8400 -11.1953 -0.0976
16.8600 -11.2086 -0.0991
16.8800 -11.2220 -0.0988
16.9000 -11.2354 -0.0975
16.9200 -11.2488 -0.0960
16.9400 -11.2621 -0.0942
16.9600 -11.2754 -0.0928
16.9800 -11.2887 -0.0946
17.0000 -11.3021 -0.0920
17.0200 -11.3154 -0.0909
17.0400 -11.3287 -0.0914
17.0600 -11.3420 -0.0892
17.0800 -11.3553 -0.0884
17.1000 -11.3686 -0.0883
17.1200 -11.3820 -0.0871
17.1400 -11.3953 -0.0842
17.1600 -11.4086 -0.0873
17.1800 -11.4220 -0.0860
17.2000 -11.4354 -0.0844
17.2200 -11.4487 -0.0859
17.2400 -11.4620 -0.0808
17.2600 -11.4754 -0.0799
17.2800 -11.4887 -0.0812
17.3000 -11.5020 -0.0806
17.3200 -11.5153 -0.0777
17.3400 -11.5286 -0.0783
17.3600 -11.5420 -0.0751
17.3800 -11.5554 -0.0746
17.4000 -11.5687 -0.0757
17.4200 -11.5820 -0.0734
17.4400 -11.5954 -0.0718
17.4600 -11.6087 -0.0697
17.4800 -11.6220 -0.0697
17.5000 -11.6353 -0.0689
17.5200 -11.6486 -0.0718
17.5400 -11.6620 -0.0666
17.5600 -11.6753 -0.0686
17.5800 -11.6887 -0.0661
17.6000 -11.7020 -0.0674
17.6200 -11.7154 -0.0635
17.6400 -11.7288 -0.0647
17.6600 -11.7421 -0.0592
17.6800 -11.7554 -0.0611
17.7000 -11.7687 -0.0588
17.7200 -11.7821 -0.0593
17.7400 -11.7954 -0.0568
17.7600 -11.8087 -0.0594
17.7800 -11.8220 -0.0556
17.8000 -11.8354 -0.0554
17.8200 -11.8487 -0.0557
17.8400 -11.8620 -0.0548
17.8600 -11.8753 -0.0521
17.8800 -11.8886 -0.0535
17.9000 -11.9020 -0.0502
17.9200 -11.9153 -0.0493
17.9400 -11.9286 -0.0482
17.9600 -11.9420 -0.0485
17.9800 -11.9553 -0.0456
18.0000 -11.9687 -0.0464
18.0200 -11.9820 -0.0445
18.0400 -11.9953 -0.0443
18.0600 -12.0087 -0.0454
18.0800 -12.0221 -0.0424
18.1000 -12.0354 -0.0415
18.1200 -12.0487 -0.0392
18.1400 -12.0620 -0.0384
18.1600 -12.0753 -0.0357
18.1800 -12.0887 -0.0383
18.2000 -12.1020 -0.0367
18.2200 -12.1153 -0.0357
18.2400 -12.1286 -0.0352
18.2600 -12.1420 -0.0346
18.2800 -12.1553 -0.0310
18.3000 -12.1687 -0.0339
18.3200 -12.1820 -0.0310
18.3400 -12.1953 -0.0277
18.3600 -12.2087 -0.0292
18.3800 -12.2220 -0.0283
18.4000 -12.2353 -0.0281
18.4200 -12.2487 -0.0273
18.4400 -12.2620 -0.0264
18.4600 -12.2754 -0.0244
18.4800 -12.2887 -0.0263
18.5000 -12.3020 -0.0245
18.5200 -12.3154 -0.0236
18.5400 -12.3287 -0.0236
18.5600 -12.3420 -0.0220
18.5800 -12.3553 -0.0201
18.6000 -12.3686 -0.0204
18.6200 -12.3820 -0.0192
18.6400 -12.3953 -0.0167
18.6600 -12.4087 -0.0177
18.6800 -12.4220 -0.0168
18.7000 -12.4354 -0.0147
18.7200 -12.4487 -0.0151
18.7400 -12.4621 -0.0145
18.7600 -12.4754 -0.0136
18.7800 -12.4887 -0.0141
18.8000 -12.5020 -0.0130
18.8200 -12.5154 -0.0095
18.8400 -12.5287 -0.0106
18.8600 -12.5420 -0.0101
18.8800 -12.5553 -0.0076
18.9000 -12.5687 -0.0087
18.9200 -12.5820 -0.0074
18.9400 -12.5953 -0.0060
18.9600 -12.6086 -0.0036
18.9800 -12.6220 -0.0046
19.0000 -12.6354 -0.0023
19.0200 -12.6487 -0.0034
19.0400 -12.6620 -0.0008
19.0600 -12.6754 -0.0003
19.0800 -12.6887 -0.0010
19.1000 -12.7021 0.0010
19.1200 -12.7154 0.0045
19.1400 -12.7287 0.0030
19.1600 -12.7420 0.0062
19.1800 -12.7554 0.0064
19.2000 -12.7687 0.0062
19.2200 -12.7820 0.0077
19.2400 -12.7953 0.0097
19.2600 -12.8087 0.0100
19.2800 -12.8220 0.0134
19.3000 -12.8353 0.0115
19.3200 -12.8486 0.0132
19.3400 -12.8620 0.0137
19.3600 -12.8754 0.0182
19.3800 -12.8887 0.0155
19.4000 -12.9020 0.0187
19.4200 -12.9153 0.0196
19.4400 -12.9287 0.0195
19.4600 -12.9421 0.0211
19.4800 -12.9554 0.0244
19.5000 -12.9687 0.0240
19.5200 -12.9820 0.0251
19.5400 -12.9954 0.0282
19.5600 -13.0087 0.0255
19.5800 -13.0220 0.0255
19.6000 -13.0354 0.0265
19.6200 -13.0487 0.0277
19.6400 -13.0621 0.0306
19.6600 -13.0753 0.0321
19.6800 -13.0886 0.0307
19.7000 -13.1019 0.0328
19.7200 -13.1153 0.0330
19.7400 -13.1286 0.0356
19.7600 -13.1419 0.0329
19.7800 -13.1553 0.0362
19.8000 -13.1687 0.0355
19.8200 -13.1821 0.0370
19.8400 -13.1954 0.0377
19.8600 -13.2087 0.0413
19.8800 -13.2221 0.0402
19.9000 -13.2354 0.0435
19.9200 -13.2488 0.0421
19.9400 -13.2620 0.0435
19.9600 -13.2754 0.0435
19.9800 -13.2887 0.0444
20.0000 -13.3020 0.0444
20.0200 -13.3153 0.0463
20.0400 -13.3286 0.0458
20.0600 -13.3420 0.0494
20.0800 -13.3554 0.0478
20.1000 -13.3687 0.0496
20.1200 -13.3820 0.0471
20.1400 -13.3953 0.0500
20.1600 -13.4087 0.0493
20.1800 -13.4221 0.0498
20.2000 -13.4354 0.0510
20.2200 -13.4487 0.0517
20.2400 -13.4620 0.0538
20.2600 -13.4754 0.0553
20.2800 -13.4887 0.0561
20.3000 -13.5020 0.0562
20.3200 -13.5153 0.0588
20.3400 -13.5287 0.0583
20.3600 -13.5420 0.0576
20.3800 -13.5553 0.0586
20.4000 -13.5686 0.0584
20.4200 -13.5820 0.0598
20.4400 -13.5953 0.0612
20.4600 -13.6087 0.0614
20.4800 -13.6220 0.0632
20.5000 -13.6353 0.0647
20.5200 -13.6487 0.0663
20.5400 -13.6621 0.0669
20.5600 -13.6754 0.0688
20.5800 -13.6887 0.0699
20.6000 -13.7021 0.0682
20.6200 -13.7154 0.0697
20.6400 -13.7287 0.0711
20.6600 -13.7420 0.0685
20.6800 -13.7553 0.0719
20.7000 -13.7687 0.0731
20.7200 -13.7820 0.0758
20.7400 -13.7953 0.0763
20.7600 -13.8086 0.0763
20.7800 -13.8219 0.0774
20.8000 -13.8353 0.0778
20.8200 -13.8487 0.0798
20.8400 -13.8620 0.0805
20.8600 -13.8753 0.0829
20.8800 -13.8887 0.0849
20.9000 -13.9021 0.0837
20.9200 -13.9154 0.0855
20.9400 -13.9287 0.0860
20.9600 -13.9421 0.0858
20.9800 -13.9554 0.0884
21.0000 -13.9687 0.0884
21.0200 -13.9820 0.0870
21.0400 -13.9953 0.0911
21.0600 -14.0087 0.0913
21.0800 -14.0220 0.0924
21.1000 -14.0353 0.0946
21.1200 -14.0486 0.0951
21.1400 -14.0620 0.0966
21.1600 -14.0753 0.0985
21.1800 -14.0887 0.0997
21.2000 -14.1020 0.0978
21.2200 -14.1153 0.1018
21.2400 -14.1287 0.1028
21.2600 -14.1420 0.1037
21.2800 -14.1554 0.1056
21.3000 -14.1687 0.1046
21.3200 -14.1820 0.1040
21.3400 -14.1954 0.1064
21.3600 -14.2088 0.1083
21.3800 -14.2221 0.1071
21.4000 -14.2354 0.1096
21.4200 -14.2487 0.1104
21.4400 -14.2620 0.1111
21.4600 -14.2753 0.1147
21.4800 -14.2886 0.1161
21.5000 -14.3020 0.1162
21.5200 -14.3153 0.1189
21.5400 -14.3286 0.1165
21.5600 -14.3419 0.1172
21.5800 -14.3553 0.1175
21.6000 -14.3687 0.1202
21.6200 -14.3821 0.1193
21.6400 -14.3954 0.1230
21.6600 -14.4087 0.1215
21.6800 -14.4220 0.1225
21.7000 -14.4354 0.1224
21.7200 -14.4487 0.1226
21.7400 -14.4621 0.1224
21.7600 -14.4754 0.1264
21.7800 -14.4887 0.1250
21.8000 -14.5020 0.1268
21.8200 -14.5153 0.1265
21.8400 -14.5286 0.1284
21.8600 -14.5419 0.1293
21.8800 -14.5553 0.1304
21.9000 -14.5686 0.1315
21.9200 -14.5819 0.1303
21.9400 -14.5953 0.1324
21.9600 -14.6087 0.1336
21.9800 -14.6221 0.1364
22.0000 -14.6354 0.1366
22.0200 -14.6487 0.1386
22.0400 -14.6621 0.1350
22.0600 -14.6754 0.1386
22.0800 -14.6888 0.1394
22.1000 -14.7020 0.1410
22.1200 -14.7153 0.1415
22.1400 -14.7286 0.1432
22.1600 -14.7420 0.1422
22.1800 -14.7553 0.1455
22.2000 -14.7686 0.1449
22.2200 -14.7819 0.1469
22.2400 -14.7953 0.1458
22.2600 -14.8087 0.1482
22.2800 -14.8220 0.1478
22.3000 -14.8353 0.1506
22.3200 -14.8487 0.1500
22.3400 -14.8621 0.1523
22.3600 -14.8754 0.1525
22.3800 -14.8887 0.1548
22.4000 -14.9020 0.1546
22.4200 -14.9154 0.1567
22.4400 -14.9287 0.1579
22.4600 -14.9420 0.1588
22.4800 -14.9554 0.1587
22.5000 -14.9687 0.1645
22.5200 -14.9820 0.1621
22.5400 -14.9954 0.1672
22.5600 -15.0086 0.1671
22.5800 -15.0220 0.1674
22.6000 -15.0353 0.1689
22.6200 -15.0487 0.1702
22.6400 -15.0620 0.1699
22.6600 -15.0753 0.1710
22.6800 -15.0887 0.1738
22.7000 -15.1021 0.1740
22.7200 -15.1154 0.1767
22.7400 -15.1287 0.1768
22.7600 -15.1420 0.1793
22.7800 -15.1554 0.1794
22.8000 -15.1687 0.1837
22.8200 -15.1820 0.1818
22.8400 -15.1953 0.1814
22.8600 -15.2087 0.1844
22.8800 -15.2220 0.1841
22.9000 -15.2353 0.1854
22.9200 -15.2486 0.1849
22.9400 -15.2619 0.1877
22.9600 -15.2753 0.1879
22.9800 -15.2887 0.1910
23.0000 -15.3020 0.1902
23.0200 -15.3153 0.1936
23.0400 -15.3287 0.1944
23.0600 -15.3421 0.1944
23.0800 -15.3554 0.1962
23.1000 -15.3687 0.1980
23.1200 -15.3820 0.1980
23.1400 -15.3954 0.1992
23.1600 -15.4087 0.1991
23.1800 -15.4220 0.1973
23.2000 -15.4353 0.1991
23.2200 -15.4487 0.2014
23.2400 -15.4620 0.2017
23.2600 -15.4753 0.2017
23.2800 -15.4886 0.2030
23.3000 -15.5020 0.2033
23.3200 -15.5153 0.2058
23.3400 -15.5287 0.2078
23.3600 -15.5420 0.2047
23.3800 -15.5553 0.2083
23.4000 -15.5687 0.2077
23.4200 -15.5821 0.2100
23.4400 -15.5954 0.2090
23.4600 -15.6087 0.2133
23.4800 -15.6220 0.2105
23.5000 -15.6354 0.2116
23.5200 -15.6487 0.2115
23.5400 -15.6621 0.2145
23.5600 -15.6754 0.2140
23.5800 -15.6887 0.2161
23.6000 -15.7020 0.2175
23.6200 -15.7153 0.2179
23.6400 -15.7286 0.2193
23.6600 -15.7419 0.2178
23.6800 -15.7553 0.2204
23.7000 -15.7687 0.2203
23.7200 -15.7820 0.2234
23.7400 -15.7953 0.2230
23.7600 -15.8087 0.2267
23.7800 -15.8221 0.2242
23.8000 -15.8354 0.2267
23.8200 -15.8487 0.2264
23.8400 -15.8621 0.2267
23.8600 -15.8754 0.2251
23.8800 -15.8887 0.2326
23.9000 -15.9021 0.2311
23.9200 -15.9153 0.2346
23.9400 -15.9287 0.2336
23.9600 -15.9420 0.2361
23.9800 -15.9553 0.2366
24.0000 -15.9686 0.2391
24.0200 -15.9819 0.2380
24.0400 -15.9953 0.2397
24.0600 -16.0086 0.2405
24.0800 -16.0220 0.2386
24.1000 -16.0353 0.2404
24.1200 -16.0487 0.2429
24.1400 -16.0621 0.2421
24.1600 -16.0754 0.2435
24.1800 -16.0887 0.2444
24.2000 -16.1020 0.2438
24.2200 -16.1154 0.2453
24.2400 -16.1287 0.2466
24.2600 -16.1420 0.2470
24.2800 -16.1553 0.2467
24.3000 -16.1687 0.2474
24.3200 -16.1820 0.2494
24.3400 -16.1953 0.2510
24.3600 -16.2086 0.2502
24.3800 -16.2220 0.2523
24.4000 -16.2353 0.2525
24.4200 -16.2487 0.2550
24.4400 -16.2620 0.2522
24.4600 -16.2753 0.2564
24.4800 -16.2887 0.2544
24.5000 -16.3021 0.2574
24.5200 -16.3154 0.2559
24.5400 -16.3286 0.2582
24.5600 -16.3419 0.2582
24.5800 -16.3553 0.2610
24.6000 -16.3687 0.2611
24.6200 -16.3820 0.2644
24.6400 -16.3954 0.2650
24.6600 -16.4087 0.2676
24.6800 -16.4220 0.2668
24.7000 -16.4354 0.2682
24.7200 -16.4487 0.2679
24.7400 -16.4620 0.2697
24.7600 -16.4753 0.2710
24.7800 -16.4887 0.2719
24.8000 -16.5020 0.2755
24.8200 -16.5153 0.2762
24.8400 -16.5287 0.2784
24.8600 -16.5421 0.2810
24.8800 -16.5554 0.2817
24.9000 -16.5687 0.2819
24.9200 -16.5820 0.2843
24.9400 -16.5954 0.2828
24.9600 -16.6088 0.2853
24.9800 -16.6221 0.2876
25.0000 -16.6354 0.2891
25.0200 -16.6487 0.2890
25.0400 -16.6620 0.2889
25.0600 -16.6754 0.2880
25.0800 -16.6887 0.2886
25.1000 -16.7020 0.2910
25.1200 -16.7153 0.2914
25.1400 -16.7287 0.2925
25.1600 -16.7420 0.2961
25.1800 -16.7553 0.2956
25.2000 -16.7686 0.2968
25.2200 -16.7820 0.2982
25.2400 -16.7954 0.3014
25.2600 -16.8087 0.3020
25.2800 -16.8220 0.3028
25.3000 -16.8354 0.3042
25.3200 -16.8487 0.3039
25.3400 -16.8620 0.3071
25.3600 -16.8753 0.3060
25.3800 -16.8887 0.3066
25.4000 -16.9020 0.3095
25.4200 -16.9154 0.3109
25.4400 -16.9286 0.3111
25.4600 -16.9419 0.3142
25.4800 -16.9553 0.3130
25.5000 -16.9687 0.3141
25.5200 -16.9820 0.3137
25.5400 -16.9953 0.3156
25.5600 -17.0086 0.3148
25.5800 -17.0220 0.3175
25.6000 -17.0354 0.3172
25.6200 -17.0487 0.3196
25.6400 -17.0620 0.3207
25.6600 -17.0753 0.3239
25.6800 -17.0887 0.3219
25.7000 -17.1021 0.3255
25.7200 -17.1154 0.3250
25.7400 -17.1287 0.3274
25.7600 -17.1420 0.3290
25.7800 -17.1554 0.3282
25.8000 -17.1687 0.3298
25.8200 -17.1820 0.3302
25.8400 -17.1953 0.3323
25.8600 -17.2087 0.3329
25.8800 -17.2220 0.3355
25.9000 -17.2353 0.3351
25.9200 -17.2487 0.3379
25.9400 -17.2621 0.3382
25.9600 -17.2754 0.3400
25.9800 -17.2887 0.3396
26.0000 -17.3020 0.3427
26.0200 -17.3153 0.3432
26.0400 -17.3287 0.3447
26.0600 -17.3420 0.3461
26.0800 -17.3553 0.3476
26.1000 -17.3687 0.3472
26.1200 -17.3820 0.3484
26.1400 -17.3953 0.3480
26.1600 -17.4086 0.3498
26.1800 -17.4219 0.3521
26.2000 -17.4353 0.3539
26.2200 -17.4487 0.3543
26.2400 -17.4620 0.3578
26.2600 -17.4753 0.3570
26.2800 -17.4887 0.3579
26.3000 -17.5020 0.3592
26.3200 -17.5154 0.3613
26.3400 -17.5287 0.3601
26.3600 -17.5420 0.3619
26.3800 -17.5553 0.3624
26.4000 -17.5687 0.3647
26.4200 -17.5820 0.3655
26.4400 -17.5953 0.3670
26.4600 -17.6086 0.3672
26.4800 -17.6219 0.3706
26.5000 -17.6353 0.3702
26.5200 -17.6486 0.3728
26.5400 -17.6620 0.3756
26.5600 -17.6753 0.3777
26.5800 -17.6887 0.3775
26.6000 -17.7020 0.3800
26.6200 -17.7153 0.3789
26.6400 -17.7286 0.3808
26.6600 -17.7420 0.3850
26.6800 -17.7554 0.3844
26.7000 -17.7687 0.3833
26.7200 -17.7820 0.3829
26.7400 -17.7953 0.3850
26.7600 -17.8087 0.3860
26.7800 -17.8221 0.3908
26.8000 -17.8354 0.3887
26.8200 -17.8487 0.3908
26.8400 -17.8621 0.3911
26.8600 -17.8754 0.3944
26.8800 -17.8887 0.3939
26.9000 -17.9020 0.3964
26.9200 -17.9153 0.3961
26.9400 -17.9286 0.3971
26.9600 -17.9420 0.3978
26.9800 -17.9553 0.3992
27.0000 -17.9686 0.3978
27.0200 -17.9820 0.4007
27.0400 -17.9954 0.4008
27.0600 -18.0087 0.4009
27.0800 -18.0220 0.4041
27.1000 -18.0354 0.4056
27.1200 -18.0488 0.4051
27.1400 -18.0621 0.4061
27.1600 -18.0754 0.4074
27.1800 -18.0887 0.4070
27.2000 -18.1020 0.4085
27.2200 -18.1154 0.4104
27.2400 -18.1287 0.4103
27.2600 -18.1420 0.4109
27.2800 -18.1553 0.4133
27.3000 -18.1687 0.4119
27.3200 -18.1820 0.4148
27.3400 -18.1953 0.4143
27.3600 -18.2087 0.4162
27.3800 -18.2220 0.4169
27.4000 -18.2354 0.4188
27.4200 -18.2488 0.4195
27.4400 -18.2621 0.4202
27.4600 -18.2754 0.4209
27.4800 -18.2887 0.4220
27.5000 -18.3021 0.4253
27.5200 -18.3154 0.4271
27.5400 -18.3287 0.4267
27.5600 -18.3420 0.4295
27.5800 -18.3554 0.4336
27.6000 -18.3687 0.4335
27.6200 -18.3819 0.4344
27.6400 -18.3953 0.4348
27.6600 -18.4086 0.4339
27.6800 -18.4220 0.4354
27.7000 -18.4353 0.4369
27.7200 -18.4487 0.4363
27.7400 -18.4620 0.4419
27.7600 -18.4754 0.4411
27.7800 -18.4887 0.4401
27.8000 -18.5020 0.4425
27.8200 -18.5154 0.4442
27.8400 -18.5287 0.4437
27.8600 -18.5421 0.4474
27.8800 -18.5554 0.4452
27.9000 -18.5687 0.4486
27.9200 -18.5820 0.4496
27.9400 -18.5954 0.4505
27.9600 -18.6087 0.4511
27.9800 -18.6219 0.4529
28.0000 -18.6353 0.4526
28.0200 -18.6486 0.4551
28.0400 -18.6620 0.4566
28.0600 -18.6753 0.4603
28.0800 -18.6886 0.4577
28.1000 -18.7020 0.4605
28.1200 -18.7154 0.4616
28.1400 -18.7287 0.4633
28.1600 -18.7421 0.4663
28.1800 -18.7554 0.4682
28.2000 -18.7687 0.4659
28.2200 -18.7821 0.4688
28.2400 -18.7954 0.4719
28.2600 -18.8087 0.4708
28.2800 -18.8220 0.4747
28.3000 -18.8353 0.4755
28.3200 -18.8487 0.4730
28.3400 -18.8620 0.4753
28.3600 -18.8753 0.4776
28.3800 -18.8887 0.4782
28.4000 -18.9020 0.4812
28.4200 -18.9153 0.4802
28.4400 -18.9286 0.4824
28.4600 -18.9420 0.4834
28.4800 -18.9554 0.4863
28.5000 -18.9687 0.4856
28.5200 -18.9820 0.4887
28.5400 -18.9953 0.4896
28.5600 -19.0087 0.4893
28.5800 -19.0221 0.4903
28.6000 -19.0354 0.4927
28.6200 -19.0487 0.4906
28.6400 -19.0621 0.4961
28.6600 -19.0754 0.4974
28.6800 -19.0887 0.4975
28.7000 -19.1020 0.5001
28.7200 -19.1153 0.5005
28.7400 -19.1286 0.5007
28.7600 -19.1420 0.5031
28.7800 -19.1553 0.5038
28.8000 -19.1686 0.5062
28.8200 -19.1820 0.5085
28.8400 -19.1954 0.5106
28.8600 -19.2087 0.5111
28.8800 -19.2220 0.5135
28.9000 -19.2353 0.5122
28.9200 -19.2487 0.5131
28.9400 -19.2621 0.5150
28.9600 -19.2754 0.5149
28.9800 -19.2887 0.5164
29.0000 -19.3020 0.5187
29.0200 -19.3154 0.5195
29.0400 -19.3287 0.5213
29.0600 -19.3420 0.5203
29.0800 -19.3553 0.5207
29.1000 -19.3686 0.5200
29.1200 -19.3820 0.5213
29.1400 -19.3953 0.5246
29.1600 -19.4086 0.5248
29.1800 -19.4220 0.5275
29.2000 -19.4354 0.5287
29.2200 -19.4488 0.5312
29.2400 -19.4621 0.5311
29.2600 -19.4754 0.5320
29.2800 -19.4887 0.5331
29.3000 -19.5021 0.5372
29.3200 -19.5154 0.5369
29.3400 -19.5287 0.5383
29.3600 -19.5420 0.5383
29.3800 -19.5553 0.5414
29.4000 -19.5686 0.5400
29.4200 -19.5819 0.5441
29.4400 -19.5953 0.5462
29.4600 -19.6086 0.5468
29.4800 -19.6220 0.5472
29.5000 -19.6353 0.5498
29.5200 -19.6487 0.5492
29.5400 -19.6620 0.5503
29.5600 -19.6754 0.5532
29.5800 -19.6888 0.5525
29.6000 -19.7021 0.5538
29.6200 -19.7154 0.5565
29.6400 -19.7287 0.5567
29.6600 -19.7421 0.5581
29.6800 -19.7554 0.5621
29.7000 -19.7687 0.5583
29.7200 -19.7820 0.5631
29.7400 -19.7954 0.5635
29.7600 -19.8087 0.5653
29.7800 -19.8220 0.5657
29.8000 -19.8353 0.5705
29.8200 -19.8486 0.5671
29.8400 -19.8620 0.5694
29.8600 -19.8753 0.5710
29.8800 -19.8887 0.5705
29.9000 -19.9020 0.5725
29.9200 -19.9154 0.5767
29.9400 -19.9287 0.5756
29.9600 -19.9420 0.5775
29.9800 -19.9553 0.5799
30.0000 -19.9687 0.5780
30.0200 -19.9820 0.5828
30.0400 -19.9954 0.5844
30.0600 -20.0087 0.5853
30.0800 -20.0220 0.5855
30.1000 -20.0354 0.5883
30.1200 -20.0487 0.5890
30.1400 -20.0620 0.5908
30.1600 -20.0753 0.5931
30.1800 -20.0886 0.5937
30.2000 -20.1020 0.5948
30.2200 -20.1154 0.5990
30.2400 -20.1287 0.5963
30.2600 -20.1420 0.6006
30.2800 -20.1554 0.6027
30.3000 -20.1687 0.6025
30.3200 -20.1820 0.6029
30.3400 -20.1954 0.6064
30.3600 -20.2087 0.6049
30.3800 -20.2221 0.6078
30.4000 -20.2354 0.6111
30.4200 -20.2487 0.6127
30.4400 -20.2620 0.6128
30.4600 -20.2753 0.6183
30.4800 -20.2886 0.6134
30.5000 -20.3019 0.6171
30.5200 -20.3153 0.6170
30.5400 -20.3286 0.6189
30.5600 -20.3420 0.6194
30.5800 -20.3554 0.6249
30.6000 -20.3687 0.6229
30.6200 -20.3820 0.6242
30.6400 -20.3954 0.6269
30.6600 -20.4087 0.6273
30.6800 -20.4220 0.6282
30.7000 -20.4354 0.6297
30.7200 -20.4487 0.6292
30.7400 -20.4621 0.6239
30.7600 -20.4754 0.5903
30.7800 -20.4887 0.5266
30.8000 -20.5020 0.4616
30.8200 -20.5153 0.3922
30.8400 -20.5287 0.3205
30.8600 -20.5420 0.2484
30.8800 -20.5552 0.1765
30.9000 -20.5686 0.1005
30.9200 -20.5820 0.0279
30.9400 -20.5953 -0.0453
30.9600 -20.6086 -0.1273
30.9800 -20.6220 -0.2089
31.0000 -20.6354 -0.2873
31.0200 -20.6488 -0.3383
31.0400 -20.6621 -0.3758
31.0600 -20.6754 -0.4220
31.0800 -20.6887 -0.4744
31.1000 -20.7021 -0.5238
31.1200 -20.7154 -0.5730
31.1400 -20.7287 -0.6263
31.1600 -20.7420 -0.6823
31.1800 -20.7553 -0.7395
31.2000 -20.7687 -0.8000
31.2200 -20.7820 -0.8632
31.2400 -20.7953 -0.9199
31.2600 -20.8086 -0.9770
31.2800 -20.8220 -1.0178
31.3000 -20.8353 -1.0286
31.3200 -20.8486 -1.0310
31.3400 -20.8620 -1.0272
31.3600 -20.8754 -1.0227
31.3800 -20.8888 -1.0231
31.4000 -20.9021 -1.0223
31.4200 -20.9154 -1.0208
31.4400 -20.9287 -1.0208
31.4600 -20.9421 -1.0202
31.4800 -20.9554 -1.0187
31.5000 -20.9687 -1.0197
31.5200 -20.9820 -1.0191
31.5400 -20.9953 -1.0139
31.5600 -21.0087 -1.0166
31.5800 -21.0220 -1.0146
31.6000 -21.0353 -1.0145
31.6200 -21.0486 -1.0111
31.6400 -21.0620 -1.0166
31.6600 -21.0754 -1.0095
31.6800 -21.0887 -1.0131
31.7000 -21.1020 -1.0075
31.7200 -21.1154 -1.0083
31.7400 -21.1287 -1.0028
31.7600 -21.1420 -1.0043
31.7800 -21.1553 -1.0002
31.8000 -21.1686 -1.0017
31.8200 -21.1820 -0.9996
31.8400 -21.1953 -0.9962
31.8600 -21.2087 -0.9967
31.8800 -21.2220 -0.9946
31.9000 -21.2353 -0.9933
31.9200 -21.2487 -0.9913
31.9400 -21.2620 -0.9904
31.9600 -21.2753 -0.9865
31.9800 -21.2886 -0.9862
32.0000 -21.3020 -0.9831
32.0200 -21.3153 -0.9828
32.0400 -21.3286 -0.9786
32.0600 -21.3420 -0.9815
32.0800 -21.3554 -0.9728
32.1000 -21.3687 -0.9763
32.1200 -21.3821 -0.9709
32.1400 -21.3954 -0.9710
32.1600 -21.4087 -0.9665
32.1800 -21.4221 -0.9679
32.2000 -21.4354 -0.9636
32.2200 -21.4487 -0.9650
32.2400 -21.4620 -0.9609
32.2600 -21.4754 -0.9584
32.2800 -21.4887 -0.9559
32.3000 -21.5020 -0.9567
32.3200 -21.5153 -0.9537
32.3400 -21.5286 -0.9521
32.3600 -21.5420 -0.9522
32.3800 -21.5553 -0.9485
32.4000 -21.5687 -0.9487
32.4200 -21.5820 -0.9476
32.4400 -21.5953 -0.9449
32.4600 -21.6087 -0.9424
32.4800 -21.6221 -0.9428
32.5000 -21.6354 -0.9380
32.5200 -21.6487 -0.9357
32.5400 -21.6621 -0.9343
32.5600 -21.6754 -0.9325
32.5800 -21.6887 -0.9321
32.6000 -21.7020 -0.9325
32.6200 -21.7154 -0.9266
32.6400 -21.7287 -0.9278
32.6600 -21.7420 -0.9258
32.6800 -21.7553 -0.9242
32.7000 -21.7686 -0.9227
32.7200 -21.7820 -0.9227
32.7400 -21.7953 -0.9209
32.7600 -21.8087 -0.9179
32.7800 -21.8220 -0.9162
32.8000 -21.8353 -0.9132
32.8200 -21.8487 -0.9113
32.8400 -21.8621 -0.9108
32.8600 -21.8754 -0.9081
32.8800 -21.8887 -0.9072
32.9000 -21.9020 -0.9058
32.9200 -21.9154 -0.9011
32.9400 -21.9287 -0.9006
32.9600 -21.9420 -0.9013
32.9800 -21.9554 -0.8972
33.0000 -21.9687 -0.8969
33.0200 -21.9820 -0.8965
33.0400 -21.9953 -0.8949
33.0600 -22.0086 -0.8929
33.0800 -22.0220 -0.8939
33.1000 -22.0353 -0.8891
33.1200 -22.0487 -0.8883
33.1400 -22.0620 -0.8861
33.1600 -22.0753 -0.8838
33.1800 -22.0887 -0.8809
33.2000 -22.1021 -0.8787
33.2200 -22.1154 -0.8770
33.2400 -22.1287 -0.8752
33.2600 -22.1420 -0.8756
33.2800 -22.1554 -0.8713
33.3000 -22.1687 -0.8722
33.3200 -22.1820 -0.8688
33.3400 -22.1953 -0.8670
33.3600 -22.2087 -0.8611
33.3800 -22.2220 -0.8634
33.4000 -22.2353 -0.8573
33.4200 -22.2486 -0.8596
33.4400 -22.2620 -0.8571
33.4600 -22.2754 -0.8535
33.4800 -22.2887 -0.8503
33.5000 -22.3020 -0.8511
33.5200 -22.3153 -0.8458
33.5400 -22.3287 -0.8465
33.5600 -22.3421 -0.8451
33.5800 -22.3554 -0.8447
33.6000 -22.3687 -0.8433
33.6200 -22.3820 -0.8431
33.6400 -22.3954 -0.8404
33.6600 -22.4087 -0.8388
33.6800 -22.4220 -0.8405
33.7000 -22.4353 -0.8373
33.7200 -22.4487 -0.8394
33.7400 -22.4620 -0.8358
33.7600 -22.4753 -0.8333
33.7800 -22.4886 -0.8319
33.8000 -22.5020 -0.8349
33.8200 -22.5154 -0.8331
33.8400 -22.5287 -0.8336
33.8600 -22.5420 -0.8336
33.8800 -22.5553 -0.8315
33.9000 -22.5687 -0.8307
33.9200 -22.5821 -0.8307
33.9400 -22.5954 -0.8297
33.9600 -22.6087 -0.8284
33.9800 -22.6220 -0.8276
34.0000 -22.6354 -0.8232
34.0200 -22.6487 -0.8233
34.0400 -22.6620 -0.8226
34.0600 -22.6754 -0.8205
34.0800 -22.6887 -0.8197
34.1000 -22.7021 -0.8197
34.1200 -22.7153 -0.8185
34.1400 -22.7286 -0.8165
34.1600 -22.7419 -0.8157
34.1800 -22.7553 -0.8136
34.2000 -22.7686 -0.8117
34.2200 -22.7819 -0.8110
34.2400 -22.7953 -0.8085
34.2600 -22.8087 -0.8064
34.2800 -22.8221 -0.8072
34.3000 -22.8354 -0.8038
34.3200 -22.8487 -0.8046
34.3400 -22.8621 -0.8043
34.3600 -22.8754 -0.8029
34.3800 -22.8888 -0.7997
34.4000 -22.9021 -0.8016
34.4200 -22.9154 -0.7984
34.4400 -22.9287 -0.7961
34.4600 -22.9420 -0.7975
34.4800 -22.9553 -0.7953
34.5000 -22.9686 -0.7949
34.5200 -22.9820 -0.7929
34.5400 -22.9953 -0.7927
34.5600 -23.0087 -0.7906
34.5800 -23.0220 -0.7922
34.6000 -23.0354 -0.7881
34.6200 -23.0487 -0.7875
34.6400 -23.0621 -0.7874
34.6600 -23.0754 -0.7857
34.6800 -23.0887 -0.7821
34.7000 -23.1021 -0.7837
34.7200 -23.1154 -0.7803
34.7400 -23.1287 -0.7772
34.7600 -23.1420 -0.7787
34.7800 -23.1553 -0.7769
34.8000 -23.1687 -0.7753
34.8200 -23.1820 -0.7755
34.8400 -23.1953 -0.7735
34.8600 -23.2086 -0.7714
34.8800 -23.2220 -0.7719
34.9000 -23.2353 -0.7696
34.9200 -23.2487 -0.7684
34.9400 -23.2620 -0.7682
34.9600 -23.2753 -0.7665
34.9800 -23.2887 -0.7637
35.0000 -23.3021 -0.7639
35.0200 -23.3154 -0.7609
35.0400 -23.3287 -0.7580
35.0600 -23.3421 -0.7588
35.0800 -23.3554 -0.7578
35.1000 -23.3687 -0.7560
35.1200 -23.3820 -0.7537
35.1400 -23.3954 -0.7510
35.1600 -23.4087 -0.7520
35.1800 -23.4220 -0.7502
35.2000 -23.4353 -0.7494
35.2200 -23.4486 -0.7454
35.2400 -23.4619 -0.7461
35.2600 -23.4753 -0.7417
35.2800 -23.4887 -0.7389
35.3000 -23.5020 -0.7392
35.3200 -23.5153 -0.7375
35.3400 -23.5287 -0.7347
35.3600 -23.5421 -0.7343
35.3800 -23.5554 -0.7324
35.4000 -23.5687 -0.7305
35.4200 -23.5821 -0.7301
35.4400 -23.5954 -0.7281
35.4600 -23.6088 -0.7266
35.4800 -23.6220 -0.7260
35.5000 -23.6354 -0.7238
35.5200 -23.6487 -0.7202
35.5400 -23.6620 -0.7200
35.5600 -23.6753 -0.7180
35.5800 -23.6886 -0.7157
35.6000 -23.7020 -0.7152
35.6200 -23.7153 -0.7118
35.6400 -23.7287 -0.7117
35.6600 -23.7420 -0.7141
35.6800 -23.7553 -0.7119
35.7000 -23.7687 -0.7112
35.7200 -23.7820 -0.7101
35.7400 -23.7954 -0.7084
35.7600 -23.8087 -0.7069
35.7800 -23.8220 -0.7083
35.8000 -23.8354 -0.7062
35.8200 -23.8487 -0.7046
35.8400 -23.8621 -0.7055
35.8600 -23.8754 -0.7036
35.8800 -23.8887 -0.7014
35.9000 -23.9021 -0.7056
35.9200 -23.9153 -0.7041
35.9400 -23.9286 -0.7024
35.9600 -23.9419 -0.7020
35.9800 -23.9553 -0.7036
36.0000 -23.9687 -0.6998
36.0200 -23.9820 -0.7021
36.0400 -23.9953 -0.7018
36.0600 -24.0087 -0.6994
36.0800 -24.0221 -0.6994
36.1000 -24.0354 -0.6994
36.1200 -24.0487 -0.6981
36.1400 -24.0620 -0.6992
36.1600 -24.0754 -0.6966
36.1800 -24.0888 -0.6929
36.2000 -24.1021 -0.6937
36.2200 -24.1154 -0.6966
36.2400 -24.1287 -0.6929
36.2600 -24.1420 -0.6939
36.2800 -24.1553 -0.6924
36.3000 -24.1686 -0.6894
36.3200 -24.1819 -0.6896
36.3400 -24.1953 -0.6892
36.3600 -24.2087 -0.6847
36.3800 -24.2220 -0.6870
36.4000 -24.2353 -0.6861
36.4200 -24.2487 -0.6839
36.4400 -24.2621 -0.6851
36.4600 -24.2754 -0.6827
36.4800 -24.2887 -0.6805
36.5000 -24.3021 -0.6809
36.5200 -24.3154 -0.6806
36.5400 -24.3288 -0.6756
36.5600 -24.3421 -0.6757
36.5800 -24.3553 -0.6745
36.6000 -24.3686 -0.6711
36.6200 -24.3820 -0.6702
36.6400 -24.3953 -0.6684
36.6600 -24.4086 -0.6660
36.6800 -24.4219 -0.6675
36.7000 -24.4353 -0.6650
36.7200 -24.4487 -0.6610
36.7400 -24.4620 -0.6606
36.7600 -24.4753 -0.6600
36.7800 -24.4887 -0.6570
36.8000 -24.5021 -0.6554
36.8200 -24.5154 -0.6539
36.8400 -24.5287 -0.6527
36.8600 -24.5420 -0.6524
36.8800 -24.5554 -0.6505
36.9000 -24.5688 -0.6485
36.9200 -24.5821 -0.6496
36.9400 -24.5954 -0.6483
36.9600 -24.6087 -0.6441
36.9800 -24.6220 -0.6442
37.0000 -24.6354 -0.6424
37.0200 -24.6486 -0.6420
37.0400 -24.6620 -0.6418
37.0600 -24.6753 -0.6407
37.0800 -24.6887 -0.6373
37.1000 -24.7020 -0.6376
37.1200 -24.7153 -0.6390
37.1400 -24.7287 -0.6374
37.1600 -24.7421 -0.6358
37.1800 -24.7554 -0.6345
37.2000 -24.7687 -0.6319
37.2200 -24.7820 -0.6327
37.2400 -24.7953 -0.6309
37.2600 -24.8087 -0.6286
37.2800 -24.8220 -0.6304
37.3000 -24.8353 -0.6302
37.3200 -24.8487 -0.6259
37.3400 -24.8620 -0.6257
37.3600 -24.8753 -0.6259
37.3800 -24.8886 -0.6238
37.4000 -24.9019 -0.6244
37.4200 -24.9153 -0.6238
37.4400 -24.9287 -0.6219
37.4600 -24.9420 -0.6210
37.4800 -24.9553 -0.6209
37.5000 -24.9687 -0.6162
37.5200 -24.9821 -0.6184
37.5400 -24.9954 -0.6141
37.5600 -25.0087 -0.6146
37.5800 -25.0220 -0.6124
37.6000 -25.0354 -0.6130
37.6200 -25.0487 -0.6098
37.6400 -25.0620 -0.6110
37.6600 -25.0753 -0.6091
37.6800 -25.0887 -0.6097
37.7000 -25.1020 -0.6093
37.7200 -25.1153 -0.6098
37.7400 -25.1286 -0.6042
37.7600 -25.1420 -0.6048
37.7800 -25.1553 -0.6033
37.8000 -25.1687 -0.6041
37.8200 -25.1820 -0.6015
37.8400 -25.1953 -0.6001
37.8600 -25.2087 -0.5990
37.8800 -25.2221 -0.5991
37.9000 -25.2354 -0.5999
37.9200 -25.2487 -0.5967
37.9400 -25.2620 -0.5951
37.9600 -25.2754 -0.5959
37.9800 -25.2888 -0.5943
38.0000 -25.3021 -0.5946
38.0200 -25.3154 -0.5941
38.0400 -25.3287 -0.5920
38.0600 -25.3420 -0.5916
38.0800 -25.3553 -0.5920
38.1000 -25.3686 -0.5891
38.1200 -25.3819 -0.5891
38.1400 -25.3953 -0.5911
38.1600 -25.4086 -0.5869
38.1800 -25.4220 -0.5875
38.2000 -25.4353 -0.5865
38.2200 -25.4487 -0.5843
38.2400 -25.4620 -0.5827
38.2600 -25.4754 -0.5829
38.2800 -25.4887 -0.5808
38.3000 -25.5020 -0.5827
38.3200 -25.5154 -0.5810
38.3400 -25.5287 -0.5802
38.3600 -25.5421 -0.5786
38.3800 -25.5554 -0.5791
38.4000 -25.5687 -0.5762
38.4200 -25.5820 -0.5764
38.4400 -25.5953 -0.5766
38.4600 -25.6086 -0.5746
38.4800 -25.6219 -0.5734
38.5000 -25.6353 -0.5736
38.5200 -25.6486 -0.5709
38.5400 -25.6620 -0.5699
38.5600 -25.6753 -0.5681
38.5800 -25.6887 -0.5674
38.6000 -25.7021 -0.5657
38.6200 -25.7155 -0.5645
38.6400 -25.7288 -0.5639
38.6600 -25.7420 -0.5621
38.6800 -25.7554 -0.5625
38.7000 -25.7687 -0.5603
38.7200 -25.7820 -0.5580
38.7400 -25.7953 -0.5583
38.7600 -25.8087 -0.5580
38.7800 -25.8220 -0.5568
38.8000 -25.8353 -0.5559
38.8200 -25.8486 -0.5518
38.8400 -25.8619 -0.5515
38.8600 -25.8753 -0.5517
38.8800 -25.8887 -0.5497
38.9000 -25.9020 -0.5486
38.9200 -25.9153 -0.5500
38.9400 -25.9287 -0.5463
38.9600 -25.9421 -0.5456
38.9800 -25.9554 -0.5460
39.0000 -25.9687 -0.5434
39.0200 -25.9819 -0.5421
39.0400 -25.9953 -0.5429
39.0600 -26.0087 -0.5406
39.0800 -26.0220 -0.5398
39.1000 -26.0353 -0.5410
39.1200 -26.0486 -0.5396
39.1400 -26.0620 -0.5399
39.1600 -26.0753 -0.5377
39.1800 -26.0886 -0.5371
39.2000 -26.1019 -0.5365
39.2200 -26.1153 -0.5382
39.2400 -26.1287 -0.5344
39.2600 -26.1420 -0.5339
39.2800 -26.1553 -0.5341
39.3000 -26.1687 -0.5336
39.3200 -26.1820 -0.5326
39.3400 -26.1954 -0.5338
39.3600 -26.2087 -0.5301
39.3800 -26.2220 -0.5300
39.4000 -26.2354 -0.5294
39.4200 -26.2488 -0.5275
39.4400 -26.2621 -0.5263
39.4600 -26.2754 -0.5284
39.4800 -26.2887 -0.5237
39.5000 -26.3020 -0.5228
39.5200 -26.3154 -0.5231
39.5400 -26.3287 -0.5222
39.5600 -26.3420 -0.5198
39.5800 -26.3553 -0.5204
39.6000 -26.3687 -0.5170
39.6200 -26.3820 -0.5165
39.6400 -26.3953 -0.5163
39.6600 -26.4087 -0.5153
39.6800 -26.4220 -0.5147
39.7000 -26.4354 -0.5155
39.7200 -26.4487 -0.5111
39.7400 -26.4620 -0.5097
39.7600 -26.4754 -0.5109
39.7800 -26.4887 -0.5080
39.8000 -26.5021 -0.5067
39.8200 -26.5153 -0.5081
39.8400 -26.5287 -0.5081
39.8600 -26.5420 -0.5046
39.8800 -26.5553 -0.5043
39.9000 -26.5686 -0.5007
39.9200 -26.5819 -0.5018
39.9400 -26.5953 -0.4994
39.9600 -26.6087 -0.4976
39.9800 -26.6220 -0.4954
40.0000 -26.6353 -0.4971
40.0200 -26.6486 -0.4937
40.0400 -26.6620 -0.4953
40.0600 -26.6754 -0.4931
40.0800 -26.6887 -0.4933
40.1000 -26.7020 -0.4883
40.1200 -26.7153 -0.4922
40.1400 -26.7287 -0.4904
40.1600 -26.7420 -0.4912
40.1800 -26.7554 -0.4882
40.2000 -26.7687 -0.4872
40.2200 -26.7821 -0.4833
40.2400 -26.7954 -0.4839
40.2600 -26.8087 -0.4820
40.2800 -26.8220 -0.4813
40.3000 -26.8353 -0.4813
40.3200 -26.8487 -0.4820
40.3400 -26.8620 -0.4787
40.3600 -26.8753 -0.4789
40.3800 -26.8887 -0.4788
40.4000 -26.9020 -0.4752
40.4200 -26.9154 -0.4754
40.4400 -26.9287 -0.4745
40.4600 -26.9420 -0.4755
40.4800 -26.9554 -0.4737
40.5000 -26.9687 -0.4731
40.5200 -26.9820 -0.4705
40.5400 -26.9953 -0.4715
40.5600 -27.0087 -0.4691
40.5800 -27.0220 -0.4677
40.6000 -27.0353 -0.4669
40.6200 -27.0487 -0.4663
40.6400 -27.0620 -0.4640
40.6600 -27.0753 -0.4666
40.6800 -27.0887 -0.4633
40.7000 -27.1020 -0.4611
40.7200 -27.1154 -0.4606
40.7400 -27.1287 -0.4610
40.7600 -27.1420 -0.4594
40.7800 -27.1554 -0.4617
40.8000 -27.1687 -0.4609
40.8200 -27.1820 -0.4598
40.8400 -27.1954 -0.4574
40.8600 -27.2087 -0.4562
40.8800 -27.2221 -0.4541
40.9000 -27.2354 -0.4561
40.9200 -27.2487 -0.4538
40.9400 -27.2620 -0.4532
40.9600 -27.2753 -0.4546
40.9800 -27.2886 -0.4534
41.0000 -27.3019 -0.4519
41.0200 -27.3153 -0.4516
41.0400 -27.3287 -0.4513
41.0600 -27.3420 -0.4490
41.0800 -27.3553 -0.4501
41.1000 -27.3686 -0.4509
41.1200 -27.3820 -0.4479
41.1400 -27.3954 -0.4462
41.1600 -27.4087 -0.4460
41.1800 -27.4220 -0.4448
41.2000 -27.4353 -0.4474
41.2200 -27.4487 -0.4448
41.2400 -27.4621 -0.4421
41.2600 -27.4754 -0.4432
41.2800 -27.4887 -0.4398
41.3000 -27.5020 -0.4394
41.3200 -27.5154 -0.4399
41.3400 -27.5287 -0.4381
41.3600 -27.5420 -0.4357
41.3800 -27.5553 -0.4359
41.4000 -27.5686 -0.4348
41.4200 -27.5819 -0.4341
41.4400 -27.5953 -0.4338
41.4600 -27.6086 -0.4336
41.4800 -27.6220 -0.4302
41.5000 -27.6354 -0.4292
41.5200 -27.6487 -0.4274
41.5400 -27.6620 -0.4251
41.5600 -27.6754 -0.4235
41.5800 -27.6887 -0.4222
41.6000 -27.7021 -0.4182
41.6200 -27.7154 -0.4195
41.6400 -27.7287 -0.4200
41.6600 -27.7420 -0.4186
41.6800 -27.7554 -0.4166
41.7000 -27.7687 -0.4162
41.7200 -27.7820 -0.4131
41.7400 -27.7953 -0.4131
41.7600 -27.8087 -0.4105
41.7800 -27.8220 -0.4102
41.8000 -27.8354 -0.4073
41.8200 -27.8487 -0.4088
41.8400 -27.8620 -0.4061
41.8600 -27.8754 -0.4062
41.8800 -27.8888 -0.4041
41.9000 -27.9021 -0.4046
41.9200 -27.9154 -0.4015
41.9400 -27.9287 -0.4022
41.9600 -27.9421 -0.3995
41.9800 -27.9554 -0.4007
42.0000 -27.9687 -0.3992
42.0200 -27.9820 -0.3964
42.0400 -27.9954 -0.3955
42.0600 -28.0087 -0.3962
42.0800 -28.0219 -0.3972
42.1000 -28.0353 -0.3991
42.1200 -28.0486 -0.3975
42.1400 -28.0620 -0.3962
42.1600 -28.0753 -0.3968
42.1800 -28.0887 -0.3963
42.2000 -28.1020 -0.3964
42.2200 -28.1154 -0.3978
42.2400 -28.1287 -0.3980
42.2600 -28.1420 -0.3954
42.2800 -28.1554 -0.3964
42.3000 -28.1687 -0.3944
42.3200 -28.1821 -0.3970
42.3400 -28.1954 -0.3942
42.3600 -28.2087 -0.3965
42.3800 -28.2220 -0.3948
42.4000 -28.2353 -0.3951
42.4200 -28.2487 -0.3924
42.4400 -28.2619 -0.3934
42.4600 -28.2752 -0.3903
42.4800 -28.2886 -0.3899
42.5000 -28.3020 -0.3887
42.5200 -28.3153 -0.3904
42.5400 -28.3286 -0.3903
42.5600 -28.3420 -0.3869
42.5800 -28.3554 -0.3851
42.6000 -28.3688 -0.3849
42.6200 -28.3821 -0.3853
42.6400 -28.3954 -0.3825
42.6600 -28.4087 -0.3826
42.6800 -28.4221 -0.3796
42.7000 -28.4354 -0.3761
42.7200 -28.4487 -0.3769
42.7400 -28.4620 -0.3765
42.7600 -28.4754 -0.3732
42.7800 -28.4887 -0.3713
42.8000 -28.5020 -0.3702
42.8200 -28.5153 -0.3691
42.8400 -28.5287 -0.3706
42.8600 -28.5420 -0.3676
42.8800 -28.5553 -0.3673
42.9000 -28.5686 -0.3655
42.9200 -28.5820 -0.3662
42.9400 -28.5953 -0.3620
42.9600 -28.6087 -0.3620
42.9800 -28.6220 -0.3614
43.0000 -28.6353 -0.3605
43.0200 -28.6487 -0.3595
43.0400 -28.6621 -0.3564
43.0600 -28.6754 -0.3566
43.0800 -28.6887 -0.3542
43.1000 -28.7021 -0.3531
43.1200 -28.7154 -0.3511
43.1400 -28.7287 -0.3510
43.1600 -28.7420 -0.3500
43.1800 -28.7553 -0.3470
43.2000 -28.7686 -0.3470
43.2200 -28.7820 -0.3444
43.2400 -28.7953 -0.3430
43.2600 -28.8086 -0.3440
43.2800 -28.8220 -0.3415
43.3000 -28.8353 -0.3422
43.3200 -28.8487 -0.3412
43.3400 -28.8620 -0.3401
43.3600 -28.8753 -0.3371
43.3800 -28.8887 -0.3372
43.4000 -28.9021 -0.3358
43.4200 -28.9154 -0.3371
43.4400 -28.9287 -0.3344
43.4600 -28.9420 -0.3350
43.4800 -28.9554 -0.3327
43.5000 -28.9687 -0.3307
43.5200 -28.9820 -0.3316
43.5400 -28.9953 -0.3286
43.5600 -29.0086 -0.3306
43.5800 -29.0220 -0.3271
43.6000 -29.0353 -0.3282
43.6200 -29.0486 -0.3261
43.6400 -29.0620 -0.3279
43.6600 -29.0753 -0.3253
43.6800 -29.0887 -0.3268
43.7000 -29.1021 -0.3263
43.7200 -29.1154 -0.3250
43.7400 -29.1287 -0.3224
43.7600 -29.1421 -0.3216
43.7800 -29.1554 -0.3193
43.8000 -29.1687 -0.3205
43.8200 -29.1820 -0.3171
43.8400 -29.1953 -0.3151
43.8600 -29.2086 -0.3163
43.8800 -29.2219 -0.3152
43.9000 -29.2352 -0.3151
43.9200 -29.2486 -0.3112
43.9400 -29.2620 -0.3126
43.9600 -29.2753 -0.3085
43.9800 -29.2887 -0.3092
44.0000 -29.3020 -0.3067
44.0200 -29.3154 -0.3071
44.0400 -29.3288 -0.3053
44.0600 -29.3421 -0.3065
44.0800 -29.3554 -0.3041
44.1000 -29.3687 -0.3068
44.1200 -29.3821 -0.3027
44.1400 -29.3954 -0.3029
44.1600 -29.4087 -0.3002
44.1800 -29.4220 -0.3013
44.2000 -29.4354 -0.2987
44.2200 -29.4487 -0.2985
44.2400 -29.4620 -0.2974
44.2600 -29.4753 -0.2969
44.2800 -29.4886 -0.2962
44.3000 -29.5020 -0.2975
44.3200 -29.5154 -0.2950
44.3400 -29.5287 -0.2935
44.3600 -29.5420 -0.2925
44.3800 -29.5554 -0.2940
44.4000 -29.5687 -0.2924
44.4200 -29.5821 -0.2926
44.4400 -29.5954 -0.2930
44.4600 -29.6087 -0.2913
44.4800 -29.6221 -0.2905
44.5000 -29.6354 -0.2904
44.5200 -29.6487 -0.2901
44.5400 -29.6620 -0.2934
44.5600 -29.6753 -0.2909
44.5800 -29.6887 -0.2881
44.6000 -29.7020 -0.2887
44.6200 -29.7153 -0.2873
44.6400 -29.7286 -0.2875
44.6600 -29.7420 -0.2866
44.6800 -29.7554 -0.2867
44.7000 -29.7687 -0.2851
44.7200 -29.7820 -0.2871
44.7400 -29.7953 -0.2849
44.7600 -29.8087 -0.2869
44.7800 -29.8221 -0.2856
44.8000 -29.8354 -0.2844
44.8200 -29.8487 -0.2823
44.8400 -29.8620 -0.2847
44.8600 -29.8754 -0.2813
44.8800 -29.8887 -0.2838
44.9000 -29.9020 -0.2831
44.9200 -29.9153 -0.2826
44.9400 -29.9287 -0.2799
44.9600 -29.9420 -0.2785
44.9800 -29.9553 -0.2768
45.0000 -29.9686 -0.2791
45.0200 -29.9820 -0.2777
45.0400 -29.9954 -0.2788
45.0600 -30.0087 -0.2788
45.0800 -30.0220 -0.2796
45.1000 -30.0354 -0.2777
45.1200 -30.0487 -0.2771
45.1400 -30.0621 -0.2774
45.1600 -30.0753 -0.2793
45.1800 -30.0887 -0.2773
45.2000 -30.1020 -0.2751
45.2200 -30.1154 -0.2719
45.2400 -30.1287 -0.2712
45.2600 -30.1420 -0.2721
45.2800 -30.1554 -0.2720
45.3000 -30.1687 -0.2704
45.3200 -30.1820 -0.2708
45.3400 -30.1953 -0.2688
45.3600 -30.2086 -0.2692
45.3800 -30.2220 -0.2699
45.4000 -30.2353 -0.2660
45.4200 -30.2486 -0.2647
45.4400 -30.2620 -0.2629
45.4600 -30.2754 -0.2626
45.4800 -30.2887 -0.2596
45.5000 -30.3021 -0.2608
45.5200 -30.3154 -0.2581
45.5400 -30.3287 -0.2577
45.5600 -30.3421 -0.2569
45.5800 -30.3554 -0.2542
45.6000 -30.3687 -0.2526
45.6200 -30.3820 -0.2531
45.6400 -30.3953 -0.2510
45.6600 -30.4087 -0.2483
45.6800 -30.4220 -0.2469
45.7000 -30.4353 -0.2464
45.7200 -30.4486 -0.2456
45.7400 -30.4620 -0.2441
45.7600 -30.4753 -0.2407
45.7800 -30.4886 -0.2405
45.8000 -30.5020 -0.2389
45.8200 -30.5154 -0.2368
45.8400 -30.5288 -0.2353
45.8600 -30.5421 -0.2346
45.8800 -30.5554 -0.2308
45.9000 -30.5687 -0.2300
45.9200 -30.5820 -0.2276
45.9400 -30.5954 -0.2270
45.9600 -30.6087 -0.2253
45.9800 -30.6220 -0.2252
46.0000 -30.6353 -0.2242
46.0200 -30.6487 -0.2261
46.0400 -30.6620 -0.2248
46.0600 -30.6753 -0.2232
46.0800 -30.6886 -0.2216
46.1000 -30.7020 -0.2202
46.1200 -30.7154 -0.2192
46.1400 -30.7287 -0.2180
46.1600 -30.7420 -0.2202
46.1800 -30.7554 -0.2177
46.2000 -30.7687 -0.2198
46.2200 -30.7820 -0.2174
46.2400 -30.7953 -0.2176
46.2600 -30.8086 -0.2177
46.2800 -30.8220 -0.2161
46.3000 -30.8354 -0.2155
46.3200 -30.8487 -0.2138
46.3400 -30.8620 -0.2130
46.3600 -30.8754 -0.2141
46.3800 -30.8887 -0.2122
46.4000 -30.9020 -0.2116
46.4200 -30.9153 -0.2138
46.4400 -30.9286 -0.2129
46.4600 -30.9420 -0.2118
46.4800 -30.9553 -0.2092
46.5000 -30.9687 -0.2102
46.5200 -30.9820 -0.2082
46.5400 -30.9953 -0.2075
46.5600 -31.0087 -0.2058
46.5800 -31.0221 -0.2068
46.6000 -31.0354 -0.2051
46.6200 -31.0487 -0.2059
46.6400 -31.0621 -0.2033
46.6600 -31.0754 -0.2034
46.6800 -31.0887 -0.2012
46.7000 -31.1020 -0.2026
46.7200 -31.1154 -0.1979
46.7400 -31.1287 -0.2001
46.7600 -31.1420 -0.1981
46.7800 -31.1553 -0.1979
46.8000 -31.1686 -0.1964
46.8200 -31.1820 -0.1957
46.8400 -31.1953 -0.1951
46.8600 -31.2086 -0.1938
46.8800 -31.2219 -0.1937
46.9000 -31.2353 -0.1940
46.9200 -31.2487 -0.1919
46.9400 -31.2620 -0.1922
46.9600 -31.2754 -0.1921
46.9800 -31.2887 -0.1902
47.0000 -31.3020 -0.1899
47.0200 -31.3154 -0.1857
47.0400 -31.3287 -0.1856
47.0600 -31.3420 -0.1846
47.0800 -31.3554 -0.1835
47.1000 -31.3687 -0.1805
47.1200 -31.3820 -0.1828
47.1400 -31.3953 -0.1809
47.1600 -31.4086 -0.1801
47.1800 -31.4220 -0.1786
47.2000 -31.4353 -0.1791
47.2200 -31.4487 -0.1746
47.2400 -31.4620 -0.1759
47.2600 -31.4753 -0.1730
47.2800 -31.4887 -0.1729
47.3000 -31.5020 -0.1732
47.3200 -31.5153 -0.1725
47.3400 -31.5287 -0.1699
47.3600 -31.5420 -0.1695
47.3800 -31.5554 -0.1685
47.4000 -31.5687 -0.1664
47.4200 -31.5820 -0.1649
47.4400 -31.5954 -0.1626
47.4600 -31.6087 -0.1602
47.4800 -31.6220 -0.1634
47.5000 -31.6353 -0.1616
47.5200 -31.6486 -0.1602
47.5400 -31.6620 -0.1591
47.5600 -31.6753 -0.1579
47.5800 -31.6887 -0.1542
47.6000 -31.7020 -0.1559
47.6200 -31.7154 -0.1541
47.6400 -31.7287 -0.1532
47.6600 -31.7421 -0.1521
47.6800 -31.7554 -0.1508
47.7000 -31.7687 -0.1493
47.7200 -31.7820 -0.1491
47.7400 -31.7953 -0.1492
47.7600 -31.8087 -0.1466
47.7800 -31.8220 -0.1499
47.8000 -31.8353 -0.1442
47.8200 -31.8487 -0.1455
47.8400 -31.8620 -0.1412
47.8600 -31.8753 -0.1413
47.8800 -31.8886 -0.1382
47.9000 -31.9020 -0.1388
47.9200 -31.9154 -0.1386
47.9400 -31.9287 -0.1381
47.9600 -31.9420 -0.1373
47.9800 -31.9553 -0.1375
48.0000 -31.9687 -0.1349
48.0200 -31.9821 -0.1352
48.0400 -31.9954 -0.1350
48.0600 -32.0087 -0.1327
48.0800 -32.0220 -0.1312
48.1000 -32.0354 -0.1305
48.1200 -32.0487 -0.1293
48.1400 -32.0620 -0.1287
48.1600 -32.0753 -0.1274
48.1800 -32.0887 -0.1250
48.2000 -32.1020 -0.1252
48.2200 -32.1153 -0.1277
48.2400 -32.1286 -0.1262
48.2600 -32.1420 -0.1249
48.2800 -32.1553 -0.1250
48.3000 -32.1687 -0.1214
48.3200 -32.1820 -0.1207
48.3400 -32.1953 -0.1230
48.3600 -32.2087 -0.1189
48.3800 -32.2221 -0.1177
48.4000 -32.2354 -0.1173
48.4200 -32.2487 -0.1164
48.4400 -32.2620 -0.1147
48.4600 -32.2754 -0.1171
48.4800 -32.2887 -0.1144
48.5000 -32.3020 -0.1153
48.5200 -32.3154 -0.1155
48.5400 -32.3287 -0.1125
48.5600 -32.3421 -0.1118
48.5800 -32.3553 -0.1102
48.6000 -32.3686 -0.1101
48.6200 -32.3819 -0.1087
48.6400 -32.3953 -0.1101
48.6600 -32.4086 -0.1057
48.6800 -32.4219 -0.1087
48.7000 -32.4353 -0.1047
48.7200 -32.4487 -0.1046
48.7400 -32.4621 -0.1043
48.7600 -32.4754 -0.1033
48.7800 -32.4887 -0.0998
48.8000 -32.5021 -0.1002
48.8200 -32.5154 -0.0987
48.8400 -32.5288 -0.0961
48.8600 -32.5421 -0.0981
48.8800 -32.5554 -0.0961
48.9000 -32.5687 -0.0938
48.9200 -32.5820 -0.0902
48.9400 -32.5953 -0.0932
48.9600 -32.6086 -0.0890
48.9800 -32.6220 -0.0898
49.0000 -32.6353 -0.0879
49.0200 -32.6487 -0.0864
49.0400 -32.6620 -0.0851
49.0600 -32.6753 -0.0855
49.0800 -32.6887 -0.0819
49.1000 -32.7021 -0.0811
49.1200 -32.7154 -0.0809
49.1400 -32.7287 -0.0781
49.1600 -32.7420 -0.0786
49.1800 -32.7554 -0.0763
49.2000 -32.7687 -0.0758
49.2200 -32.7820 -0.0749
49.2400 -32.7953 -0.0734
49.2600 -32.8087 -0.0707
49.2800 -32.8220 -0.0707
49.3000 -32.8353 -0.0718
49.3200 -32.8486 -0.0720
49.3400 -32.8619 -0.0692
49.3600 -32.8753 -0.0714
49.3800 -32.8887 -0.0669
49.4000 -32.9020 -0.0695
49.4200 -32.9153 -0.0680
49.4400 -32.9287 -0.0657
49.4600 -32.9421 -0.0661
49.4800 -32.9554 -0.0679
49.5000 -32.9687 -0.0656
49.5200 -32.9820 -0.0661
49.5400 -32.9954 -0.0661
49.5600 -33.0087 -0.0639
49.5800 -33.0220 -0.0621
49.6000 -33.0353 -0.0634
49.6200 -33.0487 -0.0608
49.6400 -33.0620 -0.0630
49.6600 -33.0753 -0.0632
49.6800 -33.0886 -0.0617
49.7000 -33.1019 -0.0609
49.7200 -33.1153 -0.0607
49.7400 -33.1287 -0.0585
49.7600 -33.1420 -0.0612
49.7800 -33.1553 -0.0618
49.8000 -33.1687 -0.0570
49.8200 -33.1821 -0.0557
49.8400 -33.1954 -0.0555
49.8600 -33.2087 -0.0537
49.8800 -33.2221 -0.0548
49.9000 -33.2354 -0.0559
49.9200 -33.2488 -0.0503
49.9400 -33.2621 -0.0479
49.9600 -33.2754 -0.0494
49.9800 -33.2887 -0.0485
50.0000 -33.3020 -0.0490
50.0200 -33.3153 -0.0479
50.0400 -33.3286 -0.0456
50.0600 -33.3420 -0.0435
50.0800 -33.3553 -0.0459
50.1000 -33.3687 -0.0422
50.1200 -33.3820 -0.0421
50.1400 -33.3953 -0.0407
50.1600 -33.4087 -0.0378
50.1800 -33.4220 -0.0385
50.2000 -33.4354 -0.0393
50.2200 -33.4487 -0.0363
50.2400 -33.4620 -0.0321
50.2600 -33.4754 -0.0337
50.2800 -33.4888 -0.0301
50.3000 -33.5021 -0.0327
50.3200 -33.5154 -0.0286
50.3400 -33.5287 -0.0307
50.3600 -33.5421 -0.0280
50.3800 -33.5554 -0.0303
50.4000 -33.5686 -0.0248
50.4200 -33.5820 -0.0263
50.4400 -33.5953 -0.0224
50.4600 -33.6087 -0.0236
50.4800 -33.6220 -0.0222
50.5000 -33.6353 -0.0230
50.5200 -33.6487 -0.0196
50.5400 -33.6620 -0.0213
50.5600 -33.6754 -0.0196
50.5800 -33.6887 -0.0184
50.6000 -33.7020 -0.0176
50.6200 -33.7154 -0.0194
50.6400 -33.7287 -0.0165
50.6600 -33.7421 -0.0158
50.6800 -33.7554 -0.0180
50.7000 -33.7687 -0.0135
50.7200 -33.7820 -0.0131
50.7400 -33.7953 -0.0143
50.7600 -33.8086 -0.0142
50.7800 -33.8219 -0.0121
50.8000 -33.8353 -0.0117
50.8200 -33.8487 -0.0105
50.8400 -33.8620 -0.0092
50.8600 -33.8753 -0.0114
50.8800 -33.8886 -0.0067
50.9000 -33.9020 -0.0069
50.9200 -33.9154 -0.0071
50.9400 -33.9287 -0.0066
50.9600 -33.9420 -0.0041
50.9800 -33.9554 -0.0058
51.0000 -33.9687 -0.0018
51.0200 -33.9821 0.0005
51.0400 -33.9953 0.0002
51.0600 -34.0086 0.0017
51.0800 -34.0219 0.0034
51.1000 -34.0353 0.0044
51.1200 -34.0486 0.0051
51.1400 -34.0619 0.0092
51.1600 -34.0753 0.0062
51.1800 -34.0887 0.0103
51.2000 -34.1020 0.0108
51.2200 -34.1153 0.0129
51.2400 -34.1287 0.0135
51.2600 -34.1421 0.0171
51.2800 -34.1554 0.0145
51.3000 -34.1687 0.0197
51.3200 -34.1820 0.0222
51.3400 -34.1954 0.0226
51.3600 -34.2088 0.0239
51.3800 -34.2221 0.0246
51.4000 -34.2354 0.0237
51.4200 -34.2487 0.0258
51.4400 -34.2620 0.0303
51.4600 -34.2754 0.0278
51.4800 -34.2887 0.0307
51.5000 -34.3020 0.0329
51.5200 -34.3153 0.0350
51.5400 -34.3287 0.0356
51.5600 -34.3420 0.0358
51.5800 -34.3553 0.0340
51.6000 -34.3687 0.0347
51.6200 -34.3821 0.0384
51.6400 -34.3954 0.0355
51.6600 -34.4087 0.0371
51.6800 -34.4220 0.0378
51.7000 -34.4354 0.0379
51.7200 -34.4487 0.0404
51.7400 -34.4620 0.0409
51.7600 -34.4753 0.0385
51.7800 -34.4887 0.0415
51.8000 -34.5020 0.0390
51.8200 -34.5153 0.0391
51.8400 -34.5286 0.0413
51.8600 -34.5419 0.0419
51.8800 -34.5552 0.0396
51.9000 -34.5686 0.0416
51.9200 -34.5820 0.0408
51.9400 -34.5953 0.0382
51.9600 -34.6087 0.0387
51.9800 -34.6220 0.0418
52.0000 -34.6354 0.0396
52.0200 -34.6487 0.0408
52.0400 -34.6620 0.0410
52.0600 -34.6753 0.0409
52.0800 -34.6887 0.0412
52.1000 -34.7020 0.0426
52.1200 -34.7153 0.0408
52.1400 -34.7287 0.0438
52.1600 -34.7420 0.0430
52.1800 -34.7553 0.0444
52.2000 -34.7686 0.0430
52.2200 -34.7819 0.0470
52.2400 -34.7953 0.0480
52.2600 -34.8087 0.0497
52.2800 -34.8220 0.0492
52.3000 -34.8353 0.0504
52.3200 -34.8487 0.0533
52.3400 -34.8621 0.0546
52.3600 -34.8754 0.0553
52.3800 -34.8887 0.0557
52.4000 -34.9020 0.0581
52.4200 -34.9154 0.0578
52.4400 -34.9288 0.0594
52.4600 -34.9421 0.0604
52.4800 -34.9554 0.0602
52.5000 -34.9687 0.0612
52.5200 -34.9820 0.0658
52.5400 -34.9953 0.0662
52.5600 -35.0086 0.0677
52.5800 -35.0219 0.0715
52.6000 -35.0353 0.0708
52.6200 -35.0487 0.0710
52.6400 -35.0620 0.0730
52.6600 -35.0753 0.0750
52.6800 -35.0887 0.0758
52.7000 -35.1021 0.0792
52.7200 -35.1154 0.0792
52.7400 -35.1288 0.0793
52.7600 -35.1421 0.0847
52.7800 -35.1554 0.0840
52.8000 -35.1688 0.0840
52.8200 -35.1821 0.0867
52.8400 -35.1954 0.0876
52.8600 -35.2087 0.0876
52.8800 -35.2220 0.0909
52.9000 -35.2353 0.0905
52.9200 -35.2486 0.0954
52.9400 -35.2619 0.0941
52.9600 -35.2753 0.0947
52.9800 -35.2886 0.0938
53.0000 -35.3020 0.0997
53.0200 -35.3153 0.0955
53.0400 -35.3287 0.0974
53.0600 -35.3420 0.1004
53.0800 -35.3554 0.1030
53.1000 -35.3687 0.1022
53.1200 -35.3820 0.1050
53.1400 -35.3954 0.1045
53.1600 -35.4087 0.1056
53.1800 -35.4220 0.1074
53.2000 -35.4353 0.1063
53.2200 -35.4487 0.1061
53.2400 -35.4620 0.1093
53.2600 -35.4753 0.1102
53.2800 -35.4886 0.1103
53.3000 -35.5019 0.1128
53.3200 -35.5153 0.1132
53.3400 -35.5287 0.1144
53.3600 -35.5420 0.1158
53.3800 -35.5554 0.1153
53.4000 -35.5687 0.1149
53.4200 -35.5821 0.1198
53.4400 -35.5954 0.1180
53.4600 -35.6087 0.1220
53.4800 -35.6219 0.1237
53.5000 -35.6353 0.1232
53.5200 -35.6487 0.1227
53.5400 -35.6620 0.1279
53.5600 -35.6753 0.1262
53.5800 -35.6887 0.1275
53.6000 -35.7020 0.1287
53.6200 -35.7154 0.1286
53.6400 -35.7287 0.1292
53.6600 -35.7420 0.1326
53.6800 -35.7553 0.1316
53.7000 -35.7687 0.1324
53.7200 -35.7820 0.1344
53.7400 -35.7953 0.1325
53.7600 -35.8087 0.1353
53.7800 -35.8220 0.1380
53.8000 -35.8354 0.1380
53.8200 -35.8487 0.1364
53.8400 -35.8620 0.1401
53.8600 -35.8754 0.1387
53.8800 -35.8887 0.1394
53.9000 -35.9021 0.1409
53.9200 -35.9154 0.1425
53.9400 -35.9287 0.1413
53.9600 -35.9420 0.1435
53.9800 -35.9554 0.1421
54.0000 -35.9687 0.1443
54.0200 -35.9819 0.1477
54.0400 -35.9953 0.1475
54.0600 -36.0086 0.1467
54.0800 -36.0220 0.1492
54.1000 -36.0353 0.1509
54.1200 -36.0487 0.1498
54.1400 -36.0620 0.1518
54.1600 -36.0754 0.1520
54.1800 -36.0887 0.1515
54.2000 -36.1020 0.1549
54.2200 -36.1154 0.1560
54.2400 -36.1287 0.1548
54.2600 -36.1421 0.1587
54.2800 -36.1554 0.1566
54.3000 -36.1687 0.1580
54.3200 -36.1820 0.1604
54.3400 -36.1954 0.1612
54.3600 -36.2087 0.1605
54.3800 -36.2220 0.1644
54.4000 -36.2353 0.1613
54.4200 -36.2486 0.1636
54.4400 -36.2620 0.1670
54.4600 -36.2753 0.1704
54.4800 -36.2886 0.1668
54.5000 -36.3020 0.1703
54.5200 -36.3154 0.1686
54.5400 -36.3287 0.1717
54.5600 -36.3420 0.1736
54.5800 -36.3553 0.1746
54.6000 -36.3687 0.1741
54.6200 -36.3820 0.1763
54.6400 -36.3954 0.1779
54.6600 -36.4087 0.1784
54.6800 -36.4220 0.1824
54.7000 -36.4354 0.1808
54.7200 -36.4487 0.1819
54.7400 -36.4620 0.1845
54.7600 -36.4753 0.1823
54.7800 -36.4886 0.1855
54.8000 -36.5020 0.1867
54.8200 -36.5153 0.1884
54.8400 -36.5287 0.1864
54.8600 -36.5420 0.1903
54.8800 -36.5554 0.1906
54.9000 -36.5688 0.1916
54.9200 -36.5820 0.1929
54.9400 -36.5953 0.1952
54.9600 -36.6087 0.1930
54.9800 -36.6220 0.1949
55.0000 -36.6353 0.1953
55.0200 -36.6487 0.1953
55.0400 -36.6620 0.2001
55.0600 -36.6754 0.1975
55.0800 -36.6887 0.2001
55.1000 -36.7020 0.2003
55.1200 -36.7153 0.2030
55.1400 -36.7287 0.2006
55.1600 -36.7420 0.2070
55.1800 -36.7554 0.2030
55.2000 -36.7687 0.2071
55.2200 -36.7820 0.2072
55.2400 -36.7954 0.2113
55.2600 -36.8087 0.2080
55.2800 -36.8220 0.2120
55.3000 -36.8354 0.2117
55.3200 -36.8487 0.2147
55.3400 -36.8621 0.2150
55.3600 -36.8754 0.2169
55.3800 -36.8887 0.2171
55.4000 -36.9020 0.2193
55.4200 -36.9153 0.2203
55.4400 -36.9287 0.2200
55.4600 -36.9420 0.2221
55.4800 -36.9553 0.2231
55.5000 -36.9687 0.2232
55.5200 -36.9820 0.2264
55.5400 -36.9953 0.2261
55.5600 -37.0087 0.2259
55.5800 -37.0220 0.2289
55.6000 -37.0354 0.2289
55.6200 -37.0487 0.2286
55.6400 -37.0620 0.2314
55.6600 -37.0753 0.2347
55.6800 -37.0887 0.2329
55.7000 -37.1021 0.2364
55.7200 -37.1154 0.2353
55.7400 -37.1287 0.2352
55.7600 -37.1421 0.2376
55.7800 -37.1554 0.2411
55.8000 -37.1687 0.2401
55.8200 -37.1820 0.2428
55.8400 -37.1953 0.2416
55.8600 -37.2086 0.2422
55.8800 -37.2219 0.2447
55.9000 -37.2352 0.2452
55.9200 -37.2486 0.2474
55.9400 -37.2619 0.2489
55.9600 -37.2754 0.2503
55.9800 -37.2887 0.2496
56.0000 -37.3020 0.2519
56.0200 -37.3154 0.2522
56.0400 -37.3287 0.2536
56.0600 -37.3421 0.2575
56.0800 -37.3554 0.2568
56.1000 -37.3687 0.2573
56.1200 -37.3820 0.2601
56.1400 -37.3953 0.2599
56.1600 -37.4087 0.2607
56.1800 -37.4220 0.2627
56.2000 -37.4353 0.2636
56.2200 -37.4486 0.2631
56.2400 -37.4620 0.2649
56.2600 -37.4753 0.2662
56.2800 -37.4886 0.2648
56.3000 -37.5020 0.2665
56.3200 -37.5154 0.2695
56.3400 -37.5288 0.2691
56.3600 -37.5421 0.2729
56.3800 -37.5554 0.2744
56.4000 -37.5687 0.2744
56.4200 -37.5821 0.2746
56.4400 -37.5954 0.2766
56.4600 -37.6087 0.2754
56.4800 -37.6220 0.2779
56.5000 -37.6354 0.2776
56.5200 -37.6487 0.2789
56.5400 -37.6620 0.2806
56.5600 -37.6753 0.2836
56.5800 -37.6886 0.2816
56.6000 -37.7020 0.2836
56.6200 -37.7153 0.2852
56.6400 -37.7287 0.2856
56.6600 -37.7420 0.2883
56.6800 -37.7554 0.2907
56.7000 -37.7687 0.2916
56.7200 -37.7820 0.2918
56.7400 -37.7954 0.2942
56.7600 -37.8087 0.2933
56.7800 -37.8221 0.2985
56.8000 -37.8354 0.2973
56.8200 -37.8487 0.2994
56.8400 -37.8620 0.3005
56.8600 -37.8754 0.3026
56.8800 -37.8887 0.3015
56.9000 -37.9020 0.3058
56.9200 -37.9153 0.3041
56.9400 -37.9286 0.3069
56.9600 -37.9420 0.3065
56.9800 -37.9553 0.3105
57.0000 -37.9686 0.3086
57.0200 -37.9820 0.3109
57.0400 -37.9954 0.3145
57.0600 -38.0088 0.3132
57.0800 -38.0221 0.3147
57.1000 -38.0354 0.3175
57.1200 -38.0487 0.3150
57.1400 -38.0621 0.3183
57.1600 -38.0754 0.3213
57.1800 -38.0887 0.3201
57.2000 -38.1020 0.3228
57.2200 -38.1154 0.3227
57.2400 -38.1287 0.3251
57.2600 -38.1420 0.3262
57.2800 -38.1553 0.3292
57.3000 -38.1686 0.3273
57.3200 -38.1820 0.3308
57.3400 -38.1954 0.3317
57.3600 -38.2087 0.3328
57.3800 -38.2220 0.3332
57.4000 -38.2353 0.3371
57.4200 -38.2487 0.3352
57.4400 -38.2620 0.3383
57.4600 -38.2753 0.3374
57.4800 -38.2887 0.3392
57.5000 -38.3021 0.3401
57.5200 -38.3154 0.3454
57.5400 -38.3287 0.3441
57.5600 -38.3420 0.3460
57.5800 -38.3554 0.3469
57.6000 -38.3687 0.3475
57.6200 -38.3820 0.3492
57.6400 -38.3953 0.3508
57.6600 -38.4086 0.3486
57.6800 -38.4220 0.3515
57.7000 -38.4353 0.3526
57.7200 -38.4486 0.3536
57.7400 -38.4620 0.3534
57.7600 -38.4753 0.3546
57.7800 -38.4887 0.3537
57.8000 -38.5020 0.3561
57.8200 -38.5153 0.3573
57.8400 -38.5287 0.3595
57.8600 -38.5421 0.3595
57.8800 -38.5554 0.3618
57.9000 -38.5687 0.3609
57.9200 -38.5820 0.3621
57.9400 -38.5954 0.3638
57.9600 -38.6087 0.3635
57.9800 -38.6220 0.3664
58.0000 -38.6353 0.3691
58.0200 -38.6486 0.3679
58.0400 -38.6620 0.3692
58.0600 -38.6753 0.3720
58.0800 -38.6886 0.3703
58.1000 -38.7020 0.3713
58.1200 -38.7153 0.3734
58.1400 -38.7287 0.3733
58.1600 -38.7421 0.3744
58.1800 -38.7554 0.3775
58.2000 -38.7687 0.3749
58.2200 -38.7821 0.3803
58.2400 -38.7954 0.3785
58.2600 -38.8087 0.3791
58.2800 -38.8220 0.3827
58.3000 -38.8353 0.3862
58.3200 -38.8486 0.3848
58.3400 -38.8619 0.3886
58.3600 -38.8752 0.3899
58.3800 -38.8886 0.3909
58.4000 -38.9020 0.3911
58.4200 -38.9153 0.3952
58.4400 -38.9287 0.3960
58.4600 -38.9420 0.3972
58.4800 -38.9554 0.4013
58.5000 -38.9687 0.4000
58.5200 -38.9821 0.4053
58.5400 -38.9954 0.4062
58.5600 -39.0087 0.4099
58.5800 -39.0220 0.4072
58.6000 -39.0354 0.4105
58.6200 -39.0487 0.4096
58.6400 -39.0620 0.4140
58.6600 -39.0754 0.4142
58.6800 -39.0887 0.4144
58.7000 -39.1020 0.4155
58.7200 -39.1153 0.4174
58.7400 -39.1286 0.4170
58.7600 -39.1420 0.4203
58.7800 -39.1554 0.4212
58.8000 -39.1687 0.4218
58.8200 -39.1820 0.4248
58.8400 -39.1954 0.4263
58.8600 -39.2087 0.4269
58.8800 -39.2220 0.4258
58.9000 -39.2353 0.4293
58.9200 -39.2487 0.4290
58.9400 -39.2620 0.4310
58.9600 -39.2754 0.4326
58.9800 -39.2887 0.4357
59.0000 -39.3020 0.4358
59.0200 -39.3153 0.4378
59.0400 -39.3287 0.4370
59.0600 -39.3420 0.4393
59.0800 -39.3553 0.4405
59.1000 -39.3686 0.4423
59.1200 -39.3820 0.4438
59.1400 -39.3953 0.4463
59.1600 -39.4087 0.4456
59.1800 -39.4220 0.4466
59.2000 -39.4353 0.4494
59.2200 -39.4487 0.4506
59.2400 -39.4621 0.4518
59.2600 -39.4754 0.4540
59.2800 -39.4887 0.4547
59.3000 -39.5020 0.4562
59.3200 -39.5154 0.4571
59.3400 -39.5287 0.4567
59.3600 -39.5420 0.4575
59.3800 -39.5553 0.4592
59.4000 -39.5687 0.4586
59.4200 -39.5820 0.4612
59.4400 -39.5953 0.4619
59.4600 -39.6086 0.4646
59.4800 -39.6220 0.4660
59.5000 -39.6354 0.4674
59.5200 -39.6487 0.4660
59.5400 -39.6620 0.4680
59.5600 -39.6754 0.4695
59.5800 -39.6887 0.4701
59.6000 -39.7020 0.4737
59.6200 -39.7153 0.4765
59.6400 -39.7287 0.4769
59.6600 -39.7420 0.4767
59.6800 -39.7554 0.4800
59.7000 -39.7687 0.4792
59.7200 -39.7820 0.4808
59.7400 -39.7953 0.4815
59.7600 -39.8087 0.4839
59.7800 -39.8220 0.4829
59.8000 -39.8353 0.4874
59.8200 -39.8486 0.4852
59.8400 -39.8619 0.4896
59.8600 -39.8753 0.4898
59.8800 -39.8886 0.4911
59.9000 -39.9020 0.4901
59.9200 -39.9153 0.4924
59.9400 -39.9287 0.4935
59.9600 -39.9421 0.4953
59.9800 -39.9554 0.4959
60.0000 -39.9687 0.4966
60.0200 -39.9821 0.4960
60.0400 -39.9954 0.5024
60.0480 -40.0006 0.5071
