Raw Data
Time Displacement Force
(s) (mm) (N)
0.0000 -0.0001 0.4358
0.0200 -0.0002 0.4285
0.0400 -0.0021 0.4087
0.0600 -0.0096 0.3730
0.0800 -0.0216 0.3333
0.1000 -0.0344 0.2815
0.1200 -0.0471 0.2308
0.1400 -0.0603 0.1785
0.1600 -0.0742 0.1315
0.1800 -0.0882 0.0775
0.2000 -0.1021 0.0309
0.2200 -0.1156 -0.0154
0.2400 -0.1290 -0.0382
0.2600 -0.1423 -0.0668
0.2800 -0.1557 -0.1135
0.3000 -0.1691 -0.1656
0.3200 -0.1824 -0.2276
0.3400 -0.1958 -0.2794
0.3600 -0.2091 -0.3375
0.3800 -0.2225 -0.3852
0.4000 -0.2358 -0.4338
0.4200 -0.2491 -0.4783
0.4400 -0.2624 -0.5223
0.4600 -0.2757 -0.5372
0.4800 -0.2890 -0.5436
0.5000 -0.3023 -0.5393
0.5200 -0.3157 -0.5373
0.5400 -0.3290 -0.5382
0.5600 -0.3424 -0.5390
0.5800 -0.3558 -0.5364
0.6000 -0.3691 -0.5389
0.6200 -0.3825 -0.5380
0.6400 -0.3959 -0.5340
0.6600 -0.4092 -0.5342
0.6800 -0.4224 -0.5365
0.7000 -0.4358 -0.5344
0.7200 -0.4491 -0.5327
0.7400 -0.4625 -0.5333
0.7600 -0.4758 -0.5322
0.7800 -0.4891 -0.5316
0.8000 -0.5024 -0.5318
0.8200 -0.5158 -0.5299
0.8400 -0.5291 -0.5281
0.8600 -0.5424 -0.5313
0.8800 -0.5557 -0.5275
0.9000 -0.5690 -0.5287
0.9200 -0.5824 -0.5288
0.9400 -0.5957 -0.5273
0.9600 -0.6090 -0.5257
0.9800 -0.6224 -0.5266
1.0000 -0.6357 -0.5241
1.0200 -0.6491 -0.5243
1.0400 -0.6624 -0.5256
1.0600 -0.6757 -0.5225
1.0800 -0.6891 -0.5241
1.1000 -0.7025 -0.5232
1.1200 -0.7158 -0.5193
1.1400 -0.7291 -0.5179
1.1600 -0.7424 -0.5208
1.1800 -0.7558 -0.5178
1.2000 -0.7691 -0.5182
1.2200 -0.7824 -0.5166
1.2400 -0.7957 -0.5151
1.2600 -0.8090 -0.5145
1.2800 -0.8224 -0.5142
1.3000 -0.8358 -0.5108
1.3200 -0.8491 -0.5107
1.3400 -0.8624 -0.5114
1.3600 -0.8758 -0.5104
1.3800 -0.8892 -0.5090
1.4000 -0.9025 -0.5094
1.4200 -0.9158 -0.5080
1.4400 -0.9291 -0.5065
1.4600 -0.9425 -0.5060
1.4800 -0.9558 -0.5057
1.5000 -0.9691 -0.5044
1.5200 -0.9824 -0.5056
1.5400 -0.9958 -0.5019
1.5600 -1.0091 -0.5035
1.5800 -1.0224 -0.5013
1.6000 -1.0357 -0.5005
1.6200 -1.0491 -0.4983
1.6400 -1.0624 -0.5016
1.6600 -1.0758 -0.4970
1.6800 -1.0891 -0.4979
1.7000 -1.1025 -0.4947
1.7200 -1.1158 -0.4944
1.7400 -1.1292 -0.4919
1.7600 -1.1425 -0.4932
1.7800 -1.1558 -0.4911
1.8000 -1.1692 -0.4902
1.8200 -1.1825 -0.4898
1.8400 -1.1958 -0.4867
1.8600 -1.2091 -0.4877
1.8800 -1.2224 -0.4873
1.9000 -1.2358 -0.4874
1.9200 -1.2491 -0.4846
1.9400 -1.2623 -0.4865
1.9600 -1.2756 -0.4836
1.9800 -1.2890 -0.4854
2.0000 -1.3024 -0.4853
2.0200 -1.3157 -0.4832
2.0400 -1.3291 -0.4809
2.0600 -1.3424 -0.4832
2.0800 -1.3558 -0.4789
2.1000 -1.3692 -0.4807
2.1200 -1.3825 -0.4800
2.1400 -1.3958 -0.4798
2.1600 -1.4091 -0.4764
2.1800 -1.4225 -0.4775
2.2000 -1.4358 -0.4751
2.2200 -1.4491 -0.4751
2.2400 -1.4624 -0.4766
2.2600 -1.4758 -0.4753
2.2800 -1.4891 -0.4738
2.3000 -1.5023 -0.4731
2.3200 -1.5157 -0.4717
2.3400 -1.5290 -0.4708
2.3600 -1.5424 -0.4721
2.3800 -1.5557 -0.4720
2.4000 -1.5691 -0.4707
2.4200 -1.5824 -0.4701
2.4400 -1.5958 -0.4684
2.4600 -1.6092 -0.4678
2.4800 -1.6225 -0.4667
2.5000 -1.6358 -0.4642
2.5200 -1.6491 -0.4648
2.5400 -1.6625 -0.4651
2.5600 -1.6758 -0.4646
2.5800 -1.6891 -0.4630
2.6000 -1.7024 -0.4636
2.6200 -1.7158 -0.4626
2.6400 -1.7291 -0.4600
2.6600 -1.7424 -0.4601
2.6800 -1.7557 -0.4595
2.7000 -1.7691 -0.4583
2.7200 -1.7825 -0.4578
2.7400 -1.7958 -0.4584
2.7600 -1.8091 -0.4578
2.7800 -1.8224 -0.4583
2.8000 -1.8358 -0.4582
2.8200 -1.8491 -0.4568
2.8400 -1.8624 -0.4552
2.8600 -1.8757 -0.4528
2.8800 -1.8890 -0.4521
2.9000 -1.9024 -0.4528
2.9200 -1.9158 -0.4515
2.9400 -1.9291 -0.4511
2.9600 -1.9424 -0.4499
2.9800 -1.9558 -0.4498
3.0000 -1.9691 -0.4474
3.0200 -1.9824 -0.4493
3.0400 -1.9957 -0.4477
3.0600 -2.0091 -0.4460
3.0800 -2.0224 -0.4457
3.1000 -2.0357 -0.4456
3.1200 -2.0491 -0.4452
3.1400 -2.0624 -0.4449
3.1600 -2.0758 -0.4429
3.1800 -2.0892 -0.4411
3.2000 -2.1025 -0.4406
3.2200 -2.1158 -0.4419
3.2400 -2.1292 -0.4390
3.2600 -2.1425 -0.4401
3.2800 -2.1558 -0.4371
3.3000 -2.1691 -0.4393
3.3200 -2.1824 -0.4352
3.3400 -2.1958 -0.4361
3.3600 -2.2091 -0.4347
3.3800 -2.2224 -0.4368
3.4000 -2.2357 -0.4337
3.4200 -2.2490 -0.4339
3.4400 -2.2624 -0.4340
3.4600 -2.2757 -0.4318
3.4800 -2.2891 -0.4330
3.5000 -2.3024 -0.4321
3.5200 -2.3158 -0.4317
3.5400 -2.3291 -0.4282
3.5600 -2.3425 -0.4319
3.5800 -2.3558 -0.4294
3.6000 -2.3691 -0.4290
3.6200 -2.3825 -0.4251
3.6400 -2.3958 -0.4284
3.6600 -2.4091 -0.4274
3.6800 -2.4224 -0.4277
3.7000 -2.4358 -0.4262
3.7200 -2.4491 -0.4245
3.7400 -2.4624 -0.4248
3.7600 -2.4757 -0.4248
3.7800 -2.4890 -0.4228
3.8000 -2.5024 -0.4236
3.8200 -2.5158 -0.4229
3.8400 -2.5291 -0.4215
3.8600 -2.5424 -0.4213
3.8800 -2.5558 -0.4202
3.9000 -2.5691 -0.4194
3.9200 -2.5825 -0.4199
3.9400 -2.5958 -0.4174
3.9600 -2.6091 -0.4170
3.9800 -2.6225 -0.4168
4.0000 -2.6358 -0.4189
4.0200 -2.6491 -0.4154
4.0400 -2.6624 -0.4153
4.0600 -2.6758 -0.4125
4.0800 -2.6891 -0.4137
4.1000 -2.7024 -0.4138
4.1200 -2.7157 -0.4147
4.1400 -2.7290 -0.4115
4.1600 -2.7424 -0.4129
4.1800 -2.7558 -0.4097
4.2000 -2.7691 -0.4094
4.2200 -2.7824 -0.4104
4.2400 -2.7958 -0.4087
4.2600 -2.8092 -0.4078
4.2800 -2.8225 -0.4071
4.3000 -2.8358 -0.4060
4.3200 -2.8491 -0.4062
4.3400 -2.8624 -0.4053
4.3600 -2.8758 -0.4041
4.3800 -2.8891 -0.4034
4.4000 -2.9024 -0.4032
4.4200 -2.9158 -0.4022
4.4400 -2.9291 -0.4002
4.4600 -2.9424 -0.4007
4.4800 -2.9557 -0.3980
4.5000 -2.9691 -0.3993
4.5200 -2.9824 -0.3975
4.5400 -2.9958 -0.4010
4.5600 -3.0091 -0.3993
4.5800 -3.0224 -0.3982
4.6000 -3.0358 -0.3958
4.6200 -3.0492 -0.3961
4.6400 -3.0625 -0.3973
4.6600 -3.0758 -0.3964
4.6800 -3.0891 -0.3955
4.7000 -3.1025 -0.3952
4.7200 -3.1158 -0.3946
4.7400 -3.1291 -0.3912
4.7600 -3.1424 -0.3920
4.7800 -3.1558 -0.3907
4.8000 -3.1691 -0.3920
4.8200 -3.1824 -0.3895
4.8400 -3.1957 -0.3903
4.8600 -3.2091 -0.3885
4.8800 -3.2224 -0.3888
4.9000 -3.2358 -0.3888
4.9200 -3.2491 -0.3893
4.9400 -3.2624 -0.3881
4.9600 -3.2758 -0.3875
4.9800 -3.2891 -0.3865
5.0000 -3.3025 -0.3841
5.0200 -3.3158 -0.3853
5.0400 -3.3291 -0.3839
5.0600 -3.3424 -0.3846
5.0800 -3.3558 -0.3834
5.1000 -3.3691 -0.3845
5.1200 -3.3825 -0.3815
5.1400 -3.3958 -0.3837
5.1600 -3.4091 -0.3811
5.1800 -3.4224 -0.3789
5.2000 -3.4357 -0.3791
5.2200 -3.4490 -0.3782
5.2400 -3.4624 -0.3781
5.2600 -3.4757 -0.3772
5.2800 -3.4890 -0.3781
5.3000 -3.5023 -0.3766
5.3200 -3.5157 -0.3751
5.3400 -3.5291 -0.3768
5.3600 -3.5425 -0.3748
5.3800 -3.5558 -0.3748
5.4000 -3.5691 -0.3728
5.4200 -3.5825 -0.3723
5.4400 -3.5959 -0.3690
5.4600 -3.6092 -0.3721
5.4800 -3.6224 -0.3703
5.5000 -3.6358 -0.3716
5.5200 -3.6491 -0.3688
5.5400 -3.6624 -0.3694
5.5600 -3.6757 -0.3687
5.5800 -3.6890 -0.3701
5.6000 -3.7024 -0.3647
5.6200 -3.7158 -0.3673
5.6400 -3.7291 -0.3677
5.6600 -3.7424 -0.3678
5.6800 -3.7558 -0.3667
5.7000 -3.7692 -0.3667
5.7200 -3.7825 -0.3657
5.7400 -3.7958 -0.3685
5.7600 -3.8091 -0.3661
5.7800 -3.8225 -0.3667
5.8000 -3.8358 -0.3633
5.8200 -3.8491 -0.3634
5.8400 -3.8624 -0.3635
5.8600 -3.8758 -0.3622
5.8800 -3.8891 -0.3627
5.9000 -3.9024 -0.3611
5.9200 -3.9157 -0.3612
5.9400 -3.9290 -0.3613
5.9600 -3.9424 -0.3604
5.9800 -3.9557 -0.3587
6.0000 -3.9691 -0.3603
6.0200 -3.9824 -0.3565
6.0400 -3.9958 -0.3583
6.0600 -4.0091 -0.3545
6.0800 -4.0225 -0.3551
6.1000 -4.0358 -0.3530
6.1200 -4.0491 -0.3559
6.1400 -4.0625 -0.3536
6.1600 -4.0758 -0.3551
6.1800 -4.0891 -0.3518
6.2000 -4.1024 -0.3529
6.2200 -4.1158 -0.3506
6.2400 -4.1291 -0.3516
6.2600 -4.1424 -0.3481
6.2800 -4.1557 -0.3489
6.3000 -4.1690 -0.3494
6.3200 -4.1824 -0.3481
6.3400 -4.1957 -0.3473
6.3600 -4.2090 -0.3476
6.3800 -4.2224 -0.3455
6.4000 -4.2357 -0.3452
6.4200 -4.2491 -0.3458
6.4400 -4.2625 -0.3443
6.4600 -4.2758 -0.3427
6.4800 -4.2891 -0.3431
6.5000 -4.3025 -0.3415
6.5200 -4.3158 -0.3414
6.5400 -4.3291 -0.3417
6.5600 -4.3424 -0.3395
6.5800 -4.3558 -0.3406
6.6000 -4.3691 -0.3393
6.6200 -4.3824 -0.3410
6.6400 -4.3957 -0.3394
6.6600 -4.4091 -0.3402
6.6800 -4.4224 -0.3394
6.7000 -4.4358 -0.3398
6.7200 -4.4491 -0.3385
6.7400 -4.4624 -0.3372
6.7600 -4.4757 -0.3356
6.7800 -4.4891 -0.3364
6.8000 -4.5025 -0.3371
6.8200 -4.5158 -0.3367
6.8400 -4.5291 -0.3371
6.8600 -4.5425 -0.3355
6.8800 -4.5558 -0.3359
6.9000 -4.5692 -0.3374
6.9200 -4.5825 -0.3347
6.9400 -4.5958 -0.3334
6.9600 -4.6092 -0.3331
6.9800 -4.6225 -0.3322
7.0000 -4.6357 -0.3342
7.0200 -4.6490 -0.3324
7.0400 -4.6624 -0.3304
7.0600 -4.6757 -0.3295
7.0800 -4.6891 -0.3310
7.1000 -4.7024 -0.3298
7.1200 -4.7157 -0.3284
7.1400 -4.7291 -0.3284
7.1600 -4.7425 -0.3284
7.1800 -4.7558 -0.3265
7.2000 -4.7691 -0.3273
7.2200 -4.7824 -0.3245
7.2400 -4.7958 -0.3278
7.2600 -4.8092 -0.3263
7.2800 -4.8225 -0.3257
7.3000 -4.8358 -0.3234
7.3200 -4.8491 -0.3233
7.3400 -4.8624 -0.3217
7.3600 -4.8757 -0.3233
7.3800 -4.8890 -0.3218
7.4000 -4.9024 -0.3217
7.4200 -4.9157 -0.3209
7.4400 -4.9291 -0.3202
7.4600 -4.9424 -0.3179
7.4800 -4.9557 -0.3161
7.5000 -4.9691 -0.3203
7.5200 -4.9825 -0.3160
7.5400 -4.9958 -0.3157
7.5600 -5.0091 -0.3155
7.5800 -5.0225 -0.3163
7.6000 -5.0358 -0.3142
7.6200 -5.0491 -0.3159
7.6400 -5.0624 -0.3135
7.6600 -5.0757 -0.3142
7.6800 -5.0890 -0.3126
7.7000 -5.1024 -0.3127
7.7200 -5.1157 -0.3117
7.7400 -5.1290 -0.3142
7.7600 -5.1424 -0.3104
7.7800 -5.1557 -0.3114
7.8000 -5.1691 -0.3102
7.8200 -5.1824 -0.3113
7.8400 -5.1958 -0.3096
7.8600 -5.2092 -0.3115
7.8800 -5.2225 -0.3078
7.9000 -5.2358 -0.3075
7.9200 -5.2491 -0.3073
7.9400 -5.2625 -0.3071
7.9600 -5.2758 -0.3075
7.9800 -5.2891 -0.3081
8.0000 -5.3024 -0.3059
8.0200 -5.3158 -0.3055
8.0400 -5.3291 -0.3061
8.0600 -5.3425 -0.3047
8.0800 -5.3557 -0.3035
8.1000 -5.3690 -0.3036
8.1200 -5.3824 -0.3012
8.1400 -5.3958 -0.2997
8.1600 -5.4091 -0.3029
8.1800 -5.4224 -0.3020
8.2000 -5.4358 -0.3021
8.2200 -5.4491 -0.3007
8.2400 -5.4625 -0.3011
8.2600 -5.4758 -0.2990
8.2800 -5.4891 -0.3007
8.3000 -5.5024 -0.2982
8.3200 -5.5158 -0.2989
8.3400 -5.5291 -0.2987
8.3600 -5.5424 -0.2975
8.3800 -5.5557 -0.2981
8.4000 -5.5691 -0.2987
8.4200 -5.5824 -0.2954
8.4400 -5.5957 -0.2942
8.4600 -5.6090 -0.2963
8.4800 -5.6224 -0.2958
8.5000 -5.6358 -0.2922
8.5200 -5.6491 -0.2946
8.5400 -5.6624 -0.2954
8.5600 -5.6757 -0.2934
8.5800 -5.6891 -0.2936
8.6000 -5.7025 -0.2912
8.6200 -5.7158 -0.2911
8.6400 -5.7291 -0.2928
8.6600 -5.7425 -0.2896
8.6800 -5.7558 -0.2888
8.7000 -5.7691 -0.2873
8.7200 -5.7824 -0.2876
8.7400 -5.7957 -0.2892
8.7600 -5.8091 -0.2888
8.7800 -5.8224 -0.2876
8.8000 -5.8357 -0.2842
8.8200 -5.8490 -0.2854
8.8400 -5.8624 -0.2846
8.8600 -5.8757 -0.2843
8.8800 -5.8891 -0.2860
8.9000 -5.9024 -0.2832
8.9200 -5.9158 -0.2826
8.9400 -5.9291 -0.2832
8.9600 -5.9425 -0.2816
8.9800 -5.9558 -0.2814
9.0000 -5.9691 -0.2817
9.0200 -5.9824 -0.2823
9.0400 -5.9958 -0.2811
9.0600 -6.0092 -0.2820
9.0800 -6.0225 -0.2798
9.1000 -6.0358 -0.2769
9.1200 -6.0491 -0.2764
9.1400 -6.0625 -0.2780
9.1600 -6.0757 -0.2771
9.1800 -6.0890 -0.2784
9.2000 -6.1024 -0.2757
9.2200 -6.1157 -0.2749
9.2400 -6.1291 -0.2752
9.2600 -6.1424 -0.2760
9.2800 -6.1557 -0.2759
9.3000 -6.1691 -0.2762
9.3200 -6.1825 -0.2761
9.3400 -6.1958 -0.2739
9.3600 -6.2091 -0.2738
9.3800 -6.2225 -0.2732
9.4000 -6.2358 -0.2729
9.4200 -6.2492 -0.2732
9.4400 -6.2624 -0.2712
9.4600 -6.2757 -0.2706
9.4800 -6.2891 -0.2720
9.5000 -6.3024 -0.2687
9.5200 -6.3157 -0.2681
9.5400 -6.3290 -0.2671
9.5600 -6.3424 -0.2695
9.5800 -6.3557 -0.2673
9.6000 -6.3691 -0.2677
9.6200 -6.3824 -0.2659
9.6400 -6.3957 -0.2668
9.6600 -6.4091 -0.2664
9.6800 -6.4225 -0.2653
9.7000 -6.4358 -0.2622
9.7200 -6.4491 -0.2650
9.7400 -6.4625 -0.2633
9.7600 -6.4758 -0.2608
9.7800 -6.4892 -0.2623
9.8000 -6.5025 -0.2619
9.8200 -6.5158 -0.2605
9.8400 -6.5291 -0.2609
9.8600 -6.5424 -0.2611
9.8800 -6.5557 -0.2582
9.9000 -6.5690 -0.2600
9.9200 -6.5824 -0.2566
9.9400 -6.5958 -0.2559
9.9600 -6.6092 -0.2550
9.9800 -6.6225 -0.2571
10.0000 -6.6358 -0.2538
10.0200 -6.6491 -0.2557
10.0400 -6.6625 -0.2550
10.0600 -6.6758 -0.2543
10.0800 -6.6891 -0.2553
10.1000 -6.7024 -0.2577
10.1200 -6.7157 -0.2530
10.1400 -6.7291 -0.2553
10.1600 -6.7424 -0.2561
10.1800 -6.7558 -0.2537
10.2000 -6.7691 -0.2535
10.2200 -6.7825 -0.2536
10.2400 -6.7958 -0.2484
10.2600 -6.8091 -0.2516
10.2800 -6.8224 -0.2503
10.3000 -6.8357 -0.2501
10.3200 -6.8491 -0.2482
10.3400 -6.8624 -0.2492
10.3600 -6.8758 -0.2472
10.3800 -6.8891 -0.2485
10.4000 -6.9025 -0.2474
10.4200 -6.9158 -0.2449
10.4400 -6.9291 -0.2482
10.4600 -6.9424 -0.2466
10.4800 -6.9558 -0.2443
10.5000 -6.9692 -0.2464
10.5200 -6.9825 -0.2452
10.5400 -6.9958 -0.2433
10.5600 -7.0091 -0.2454
10.5800 -7.0225 -0.2441
10.6000 -7.0358 -0.2421
10.6200 -7.0491 -0.2417
10.6400 -7.0624 -0.2423
10.6600 -7.0757 -0.2392
10.6800 -7.0891 -0.2419
10.7000 -7.1024 -0.2418
10.7200 -7.1157 -0.2393
10.7400 -7.1291 -0.2409
10.7600 -7.1425 -0.2425
10.7800 -7.1558 -0.2400
10.8000 -7.1691 -0.2399
10.8200 -7.1824 -0.2380
10.8400 -7.1958 -0.2375
10.8600 -7.2091 -0.2379
10.8800 -7.2225 -0.2395
10.9000 -7.2358 -0.2351
10.9200 -7.2491 -0.2379
10.9400 -7.2625 -0.2364
10.9600 -7.2758 -0.2357
10.9800 -7.2891 -0.2376
11.0000 -7.3024 -0.2384
11.0200 -7.3157 -0.2338
11.0400 -7.3291 -0.2381
11.0600 -7.3424 -0.2373
11.0800 -7.3557 -0.2354
11.1000 -7.3691 -0.2352
11.1200 -7.3824 -0.2352
11.1400 -7.3958 -0.2340
11.1600 -7.4091 -0.2339
11.1800 -7.4224 -0.2333
11.2000 -7.4358 -0.2303
11.2200 -7.4491 -0.2313
11.2400 -7.4625 -0.2316
11.2600 -7.4758 -0.2296
11.2800 -7.4891 -0.2282
11.3000 -7.5025 -0.2297
11.3200 -7.5158 -0.2295
11.3400 -7.5291 -0.2297
11.3600 -7.5424 -0.2287
11.3800 -7.5557 -0.2286
11.4000 -7.5691 -0.2259
11.4200 -7.5824 -0.2274
11.4400 -7.5958 -0.2276
11.4600 -7.6091 -0.2283
11.4800 -7.6225 -0.2301
11.5000 -7.6358 -0.2236
11.5200 -7.6491 -0.2238
11.5400 -7.6624 -0.2235
11.5600 -7.6758 -0.2220
11.5800 -7.6891 -0.2226
11.6000 -7.7024 -0.2238
11.6200 -7.7157 -0.2207
11.6400 -7.7291 -0.2225
11.6600 -7.7424 -0.2219
11.6800 -7.7557 -0.2222
11.7000 -7.7690 -0.2204
11.7200 -7.7824 -0.2225
11.7400 -7.7957 -0.2183
11.7600 -7.8091 -0.2192
11.7800 -7.8225 -0.2189
11.8000 -7.8357 -0.2175
11.8200 -7.8491 -0.2167
11.8400 -7.8625 -0.2184
11.8600 -7.8758 -0.2156
11.8800 -7.8891 -0.2168
11.9000 -7.9024 -0.2171
11.9200 -7.9158 -0.2140
11.9400 -7.9291 -0.2127
11.9600 -7.9425 -0.2135
11.9800 -7.9558 -0.2119
12.0000 -7.9691 -0.2127
12.0200 -7.9824 -0.2145
12.0400 -7.9957 -0.2104
12.0600 -8.0091 -0.2105
12.0800 -8.0224 -0.2128
12.1000 -8.0358 -0.2115
12.1200 -8.0491 -0.2088
12.1400 -8.0624 -0.2096
12.1600 -8.0757 -0.2075
12.1800 -8.0891 -0.2080
12.2000 -8.1025 -0.2068
12.2200 -8.1158 -0.2061
12.2400 -8.1291 -0.2051
12.2600 -8.1425 -0.2079
12.2800 -8.1558 -0.2051
12.3000 -8.1692 -0.2051
12.3200 -8.1825 -0.2066
12.3400 -8.1958 -0.2053
12.3600 -8.2091 -0.2041
12.3800 -8.2225 -0.2066
12.4000 -8.2358 -0.2033
12.4200 -8.2491 -0.2059
12.4400 -8.2624 -0.2061
12.4600 -8.2757 -0.2063
12.4800 -8.2890 -0.2034
12.5000 -8.3024 -0.2053
12.5200 -8.3157 -0.2001
12.5400 -8.3290 -0.2022
12.5600 -8.3424 -0.2033
12.5800 -8.3558 -0.2008
12.6000 -8.3691 -0.2024
12.6200 -8.3825 -0.2026
12.6400 -8.3958 -0.2007
12.6600 -8.4092 -0.2000
12.6800 -8.4225 -0.2003
12.7000 -8.4358 -0.1980
12.7200 -8.4491 -0.1992
12.7400 -8.4624 -0.1989
12.7600 -8.4758 -0.1976
12.7800 -8.4891 -0.1965
12.8000 -8.5024 -0.1967
12.8200 -8.5157 -0.1961
12.8400 -8.5291 -0.1943
12.8600 -8.5424 -0.1954
12.8800 -8.5557 -0.1953
12.9000 -8.5691 -0.1939
12.9200 -8.5825 -0.1957
12.9400 -8.5958 -0.1936
12.9600 -8.6092 -0.1926
12.9800 -8.6225 -0.1944
13.0000 -8.6358 -0.1943
13.0200 -8.6491 -0.1914
13.0400 -8.6625 -0.1932
13.0600 -8.6758 -0.1890
13.0800 -8.6891 -0.1899
13.1000 -8.7024 -0.1898
13.1200 -8.7158 -0.1885
13.1400 -8.7291 -0.1859
13.1600 -8.7424 -0.1898
13.1800 -8.7557 -0.1857
13.2000 -8.7691 -0.1875
13.2200 -8.7824 -0.1880
13.2400 -8.7957 -0.1862
13.2600 -8.8091 -0.1856
13.2800 -8.8224 -0.1857
13.3000 -8.8358 -0.1846
13.3200 -8.8491 -0.1837
13.3400 -8.8625 -0.1850
13.3600 -8.8758 -0.1825
13.3800 -8.8892 -0.1827
13.4000 -8.9025 -0.1824
13.4200 -8.9158 -0.1810
13.4400 -8.9291 -0.1814
13.4600 -8.9424 -0.1823
13.4800 -8.9558 -0.1799
13.5000 -8.9691 -0.1788
13.5200 -8.9823 -0.1802
13.5400 -8.9957 -0.1783
13.5600 -9.0090 -0.1789
13.5800 -9.0224 -0.1795
13.6000 -9.0357 -0.1776
13.6200 -9.0491 -0.1767
13.6400 -9.0624 -0.1777
13.6600 -9.0758 -0.1768
13.6800 -9.0891 -0.1752
13.7000 -9.1024 -0.1768
13.7200 -9.1157 -0.1749
13.7400 -9.1291 -0.1746
13.7600 -9.1425 -0.1743
13.7800 -9.1558 -0.1728
13.8000 -9.1691 -0.1717
13.8200 -9.1825 -0.1717
13.8400 -9.1958 -0.1726
13.8600 -9.2091 -0.1719
13.8800 -9.2224 -0.1743
13.9000 -9.2357 -0.1705
13.9200 -9.2491 -0.1696
13.9400 -9.2624 -0.1688
13.9600 -9.2757 -0.1714
13.9800 -9.2891 -0.1677
14.0000 -9.3024 -0.1728
14.0200 -9.3158 -0.1670
14.0400 -9.3291 -0.1683
14.0600 -9.3424 -0.1691
14.0800 -9.3558 -0.1693
14.1000 -9.3691 -0.1688
14.1200 -9.3825 -0.1713
14.1400 -9.3958 -0.1678
14.1600 -9.4092 -0.1659
14.1800 -9.4225 -0.1684
14.2000 -9.4358 -0.1663
14.2200 -9.4491 -0.1679
14.2400 -9.4624 -0.1676
14.2600 -9.4757 -0.1655
14.2800 -9.4891 -0.1642
14.3000 -9.5024 -0.1659
14.3200 -9.5157 -0.1646
14.3400 -9.5290 -0.1647
14.3600 -9.5424 -0.1638
14.3800 -9.5558 -0.1649
14.4000 -9.5691 -0.1605
14.4200 -9.5824 -0.1641
14.4400 -9.5958 -0.1615
14.4600 -9.6091 -0.1613
14.4800 -9.6225 -0.1600
14.5000 -9.6358 -0.1595
14.5200 -9.6491 -0.1566
14.5400 -9.6625 -0.1605
14.5600 -9.6758 -0.1593
14.5800 -9.6891 -0.1602
14.6000 -9.7024 -0.1589
14.6200 -9.7157 -0.1602
14.6400 -9.7291 -0.1549
14.6600 -9.7424 -0.1577
14.6800 -9.7557 -0.1550
14.7000 -9.7690 -0.1554
14.7200 -9.7824 -0.1549
14.7400 -9.7958 -0.1560
14.7600 -9.8092 -0.1539
14.7800 -9.8225 -0.1568
14.8000 -9.8358 -0.1547
14.8200 -9.8492 -0.1525
14.8400 -9.8625 -0.1529
14.8600 -9.8758 -0.1508
14.8800 -9.8891 -0.1504
14.9000 -9.9024 -0.1518
14.9200 -9.9157 -0.1533
14.9400 -9.9290 -0.1506
14.9600 -9.9423 -0.1528
14.9800 -9.9557 -0.1540
15.0000 -9.9690 -0.1485
15.0200 -9.9824 -0.1512
15.0400 -9.9958 -0.1493
15.0600 -10.0091 -0.1491
15.0800 -10.0225 -0.1500
15.1000 -10.0358 -0.1487
15.1200 -10.0492 -0.1477
15.1400 -10.0625 -0.1499
15.1600 -10.0758 -0.1492
15.1800 -10.0891 -0.1467
15.2000 -10.1025 -0.1499
15.2200 -10.1158 -0.1490
15.2400 -10.1291 -0.1470
15.2600 -10.1424 -0.1479
15.2800 -10.1558 -0.1460
15.3000 -10.1691 -0.1434
15.3200 -10.1824 -0.1465
15.3400 -10.1957 -0.1435
15.3600 -10.2091 -0.1441
15.3800 -10.2224 -0.1441
15.4000 -10.2358 -0.1445
15.4200 -10.2491 -0.1415
15.4400 -10.2624 -0.1449
15.4600 -10.2758 -0.1435
15.4800 -10.2892 -0.1406
15.5000 -10.3025 -0.1425
15.5200 -10.3158 -0.1415
15.5400 -10.3291 -0.1398
15.5600 -10.3425 -0.1407
15.5800 -10.3558 -0.1402
15.6000 -10.3691 -0.1368
15.6200 -10.3824 -0.1401
15.6400 -10.3958 -0.1374
15.6600 -10.4091 -0.1338
15.6800 -10.4224 -0.1349
15.7000 -10.4357 -0.1373
15.7200 -10.4490 -0.1346
15.7400 -10.4624 -0.1362
15.7600 -10.4758 -0.1342
15.7800 -10.4891 -0.1334
15.8000 -10.5024 -0.1341
15.8200 -10.5158 -0.1324
15.8400 -10.5291 -0.1320
15.8600 -10.5425 -0.1315
15.8800 -10.5558 -0.1318
15.9000 -10.5691 -0.1289
15.9200 -10.5825 -0.1316
15.9400 -10.5958 -0.1307
15.9600 -10.6091 -0.1272
15.9800 -10.6224 -0.1284
16.0000 -10.6357 -0.1309
16.0200 -10.6491 -0.1292
16.0400 -10.6624 -0.1306
16.0600 -10.6757 -0.1287
16.0800 -10.6891 -0.1269
16.1000 -10.7024 -0.1267
16.1200 -10.7158 -0.1244
16.1400 -10.7291 -0.1255
16.1600 -10.7424 -0.1262
16.1800 -10.7558 -0.1262
16.2000 -10.7692 -0.1240
16.2200 -10.7825 -0.1252
16.2400 -10.7958 -0.1228
16.2600 -10.8091 -0.1220
16.2800 -10.8225 -0.1241
16.3000 -10.8358 -0.1225
16.3200 -10.8491 -0.1220
16.3400 -10.8625 -0.1209
16.3600 -10.8758 -0.1202
16.3800 -10.8891 -0.1155
16.4000 -10.9024 -0.1191
16.4200 -10.9157 -0.1188
16.4400 -10.9290 -0.1191
16.4600 -10.9424 -0.1181
16.4800 -10.9557 -0.1195
16.5000 -10.9691 -0.1167
16.5200 -10.9824 -0.1183
16.5400 -10.9958 -0.1164
16.5600 -11.0092 -0.1134
16.5800 -11.0225 -0.1130
16.6000 -11.0358 -0.1151
16.6200 -11.0492 -0.1136
16.6400 -11.0625 -0.1145
16.6600 -11.0758 -0.1137
16.6800 -11.0891 -0.1108
16.7000 -11.1024 -0.1115
16.7200 -11.1158 -0.1117
16.7400 -11.1291 -0.1113
16.7600 -11.1424 -0.1116
16.7800 -11.1557 -0.1144
16.8000 -11.1690 -0.1092
16.8200 -11.1824 -0.1114
16.8400 -11.1957 -0.1083
16.8600 -11.2091 -0.1103
16.8800 -11.2224 -0.1113
16.9000 -11.2358 -0.1125
16.9200 -11.2492 -0.1077
16.9400 -11.2625 -0.1091
16.9600 -11.2758 -0.1078
16.9800 -11.2891 -0.1065
17.0000 -11.3025 -0.1052
17.0200 -11.3158 -0.1089
17.0400 -11.3291 -0.1044
17.0600 -11.3424 -0.1057
17.0800 -11.3557 -0.1054
17.1000 -11.3691 -0.1029
17.1200 -11.3824 -0.1031
17.1400 -11.3957 -0.1047
17.1600 -11.4090 -0.1037
17.1800 -11.4224 -0.1058
17.2000 -11.4358 -0.1048
17.2200 -11.4491 -0.1036
17.2400 -11.4624 -0.1026
17.2600 -11.4758 -0.1024
17.2800 -11.4892 -0.1006
17.3000 -11.5024 -0.0999
17.3200 -11.5157 -0.1024
17.3400 -11.5290 -0.1003
17.3600 -11.5424 -0.1000
17.3800 -11.5558 -0.0996
17.4000 -11.5691 -0.0988
17.4200 -11.5824 -0.0980
17.4400 -11.5958 -0.1007
17.4600 -11.6091 -0.0973
17.4800 -11.6224 -0.0989
17.5000 -11.6357 -0.0994
17.5200 -11.6491 -0.0963
17.5400 -11.6624 -0.0971
17.5600 -11.6758 -0.0965
17.5800 -11.6891 -0.0958
17.6000 -11.7024 -0.0949
17.6200 -11.7158 -0.0951
17.6400 -11.7292 -0.0949
17.6600 -11.7425 -0.0946
17.6800 -11.7558 -0.0948
17.7000 -11.7691 -0.0922
17.7200 -11.7825 -0.0929
17.7400 -11.7958 -0.0924
17.7600 -11.8091 -0.0918
17.7800 -11.8225 -0.0887
17.8000 -11.8358 -0.0903
17.8200 -11.8491 -0.0878
17.8400 -11.8624 -0.0889
17.8600 -11.8757 -0.0885
17.8800 -11.8890 -0.0870
17.9000 -11.9024 -0.0879
17.9200 -11.9158 -0.0896
17.9400 -11.9291 -0.0863
17.9600 -11.9424 -0.0872
17.9800 -11.9558 -0.0875
18.0000 -11.9691 -0.0844
18.0200 -11.9825 -0.0830
18.0400 -11.9958 -0.0853
18.0600 -12.0091 -0.0831
18.0800 -12.0225 -0.0823
18.1000 -12.0358 -0.0822
18.1200 -12.0491 -0.0798
18.1400 -12.0624 -0.0801
18.1600 -12.0758 -0.0809
18.1800 -12.0891 -0.0799
18.2000 -12.1024 -0.0783
18.2200 -12.1157 -0.0810
18.2400 -12.1290 -0.0775
18.2600 -12.1424 -0.0799
18.2800 -12.1558 -0.0804
18.3000 -12.1691 -0.0787
18.3200 -12.1824 -0.0769
18.3400 -12.1957 -0.0784
18.3600 -12.2091 -0.0756
18.3800 -12.2224 -0.0773
18.4000 -12.2358 -0.0782
18.4200 -12.2491 -0.0749
18.4400 -12.2625 -0.0773
18.4600 -12.2758 -0.0775
18.4800 -12.2891 -0.0763
18.5000 -12.3025 -0.0767
18.5200 -12.3158 -0.0785
18.5400 -12.3291 -0.0736
18.5600 -12.3424 -0.0750
18.5800 -12.3557 -0.0767
18.6000 -12.3690 -0.0760
18.6200 -12.3824 -0.0748
18.6400 -12.3958 -0.0759
18.6600 -12.4091 -0.0735
18.6800 -12.4224 -0.0740
18.7000 -12.4358 -0.0713
18.7200 -12.4492 -0.0707
18.7400 -12.4625 -0.0700
18.7600 -12.4758 -0.0715
18.7800 -12.4891 -0.0702
18.8000 -12.5024 -0.0719
18.8200 -12.5158 -0.0697
18.8400 -12.5291 -0.0675
18.8600 -12.5424 -0.0669
18.8800 -12.5558 -0.0692
18.9000 -12.5691 -0.0690
18.9200 -12.5824 -0.0654
18.9400 -12.5957 -0.0640
18.9600 -12.6091 -0.0624
18.9800 -12.6224 -0.0640
19.0000 -12.6358 -0.0639
19.0200 -12.6491 -0.0622
19.0400 -12.6624 -0.0625
19.0600 -12.6758 -0.0632
19.0800 -12.6892 -0.0616
19.1000 -12.7025 -0.0615
19.1200 -12.7158 -0.0624
19.1400 -12.7291 -0.0607
19.1600 -12.7424 -0.0602
19.1800 -12.7558 -0.0597
19.2000 -12.7691 -0.0603
19.2200 -12.7824 -0.0598
19.2400 -12.7958 -0.0595
19.2600 -12.8091 -0.0576
19.2800 -12.8224 -0.0549
19.3000 -12.8357 -0.0561
19.3200 -12.8491 -0.0530
19.3400 -12.8624 -0.0536
19.3600 -12.8758 -0.0547
19.3800 -12.8891 -0.0555
19.4000 -12.9024 -0.0514
19.4200 -12.9158 -0.0555
19.4400 -12.9291 -0.0519
19.4600 -12.9425 -0.0522
19.4800 -12.9558 -0.0520
19.5000 -12.9691 -0.0515
19.5200 -12.9824 -0.0493
19.5400 -12.9958 -0.0507
19.5600 -13.0091 -0.0495
19.5800 -13.0225 -0.0490
19.6000 -13.0358 -0.0516
19.6200 -13.0492 -0.0491
19.6400 -13.0625 -0.0482
19.6600 -13.0757 -0.0472
19.6800 -13.0891 -0.0472
19.7000 -13.1024 -0.0455
19.7200 -13.1157 -0.0463
19.7400 -13.1290 -0.0451
19.7600 -13.1423 -0.0451
19.7800 -13.1557 -0.0457
19.8000 -13.1691 -0.0460
19.8200 -13.1825 -0.0415
19.8400 -13.1958 -0.0455
19.8600 -13.2091 -0.0435
19.8800 -13.2225 -0.0433
19.9000 -13.2359 -0.0430
19.9200 -13.2492 -0.0421
19.9400 -13.2625 -0.0413
19.9600 -13.2758 -0.0437
19.9800 -13.2891 -0.0413
20.0000 -13.3024 -0.0404
20.0200 -13.3157 -0.0421
20.0400 -13.3290 -0.0399
20.0600 -13.3424 -0.0388
20.0800 -13.3558 -0.0420
20.1000 -13.3691 -0.0400
20.1200 -13.3824 -0.0388
20.1400 -13.3958 -0.0405
20.1600 -13.4092 -0.0382
20.1800 -13.4225 -0.0385
20.2000 -13.4358 -0.0381
20.2200 -13.4491 -0.0361
20.2400 -13.4625 -0.0372
20.2600 -13.4758 -0.0361
20.2800 -13.4891 -0.0364
20.3000 -13.5024 -0.0352
20.3200 -13.5158 -0.0353
20.3400 -13.5291 -0.0351
20.3600 -13.5424 -0.0355
20.3800 -13.5557 -0.0345
20.4000 -13.5690 -0.0339
20.4200 -13.5824 -0.0343
20.4400 -13.5957 -0.0333
20.4600 -13.6091 -0.0327
20.4800 -13.6224 -0.0306
20.5000 -13.6357 -0.0309
20.5200 -13.6491 -0.0283
20.5400 -13.6625 -0.0299
20.5600 -13.6758 -0.0308
20.5800 -13.6891 -0.0307
20.6000 -13.7025 -0.0280
20.6200 -13.7158 -0.0306
20.6400 -13.7292 -0.0300
20.6600 -13.7424 -0.0289
20.6800 -13.7558 -0.0287
20.7000 -13.7691 -0.0276
20.7200 -13.7824 -0.0255
20.7400 -13.7957 -0.0272
20.7600 -13.8090 -0.0264
20.7800 -13.8223 -0.0259
20.8000 -13.8357 -0.0264
20.8200 -13.8491 -0.0252
20.8400 -13.8624 -0.0223
20.8600 -13.8757 -0.0260
20.8800 -13.8891 -0.0251
20.9000 -13.9025 -0.0216
20.9200 -13.9158 -0.0231
20.9400 -13.9291 -0.0203
20.9600 -13.9425 -0.0215
20.9800 -13.9558 -0.0215
21.0000 -13.9692 -0.0228
21.0200 -13.9825 -0.0183
21.0400 -13.9958 -0.0200
21.0600 -14.0091 -0.0190
21.0800 -14.0225 -0.0170
21.1000 -14.0357 -0.0185
21.1200 -14.0490 -0.0197
21.1400 -14.0624 -0.0160
21.1600 -14.0758 -0.0184
21.1800 -14.0891 -0.0161
21.2000 -14.1024 -0.0153
21.2200 -14.1157 -0.0144
21.2400 -14.1291 -0.0137
21.2600 -14.1425 -0.0119
21.2800 -14.1558 -0.0123
21.3000 -14.1691 -0.0124
21.3200 -14.1824 -0.0124
21.3400 -14.1958 -0.0120
21.3600 -14.2092 -0.0108
21.3800 -14.2225 -0.0081
21.4000 -14.2358 -0.0089
21.4200 -14.2491 -0.0095
21.4400 -14.2624 -0.0073
21.4600 -14.2757 -0.0082
21.4800 -14.2890 -0.0087
21.5000 -14.3024 -0.0074
21.5200 -14.3157 -0.0066
21.5400 -14.3291 -0.0064
21.5600 -14.3424 -0.0060
21.5800 -14.3557 -0.0057
21.6000 -14.3691 -0.0044
21.6200 -14.3825 -0.0029
21.6400 -14.3958 -0.0031
21.6600 -14.4091 -0.0034
21.6800 -14.4224 -0.0001
21.7000 -14.4358 -0.0023
21.7200 -14.4492 -0.0003
21.7400 -14.4625 -0.0016
21.7600 -14.4758 -0.0006
21.7800 -14.4891 -0.0006
21.8000 -14.5025 0.0026
21.8200 -14.5157 0.0011
21.8400 -14.5290 0.0012
21.8600 -14.5424 0.0017
21.8800 -14.5557 0.0027
21.9000 -14.5691 0.0001
21.9200 -14.5824 0.0021
21.9400 -14.5957 0.0003
21.9600 -14.6091 0.0010
21.9800 -14.6225 0.0011
22.0000 -14.6358 0.0012
22.0200 -14.6492 0.0019
22.0400 -14.6625 0.0032
22.0600 -14.6758 0.0047
22.0800 -14.6892 0.0043
22.1000 -14.7024 0.0064
22.1200 -14.7157 0.0059
22.1400 -14.7290 0.0064
22.1600 -14.7424 0.0069
22.1800 -14.7557 0.0075
22.2000 -14.7690 0.0058
22.2200 -14.7824 0.0097
22.2400 -14.7957 0.0078
22.2600 -14.8091 0.0095
22.2800 -14.8224 0.0092
22.3000 -14.8358 0.0095
22.3200 -14.8491 0.0099
22.3400 -14.8625 0.0121
22.3600 -14.8758 0.0099
22.3800 -14.8891 0.0119
22.4000 -14.9024 0.0114
22.4200 -14.9158 0.0142
22.4400 -14.9291 0.0114
22.4600 -14.9425 0.0157
22.4800 -14.9558 0.0142
22.5000 -14.9691 0.0154
22.5200 -14.9825 0.0187
22.5400 -14.9958 0.0183
22.5600 -15.0091 0.0176
22.5800 -15.0224 0.0178
22.6000 -15.0358 0.0181
22.6200 -15.0491 0.0193
22.6400 -15.0624 0.0193
22.6600 -15.0757 0.0200
22.6800 -15.0891 0.0200
22.7000 -15.1025 0.0209
22.7200 -15.1158 0.0219
22.7400 -15.1291 0.0216
22.7600 -15.1424 0.0247
22.7800 -15.1558 0.0221
22.8000 -15.1691 0.0244
22.8200 -15.1824 0.0237
22.8400 -15.1957 0.0251
22.8600 -15.2091 0.0237
22.8800 -15.2224 0.0271
22.9000 -15.2358 0.0259
22.9200 -15.2490 0.0271
22.9400 -15.2624 0.0261
22.9600 -15.2757 0.0257
22.9800 -15.2891 0.0281
23.0000 -15.3024 0.0299
23.0200 -15.3158 0.0296
23.0400 -15.3291 0.0312
23.0600 -15.3425 0.0324
23.0800 -15.3558 0.0325
23.1000 -15.3691 0.0333
23.1200 -15.3825 0.0314
23.1400 -15.3958 0.0330
23.1600 -15.4091 0.0355
23.1800 -15.4224 0.0352
23.2000 -15.4357 0.0350
23.2200 -15.4491 0.0340
23.2400 -15.4624 0.0381
23.2600 -15.4757 0.0381
23.2800 -15.4890 0.0372
23.3000 -15.5024 0.0394
23.3200 -15.5157 0.0380
23.3400 -15.5291 0.0389
23.3600 -15.5425 0.0382
23.3800 -15.5558 0.0375
23.4000 -15.5691 0.0368
23.4200 -15.5825 0.0397
23.4400 -15.5958 0.0389
23.4600 -15.6091 0.0386
23.4800 -15.6224 0.0384
23.5000 -15.6358 0.0390
23.5200 -15.6492 0.0369
23.5400 -15.6625 0.0382
23.5600 -15.6758 0.0389
23.5800 -15.6891 0.0412
23.6000 -15.7024 0.0389
23.6200 -15.7157 0.0408
23.6400 -15.7290 0.0392
23.6600 -15.7423 0.0402
23.6800 -15.7557 0.0408
23.7000 -15.7691 0.0416
23.7200 -15.7824 0.0413
23.7400 -15.7957 0.0422
23.7600 -15.8091 0.0420
23.7800 -15.8225 0.0425
23.8000 -15.8358 0.0441
23.8200 -15.8492 0.0427
23.8400 -15.8625 0.0459
23.8600 -15.8758 0.0460
23.8800 -15.8892 0.0478
23.9000 -15.9025 0.0456
23.9200 -15.9158 0.0482
23.9400 -15.9291 0.0501
23.9600 -15.9424 0.0526
23.9800 -15.9557 0.0509
24.0000 -15.9690 0.0503
24.0200 -15.9823 0.0491
24.0400 -15.9957 0.0509
24.0600 -16.0091 0.0510
24.0800 -16.0224 0.0504
24.1000 -16.0357 0.0533
24.1200 -16.0491 0.0544
24.1400 -16.0625 0.0544
24.1600 -16.0759 0.0566
24.1800 -16.0892 0.0561
24.2000 -16.1025 0.0566
24.2200 -16.1158 0.0572
24.2400 -16.1292 0.0560
24.2600 -16.1425 0.0549
24.2800 -16.1558 0.0572
24.3000 -16.1691 0.0559
24.3200 -16.1824 0.0582
24.3400 -16.1957 0.0590
24.3600 -16.2090 0.0584
24.3800 -16.2224 0.0591
24.4000 -16.2357 0.0600
24.4200 -16.2491 0.0611
24.4400 -16.2625 0.0582
24.4600 -16.2758 0.0595
24.4800 -16.2891 0.0623
24.5000 -16.3025 0.0615
24.5200 -16.3158 0.0617
24.5400 -16.3291 0.0616
24.5600 -16.3424 0.0612
24.5800 -16.3557 0.0634
24.6000 -16.3691 0.0626
24.6200 -16.3824 0.0608
24.6400 -16.3958 0.0617
24.6600 -16.4091 0.0613
24.6800 -16.4225 0.0624
24.7000 -16.4358 0.0643
24.7200 -16.4491 0.0629
24.7400 -16.4624 0.0641
24.7600 -16.4757 0.0662
24.7800 -16.4891 0.0653
24.8000 -16.5024 0.0645
24.8200 -16.5157 0.0659
24.8400 -16.5291 0.0652
24.8600 -16.5425 0.0679
24.8800 -16.5558 0.0675
24.9000 -16.5691 0.0683
24.9200 -16.5825 0.0693
24.9400 -16.5958 0.0704
24.9600 -16.6092 0.0716
24.9800 -16.6225 0.0711
25.0000 -16.6358 0.0717
25.0200 -16.6491 0.0718
25.0400 -16.6625 0.0712
25.0600 -16.6758 0.0724
25.0800 -16.6891 0.0738
25.1000 -16.7024 0.0733
25.1200 -16.7157 0.0760
25.1400 -16.7291 0.0745
25.1600 -16.7424 0.0770
25.1800 -16.7557 0.0769
25.2000 -16.7691 0.0789
25.2200 -16.7825 0.0787
25.2400 -16.7958 0.0806
25.2600 -16.8091 0.0806
25.2800 -16.8224 0.0818
25.3000 -16.8358 0.0812
25.3200 -16.8491 0.0838
25.3400 -16.8625 0.0816
25.3600 -16.8758 0.0833
25.3800 -16.8891 0.0830
25.4000 -16.9025 0.0821
25.4200 -16.9158 0.0842
25.4400 -16.9291 0.0845
25.4600 -16.9423 0.0837
25.4800 -16.9557 0.0860
25.5000 -16.9691 0.0870
25.5200 -16.9824 0.0860
25.5400 -16.9957 0.0868
25.5600 -17.0090 0.0868
25.5800 -17.0224 0.0855
25.6000 -17.0358 0.0857
25.6200 -17.0491 0.0880
25.6400 -17.0624 0.0871
25.6600 -17.0758 0.0869
25.6800 -17.0891 0.0892
25.7000 -17.1025 0.0898
25.7200 -17.1158 0.0902
25.7400 -17.1291 0.0925
25.7600 -17.1425 0.0911
25.7800 -17.1558 0.0950
25.8000 -17.1691 0.0927
25.8200 -17.1824 0.0933
25.8400 -17.1957 0.0928
25.8600 -17.2091 0.0948
25.8800 -17.2225 0.0928
25.9000 -17.2358 0.0968
25.9200 -17.2491 0.0958
25.9400 -17.2625 0.0986
25.9600 -17.2759 0.0994
25.9800 -17.2892 0.1004
26.0000 -17.3024 0.0983
26.0200 -17.3158 0.0995
26.0400 -17.3291 0.1006
26.0600 -17.3425 0.1019
26.0800 -17.3558 0.1017
26.1000 -17.3691 0.1043
26.1200 -17.3824 0.1004
26.1400 -17.3957 0.1041
26.1600 -17.4090 0.1037
26.1800 -17.4224 0.1018
26.2000 -17.4357 0.1041
26.2200 -17.4491 0.1019
26.2400 -17.4625 0.1030
26.2600 -17.4758 0.1024
26.2800 -17.4891 0.1038
26.3000 -17.5024 0.1022
26.3200 -17.5158 0.1068
26.3400 -17.5291 0.1048
26.3600 -17.5424 0.1064
26.3800 -17.5557 0.1067
26.4000 -17.5691 0.1089
26.4200 -17.5824 0.1077
26.4400 -17.5957 0.1092
26.4600 -17.6090 0.1098
26.4800 -17.6224 0.1098
26.5000 -17.6357 0.1089
26.5200 -17.6491 0.1083
26.5400 -17.6624 0.1082
26.5600 -17.6757 0.1100
26.5800 -17.6891 0.1095
26.6000 -17.7024 0.1109
26.6200 -17.7157 0.1113
26.6400 -17.7291 0.1121
26.6600 -17.7424 0.1115
26.6800 -17.7558 0.1135
26.7000 -17.7691 0.1143
26.7200 -17.7824 0.1148
26.7400 -17.7958 0.1155
26.7600 -17.8091 0.1172
26.7800 -17.8225 0.1174
26.8000 -17.8358 0.1177
26.8200 -17.8491 0.1191
26.8400 -17.8625 0.1192
26.8600 -17.8758 0.1193
26.8800 -17.8891 0.1205
26.9000 -17.9024 0.1214
26.9200 -17.9157 0.1234
26.9400 -17.9290 0.1227
26.9600 -17.9424 0.1209
26.9800 -17.9557 0.1199
27.0000 -17.9690 0.1220
27.0200 -17.9824 0.1225
27.0400 -17.9958 0.1238
27.0600 -18.0092 0.1241
27.0800 -18.0225 0.1238
27.1000 -18.0358 0.1238
27.1200 -18.0492 0.1267
27.1400 -18.0625 0.1270
27.1600 -18.0758 0.1278
27.1800 -18.0891 0.1296
27.2000 -18.1024 0.1295
27.2200 -18.1158 0.1295
27.2400 -18.1291 0.1321
27.2600 -18.1424 0.1316
27.2800 -18.1557 0.1332
27.3000 -18.1691 0.1317
27.3200 -18.1824 0.1344
27.3400 -18.1958 0.1321
27.3600 -18.2091 0.1328
27.3800 -18.2225 0.1335
27.4000 -18.2358 0.1338
27.4200 -18.2492 0.1328
27.4400 -18.2625 0.1343
27.4600 -18.2758 0.1350
27.4800 -18.2892 0.1362
27.5000 -18.3025 0.1357
27.5200 -18.3158 0.1353
27.5400 -18.3291 0.1354
27.5600 -18.3424 0.1375
27.5800 -18.3558 0.1363
27.6000 -18.3691 0.1376
27.6200 -18.3824 0.1366
27.6400 -18.3957 0.1383
27.6600 -18.4091 0.1384
27.6800 -18.4224 0.1378
27.7000 -18.4357 0.1389
27.7200 -18.4491 0.1396
27.7400 -18.4624 0.1400
27.7600 -18.4758 0.1395
27.7800 -18.4891 0.1411
27.8000 -18.5024 0.1398
27.8200 -18.5158 0.1416
27.8400 -18.5291 0.1415
27.8600 -18.5425 0.1423
27.8800 -18.5558 0.1419
27.9000 -18.5691 0.1456
27.9200 -18.5824 0.1445
27.9400 -18.5958 0.1438
27.9600 -18.6091 0.1449
27.9800 -18.6224 0.1451
28.0000 -18.6357 0.1455
28.0200 -18.6490 0.1473
28.0400 -18.6624 0.1466
28.0600 -18.6757 0.1473
28.0800 -18.6890 0.1482
28.1000 -18.7024 0.1478
28.1200 -18.7158 0.1483
28.1400 -18.7292 0.1521
28.1600 -18.7425 0.1502
28.1800 -18.7558 0.1517
28.2000 -18.7692 0.1514
28.2200 -18.7825 0.1553
28.2400 -18.7958 0.1542
28.2600 -18.8091 0.1558
28.2800 -18.8224 0.1542
28.3000 -18.8358 0.1557
28.3200 -18.8491 0.1543
28.3400 -18.8624 0.1584
28.3600 -18.8757 0.1574
28.3800 -18.8891 0.1603
28.4000 -18.9024 0.1573
28.4200 -18.9157 0.1601
28.4400 -18.9290 0.1606
28.4600 -18.9424 0.1609
28.4800 -18.9558 0.1587
28.5000 -18.9691 0.1620
28.5200 -18.9824 0.1632
28.5400 -18.9958 0.1636
28.5600 -19.0091 0.1654
28.5800 -19.0225 0.1644
28.6000 -19.0358 0.1644
28.6200 -19.0491 0.1651
28.6400 -19.0625 0.1654
28.6600 -19.0758 0.1656
28.6800 -19.0891 0.1673
28.7000 -19.1024 0.1678
28.7200 -19.1157 0.1647
28.7400 -19.1291 0.1681
28.7600 -19.1424 0.1697
28.7800 -19.1557 0.1679
28.8000 -19.1691 0.1707
28.8200 -19.1824 0.1710
28.8400 -19.1958 0.1697
28.8600 -19.2091 0.1718
28.8800 -19.2224 0.1719
28.9000 -19.2358 0.1708
28.9200 -19.2491 0.1724
28.9400 -19.2625 0.1717
28.9600 -19.2758 0.1719
28.9800 -19.2891 0.1717
29.0000 -19.3024 0.1732
29.0200 -19.3158 0.1715
29.0400 -19.3291 0.1754
29.0600 -19.3424 0.1740
29.0800 -19.3557 0.1750
29.1000 -19.3691 0.1756
29.1200 -19.3824 0.1770
29.1400 -19.3957 0.1769
29.1600 -19.4090 0.1779
29.1800 -19.4224 0.1793
29.2000 -19.4358 0.1801
29.2200 -19.4492 0.1830
29.2400 -19.4625 0.1800
29.2600 -19.4758 0.1799
29.2800 -19.4892 0.1826
29.3000 -19.5025 0.1842
29.3200 -19.5158 0.1835
29.3400 -19.5291 0.1854
29.3600 -19.5424 0.1847
29.3800 -19.5557 0.1843
29.4000 -19.5690 0.1860
29.4200 -19.5823 0.1867
29.4400 -19.5957 0.1860
29.4600 -19.6090 0.1855
29.4800 -19.6224 0.1861
29.5000 -19.6358 0.1857
29.5200 -19.6491 0.1888
29.5400 -19.6624 0.1871
29.5600 -19.6758 0.1873
29.5800 -19.6892 0.1869
29.6000 -19.7025 0.1877
29.6200 -19.7158 0.1867
29.6400 -19.7291 0.1899
29.6600 -19.7425 0.1886
29.6800 -19.7558 0.1878
29.7000 -19.7691 0.1895
29.7200 -19.7824 0.1880
29.7400 -19.7958 0.1905
29.7600 -19.8091 0.1931
29.7800 -19.8224 0.1914
29.8000 -19.8357 0.1916
29.8200 -19.8491 0.1922
29.8400 -19.8624 0.1936
29.8600 -19.8758 0.1919
29.8800 -19.8891 0.1952
29.9000 -19.9024 0.1936
29.9200 -19.9158 0.1939
29.9400 -19.9292 0.1970
29.9600 -19.9425 0.1992
29.9800 -19.9558 0.1983
30.0000 -19.9691 0.1993
30.0200 -19.9825 0.2011
30.0400 -19.9958 0.2006
30.0600 -20.0091 0.2011
30.0800 -20.0224 0.2015
30.1000 -20.0358 0.2013
30.1200 -20.0491 0.2040
30.1400 -20.0624 0.2024
30.1600 -20.0757 0.2006
30.1800 -20.0890 0.2032
30.2000 -20.1024 0.2041
30.2200 -20.1158 0.2037
30.2400 -20.1291 0.2059
30.2600 -20.1424 0.2065
30.2800 -20.1558 0.2047
30.3000 -20.1691 0.2087
30.3200 -20.1825 0.2076
30.3400 -20.1958 0.2071
30.3600 -20.2091 0.2077
30.3800 -20.2225 0.2093
30.4000 -20.2358 0.2092
30.4200 -20.2491 0.2110
30.4400 -20.2624 0.2123
30.4600 -20.2757 0.2115
30.4800 -20.2891 0.2114
30.5000 -20.3024 0.2137
30.5200 -20.3157 0.2118
30.5400 -20.3290 0.2144
30.5600 -20.3424 0.2146
30.5800 -20.3558 0.2170
30.6000 -20.3691 0.2149
30.6200 -20.3824 0.2183
30.6400 -20.3958 0.2152
30.6600 -20.4092 0.2190
30.6800 -20.4225 0.2197
30.7000 -20.4358 0.2214
30.7200 -20.4491 0.2202
30.7400 -20.4625 0.2233
30.7600 -20.4758 0.2239
30.7800 -20.4891 0.2255
30.8000 -20.5024 0.2247
30.8200 -20.5158 0.2266
30.8400 -20.5291 0.2264
30.8600 -20.5424 0.2297
30.8800 -20.5557 0.2272
30.9000 -20.5690 0.2287
30.9200 -20.5824 0.2304
30.9400 -20.5957 0.2007
30.9600 -20.6091 0.1455
30.9800 -20.6224 0.0720
31.0000 -20.6358 -0.0068
31.0200 -20.6492 -0.0875
31.0400 -20.6625 -0.1685
31.0600 -20.6758 -0.2475
31.0800 -20.6891 -0.2922
31.1000 -20.7025 -0.3353
31.1200 -20.7158 -0.3834
31.1400 -20.7291 -0.4356
31.1600 -20.7424 -0.4815
31.1800 -20.7558 -0.5307
31.2000 -20.7691 -0.5711
31.2200 -20.7824 -0.5987
31.2400 -20.7957 -0.6061
31.2600 -20.8090 -0.6042
31.2800 -20.8224 -0.6009
31.3000 -20.8357 -0.6002
31.3200 -20.8491 -0.5983
31.3400 -20.8624 -0.5986
31.3600 -20.8758 -0.6008
31.3800 -20.8892 -0.6000
31.4000 -20.9025 -0.5975
31.4200 -20.9158 -0.5994
31.4400 -20.9291 -0.5983
31.4600 -20.9425 -0.5985
31.4800 -20.9558 -0.5981
31.5000 -20.9691 -0.5959
31.5200 -20.9824 -0.5951
31.5400 -20.9958 -0.5957
31.5600 -21.0091 -0.5960
31.5800 -21.0224 -0.5952
31.6000 -21.0357 -0.5965
31.6200 -21.0490 -0.5967
31.6400 -21.0624 -0.5955
31.6600 -21.0758 -0.5954
31.6800 -21.0891 -0.5959
31.7000 -21.1024 -0.5933
31.7200 -21.1158 -0.5956
31.7400 -21.1292 -0.5936
31.7600 -21.1424 -0.5904
31.7800 -21.1557 -0.5925
31.8000 -21.1690 -0.5928
31.8200 -21.1824 -0.5901
31.8400 -21.1958 -0.5893
31.8600 -21.2091 -0.5907
31.8800 -21.2224 -0.5880
31.9000 -21.2358 -0.5889
31.9200 -21.2491 -0.5866
31.9400 -21.2625 -0.5866
31.9600 -21.2757 -0.5847
31.9800 -21.2891 -0.5830
32.0000 -21.3024 -0.5810
32.0200 -21.3157 -0.5798
32.0400 -21.3291 -0.5796
32.0600 -21.3424 -0.5787
32.0800 -21.3558 -0.5783
32.1000 -21.3692 -0.5793
32.1200 -21.3825 -0.5755
32.1400 -21.3958 -0.5761
32.1600 -21.4091 -0.5747
32.1800 -21.4225 -0.5715
32.2000 -21.4359 -0.5711
32.2200 -21.4491 -0.5727
32.2400 -21.4624 -0.5704
32.2600 -21.4758 -0.5715
32.2800 -21.4891 -0.5703
32.3000 -21.5024 -0.5693
32.3200 -21.5157 -0.5685
32.3400 -21.5291 -0.5674
32.3600 -21.5424 -0.5640
32.3800 -21.5558 -0.5688
32.4000 -21.5691 -0.5661
32.4200 -21.5824 -0.5652
32.4400 -21.5958 -0.5633
32.4600 -21.6091 -0.5638
32.4800 -21.6225 -0.5623
32.5000 -21.6358 -0.5635
32.5200 -21.6491 -0.5633
32.5400 -21.6625 -0.5587
32.5600 -21.6758 -0.5593
32.5800 -21.6891 -0.5589
32.6000 -21.7024 -0.5571
32.6200 -21.7158 -0.5559
32.6400 -21.7291 -0.5566
32.6600 -21.7424 -0.5523
32.6800 -21.7557 -0.5542
32.7000 -21.7690 -0.5523
32.7200 -21.7824 -0.5510
32.7400 -21.7958 -0.5524
32.7600 -21.8091 -0.5533
32.7800 -21.8224 -0.5493
32.8000 -21.8357 -0.5513
32.8200 -21.8491 -0.5478
32.8400 -21.8625 -0.5482
32.8600 -21.8758 -0.5486
32.8800 -21.8891 -0.5469
32.9000 -21.9024 -0.5438
32.9200 -21.9158 -0.5452
32.9400 -21.9291 -0.5437
32.9600 -21.9424 -0.5429
32.9800 -21.9558 -0.5428
33.0000 -21.9691 -0.5411
33.0200 -21.9824 -0.5375
33.0400 -21.9957 -0.5395
33.0600 -22.0090 -0.5380
33.0800 -22.0224 -0.5364
33.1000 -22.0358 -0.5374
33.1200 -22.0491 -0.5377
33.1400 -22.0624 -0.5340
33.1600 -22.0758 -0.5333
33.1800 -22.0891 -0.5329
33.2000 -22.1025 -0.5310
33.2200 -22.1158 -0.5297
33.2400 -22.1291 -0.5290
33.2600 -22.1424 -0.5289
33.2800 -22.1558 -0.5297
33.3000 -22.1691 -0.5317
33.3200 -22.1824 -0.5269
33.3400 -22.1958 -0.5256
33.3600 -22.2091 -0.5240
33.3800 -22.2224 -0.5217
33.4000 -22.2357 -0.5230
33.4200 -22.2490 -0.5229
33.4400 -22.2624 -0.5201
33.4600 -22.2758 -0.5196
33.4800 -22.2891 -0.5193
33.5000 -22.3024 -0.5178
33.5200 -22.3158 -0.5164
33.5400 -22.3292 -0.5170
33.5600 -22.3425 -0.5121
33.5800 -22.3558 -0.5137
33.6000 -22.3691 -0.5133
33.6200 -22.3825 -0.5114
33.6400 -22.3958 -0.5126
33.6600 -22.4091 -0.5134
33.6800 -22.4224 -0.5108
33.7000 -22.4357 -0.5099
33.7200 -22.4491 -0.5093
33.7400 -22.4624 -0.5077
33.7600 -22.4757 -0.5090
33.7800 -22.4890 -0.5094
33.8000 -22.5024 -0.5085
33.8200 -22.5158 -0.5067
33.8400 -22.5291 -0.5090
33.8600 -22.5424 -0.5060
33.8800 -22.5557 -0.5078
33.9000 -22.5691 -0.5078
33.9200 -22.5825 -0.5058
33.9400 -22.5958 -0.5085
33.9600 -22.6091 -0.5086
33.9800 -22.6224 -0.5063
34.0000 -22.6358 -0.5081
34.0200 -22.6491 -0.5078
34.0400 -22.6625 -0.5072
34.0600 -22.6758 -0.5072
34.0800 -22.6892 -0.5087
34.1000 -22.7025 -0.5048
34.1200 -22.7157 -0.5058
34.1400 -22.7290 -0.5056
34.1600 -22.7423 -0.5043
34.1800 -22.7557 -0.5044
34.2000 -22.7690 -0.5037
34.2200 -22.7823 -0.5035
34.2400 -22.7957 -0.5025
34.2600 -22.8091 -0.5043
34.2800 -22.8225 -0.5007
34.3000 -22.8358 -0.5031
34.3200 -22.8491 -0.5053
34.3400 -22.8625 -0.5000
34.3600 -22.8759 -0.4982
34.3800 -22.8892 -0.5005
34.4000 -22.9025 -0.4973
34.4200 -22.9158 -0.4982
34.4400 -22.9291 -0.4972
34.4600 -22.9424 -0.4974
34.4800 -22.9557 -0.4964
34.5000 -22.9690 -0.4958
34.5200 -22.9824 -0.4934
34.5400 -22.9958 -0.4935
34.5600 -23.0091 -0.4934
34.5800 -23.0224 -0.4925
34.6000 -23.0358 -0.4930
34.6200 -23.0491 -0.4935
34.6400 -23.0625 -0.4923
34.6600 -23.0758 -0.4907
34.6800 -23.0891 -0.4927
34.7000 -23.1025 -0.4903
34.7200 -23.1158 -0.4882
34.7400 -23.1292 -0.4888
34.7600 -23.1424 -0.4869
34.7800 -23.1558 -0.4877
34.8000 -23.1691 -0.4886
34.8200 -23.1824 -0.4863
34.8400 -23.1957 -0.4848
34.8600 -23.2090 -0.4845
34.8800 -23.2224 -0.4832
34.9000 -23.2357 -0.4828
34.9200 -23.2491 -0.4834
34.9400 -23.2624 -0.4799
34.9600 -23.2758 -0.4822
34.9800 -23.2891 -0.4815
35.0000 -23.3025 -0.4790
35.0200 -23.3158 -0.4793
35.0400 -23.3291 -0.4775
35.0600 -23.3425 -0.4737
35.0800 -23.3558 -0.4736
35.1000 -23.3692 -0.4748
35.1200 -23.3825 -0.4736
35.1400 -23.3958 -0.4736
35.1600 -23.4091 -0.4735
35.1800 -23.4224 -0.4706
35.2000 -23.4357 -0.4716
35.2200 -23.4490 -0.4722
35.2400 -23.4624 -0.4701
35.2600 -23.4757 -0.4673
35.2800 -23.4891 -0.4697
35.3000 -23.5024 -0.4662
35.3200 -23.5157 -0.4676
35.3400 -23.5291 -0.4657
35.3600 -23.5425 -0.4653
35.3800 -23.5558 -0.4636
35.4000 -23.5691 -0.4659
35.4200 -23.5825 -0.4624
35.4400 -23.5958 -0.4622
35.4600 -23.6092 -0.4620
35.4800 -23.6225 -0.4607
35.5000 -23.6358 -0.4601
35.5200 -23.6491 -0.4610
35.5400 -23.6624 -0.4566
35.5600 -23.6757 -0.4555
35.5800 -23.6890 -0.4562
35.6000 -23.7024 -0.4551
35.6200 -23.7158 -0.4551
35.6400 -23.7291 -0.4545
35.6600 -23.7424 -0.4540
35.6800 -23.7557 -0.4502
35.7000 -23.7691 -0.4533
35.7200 -23.7825 -0.4500
35.7400 -23.7958 -0.4502
35.7600 -23.8091 -0.4510
35.7800 -23.8224 -0.4484
35.8000 -23.8358 -0.4502
35.8200 -23.8492 -0.4522
35.8400 -23.8625 -0.4502
35.8600 -23.8758 -0.4481
35.8800 -23.8891 -0.4510
35.9000 -23.9025 -0.4489
35.9200 -23.9158 -0.4508
35.9400 -23.9290 -0.4514
35.9600 -23.9424 -0.4498
35.9800 -23.9557 -0.4498
36.0000 -23.9691 -0.4501
36.0200 -23.9824 -0.4490
36.0400 -23.9957 -0.4472
36.0600 -24.0091 -0.4483
36.0800 -24.0225 -0.4466
36.1000 -24.0358 -0.4485
36.1200 -24.0491 -0.4493
36.1400 -24.0624 -0.4485
36.1600 -24.0758 -0.4473
36.1800 -24.0892 -0.4471
36.2000 -24.1025 -0.4448
36.2200 -24.1158 -0.4453
36.2400 -24.1291 -0.4456
36.2600 -24.1425 -0.4444
36.2800 -24.1557 -0.4449
36.3000 -24.1690 -0.4451
36.3200 -24.1824 -0.4438
36.3400 -24.1957 -0.4432
36.3600 -24.2091 -0.4444
36.3800 -24.2224 -0.4418
36.4000 -24.2357 -0.4407
36.4200 -24.2491 -0.4418
36.4400 -24.2625 -0.4417
36.4600 -24.2759 -0.4388
36.4800 -24.2892 -0.4432
36.5000 -24.3025 -0.4401
36.5200 -24.3158 -0.4373
36.5400 -24.3292 -0.4384
36.5600 -24.3425 -0.4371
36.5800 -24.3557 -0.4353
36.6000 -24.3690 -0.4371
36.6200 -24.3824 -0.4341
36.6400 -24.3957 -0.4332
36.6600 -24.4090 -0.4340
36.6800 -24.4224 -0.4318
36.7000 -24.4357 -0.4318
36.7200 -24.4491 -0.4302
36.7400 -24.4624 -0.4321
36.7600 -24.4758 -0.4288
36.7800 -24.4891 -0.4317
36.8000 -24.5025 -0.4293
36.8200 -24.5158 -0.4272
36.8400 -24.5291 -0.4295
36.8600 -24.5424 -0.4255
36.8800 -24.5558 -0.4240
36.9000 -24.5692 -0.4263
36.9200 -24.5825 -0.4238
36.9400 -24.5958 -0.4249
36.9600 -24.6091 -0.4246
36.9800 -24.6225 -0.4246
37.0000 -24.6358 -0.4200
37.0200 -24.6491 -0.4235
37.0400 -24.6624 -0.4218
37.0600 -24.6758 -0.4206
37.0800 -24.6891 -0.4219
37.1000 -24.7024 -0.4208
37.1200 -24.7157 -0.4197
37.1400 -24.7291 -0.4200
37.1600 -24.7425 -0.4172
37.1800 -24.7558 -0.4162
37.2000 -24.7691 -0.4176
37.2200 -24.7824 -0.4183
37.2400 -24.7958 -0.4137
37.2600 -24.8091 -0.4145
37.2800 -24.8224 -0.4129
37.3000 -24.8357 -0.4120
37.3200 -24.8491 -0.4145
37.3400 -24.8624 -0.4130
37.3600 -24.8758 -0.4113
37.3800 -24.8890 -0.4131
37.4000 -24.9024 -0.4120
37.4200 -24.9157 -0.4101
37.4400 -24.9291 -0.4107
37.4600 -24.9424 -0.4095
37.4800 -24.9557 -0.4101
37.5000 -24.9691 -0.4097
37.5200 -24.9825 -0.4106
37.5400 -24.9958 -0.4073
37.5600 -25.0091 -0.4117
37.5800 -25.0224 -0.4083
37.6000 -25.0358 -0.4073
37.6200 -25.0491 -0.4080
37.6400 -25.0625 -0.4074
37.6600 -25.0758 -0.4048
37.6800 -25.0891 -0.4062
37.7000 -25.1024 -0.4039
37.7200 -25.1157 -0.4052
37.7400 -25.1290 -0.4045
37.7600 -25.1424 -0.4033
37.7800 -25.1557 -0.4012
37.8000 -25.1691 -0.4019
37.8200 -25.1824 -0.4027
37.8400 -25.1958 -0.4021
37.8600 -25.2091 -0.4036
37.8800 -25.2225 -0.4014
37.9000 -25.2358 -0.3992
37.9200 -25.2491 -0.4012
37.9400 -25.2624 -0.4001
37.9600 -25.2758 -0.4001
37.9800 -25.2892 -0.4011
38.0000 -25.3025 -0.3997
38.0200 -25.3158 -0.3986
38.0400 -25.3291 -0.4003
38.0600 -25.3424 -0.3992
38.0800 -25.3557 -0.3963
38.1000 -25.3690 -0.3982
38.1200 -25.3823 -0.3963
38.1400 -25.3957 -0.3962
38.1600 -25.4091 -0.3963
38.1800 -25.4224 -0.3963
38.2000 -25.4357 -0.3934
38.2200 -25.4491 -0.3965
38.2400 -25.4625 -0.3967
38.2600 -25.4758 -0.3961
38.2800 -25.4891 -0.3937
38.3000 -25.5025 -0.3962
38.3200 -25.5158 -0.3936
38.3400 -25.5292 -0.3935
38.3600 -25.5425 -0.3923
38.3800 -25.5558 -0.3911
38.4000 -25.5691 -0.3929
38.4200 -25.5824 -0.3924
38.4400 -25.5957 -0.3916
38.4600 -25.6090 -0.3917
38.4800 -25.6223 -0.3900
38.5000 -25.6357 -0.3871
38.5200 -25.6491 -0.3875
38.5400 -25.6624 -0.3876
38.5600 -25.6757 -0.3851
38.5800 -25.6891 -0.3852
38.6000 -25.7025 -0.3861
38.6200 -25.7159 -0.3846
38.6400 -25.7292 -0.3850
38.6600 -25.7425 -0.3844
38.6800 -25.7558 -0.3825
38.7000 -25.7691 -0.3832
38.7200 -25.7825 -0.3824
38.7400 -25.7958 -0.3803
38.7600 -25.8091 -0.3804
38.7800 -25.8224 -0.3795
38.8000 -25.8358 -0.3795
38.8200 -25.8491 -0.3789
38.8400 -25.8624 -0.3792
38.8600 -25.8757 -0.3762
38.8800 -25.8891 -0.3773
38.9000 -25.9025 -0.3769
38.9200 -25.9158 -0.3752
38.9400 -25.9291 -0.3744
38.9600 -25.9425 -0.3753
38.9800 -25.9558 -0.3734
39.0000 -25.9691 -0.3736
39.0200 -25.9824 -0.3718
39.0400 -25.9957 -0.3705
39.0600 -26.0091 -0.3737
39.0800 -26.0224 -0.3733
39.1000 -26.0358 -0.3708
39.1200 -26.0491 -0.3712
39.1400 -26.0624 -0.3724
39.1600 -26.0757 -0.3689
39.1800 -26.0890 -0.3711
39.2000 -26.1024 -0.3688
39.2200 -26.1157 -0.3683
39.2400 -26.1291 -0.3689
39.2600 -26.1424 -0.3708
39.2800 -26.1557 -0.3653
39.3000 -26.1691 -0.3695
39.3200 -26.1825 -0.3658
39.3400 -26.1958 -0.3670
39.3600 -26.2091 -0.3663
39.3800 -26.2225 -0.3677
39.4000 -26.2358 -0.3653
39.4200 -26.2492 -0.3654
39.4400 -26.2625 -0.3645
39.4600 -26.2758 -0.3651
39.4800 -26.2891 -0.3653
39.5000 -26.3025 -0.3664
39.5200 -26.3158 -0.3642
39.5400 -26.3291 -0.3626
39.5600 -26.3424 -0.3624
39.5800 -26.3557 -0.3603
39.6000 -26.3691 -0.3623
39.6200 -26.3824 -0.3615
39.6400 -26.3957 -0.3590
39.6600 -26.4091 -0.3602
39.6800 -26.4225 -0.3614
39.7000 -26.4358 -0.3605
39.7200 -26.4491 -0.3616
39.7400 -26.4624 -0.3609
39.7600 -26.4758 -0.3610
39.7800 -26.4892 -0.3622
39.8000 -26.5025 -0.3619
39.8200 -26.5158 -0.3606
39.8400 -26.5291 -0.3635
39.8600 -26.5424 -0.3614
39.8800 -26.5558 -0.3592
39.9000 -26.5691 -0.3581
39.9200 -26.5824 -0.3595
39.9400 -26.5957 -0.3563
39.9600 -26.6091 -0.3570
39.9800 -26.6224 -0.3560
40.0000 -26.6357 -0.3549
40.0200 -26.6491 -0.3545
40.0400 -26.6624 -0.3559
40.0600 -26.6758 -0.3504
40.0800 -26.6891 -0.3509
40.1000 -26.7024 -0.3506
40.1200 -26.7158 -0.3519
40.1400 -26.7291 -0.3523
40.1600 -26.7425 -0.3519
40.1800 -26.7558 -0.3488
40.2000 -26.7691 -0.3483
40.2200 -26.7825 -0.3470
40.2400 -26.7958 -0.3462
40.2600 -26.8091 -0.3461
40.2800 -26.8224 -0.3456
40.3000 -26.8357 -0.3424
40.3200 -26.8491 -0.3425
40.3400 -26.8624 -0.3424
40.3600 -26.8757 -0.3405
40.3800 -26.8891 -0.3411
40.4000 -26.9025 -0.3433
40.4200 -26.9158 -0.3403
40.4400 -26.9292 -0.3400
40.4600 -26.9424 -0.3404
40.4800 -26.9558 -0.3378
40.5000 -26.9691 -0.3356
40.5200 -26.9825 -0.3372
40.5400 -26.9958 -0.3360
40.5600 -27.0091 -0.3353
40.5800 -27.0224 -0.3368
40.6000 -27.0358 -0.3333
40.6200 -27.0491 -0.3337
40.6400 -27.0624 -0.3331
40.6600 -27.0757 -0.3321
40.6800 -27.0891 -0.3309
40.7000 -27.1025 -0.3321
40.7200 -27.1158 -0.3288
40.7400 -27.1291 -0.3286
40.7600 -27.1424 -0.3297
40.7800 -27.1558 -0.3303
40.8000 -27.1691 -0.3299
40.8200 -27.1824 -0.3298
40.8400 -27.1958 -0.3275
40.8600 -27.2091 -0.3275
40.8800 -27.2225 -0.3273
40.9000 -27.2358 -0.3267
40.9200 -27.2491 -0.3280
40.9400 -27.2624 -0.3281
40.9600 -27.2758 -0.3244
40.9800 -27.2891 -0.3240
41.0000 -27.3024 -0.3266
41.0200 -27.3157 -0.3249
41.0400 -27.3291 -0.3259
41.0600 -27.3424 -0.3261
41.0800 -27.3557 -0.3254
41.1000 -27.3691 -0.3238
41.1200 -27.3824 -0.3250
41.1400 -27.3958 -0.3220
41.1600 -27.4091 -0.3222
41.1800 -27.4224 -0.3228
41.2000 -27.4358 -0.3231
41.2200 -27.4491 -0.3239
41.2400 -27.4625 -0.3243
41.2600 -27.4758 -0.3222
41.2800 -27.4891 -0.3235
41.3000 -27.5025 -0.3232
41.3200 -27.5158 -0.3233
41.3400 -27.5291 -0.3225
41.3600 -27.5424 -0.3236
41.3800 -27.5557 -0.3218
41.4000 -27.5690 -0.3220
41.4200 -27.5824 -0.3206
41.4400 -27.5957 -0.3192
41.4600 -27.6090 -0.3204
41.4800 -27.6224 -0.3195
41.5000 -27.6358 -0.3190
41.5200 -27.6492 -0.3193
41.5400 -27.6625 -0.3199
41.5600 -27.6758 -0.3162
41.5800 -27.6892 -0.3158
41.6000 -27.7025 -0.3146
41.6200 -27.7158 -0.3142
41.6400 -27.7291 -0.3136
41.6600 -27.7425 -0.3158
41.6800 -27.7558 -0.3131
41.7000 -27.7691 -0.3146
41.7200 -27.7824 -0.3119
41.7400 -27.7957 -0.3127
41.7600 -27.8091 -0.3088
41.7800 -27.8224 -0.3098
41.8000 -27.8358 -0.3086
41.8200 -27.8491 -0.3095
41.8400 -27.8625 -0.3080
41.8600 -27.8758 -0.3083
41.8800 -27.8892 -0.3050
41.9000 -27.9025 -0.3080
41.9200 -27.9158 -0.3061
41.9400 -27.9291 -0.3040
41.9600 -27.9425 -0.3013
41.9800 -27.9558 -0.3041
42.0000 -27.9691 -0.3036
42.0200 -27.9824 -0.3027
42.0400 -27.9958 -0.3009
42.0600 -28.0091 -0.3007
42.0800 -28.0224 -0.3010
42.1000 -28.0357 -0.3016
42.1200 -28.0490 -0.3001
42.1400 -28.0624 -0.2983
42.1600 -28.0758 -0.2990
42.1800 -28.0891 -0.2987
42.2000 -28.1024 -0.2982
42.2200 -28.1158 -0.2958
42.2400 -28.1292 -0.2966
42.2600 -28.1425 -0.2972
42.2800 -28.1558 -0.2987
42.3000 -28.1691 -0.2974
42.3200 -28.1825 -0.2968
42.3400 -28.1958 -0.2981
42.3600 -28.2091 -0.2980
42.3800 -28.2224 -0.2945
42.4000 -28.2358 -0.2961
42.4200 -28.2491 -0.2934
42.4400 -28.2624 -0.2978
42.4600 -28.2757 -0.2949
42.4800 -28.2890 -0.2961
42.5000 -28.3024 -0.2947
42.5200 -28.3157 -0.2958
42.5400 -28.3290 -0.2942
42.5600 -28.3424 -0.2952
42.5800 -28.3558 -0.2953
42.6000 -28.3692 -0.2940
42.6200 -28.3825 -0.2920
42.6400 -28.3958 -0.2919
42.6600 -28.4091 -0.2923
42.6800 -28.4225 -0.2938
42.7000 -28.4358 -0.2920
42.7200 -28.4491 -0.2892
42.7400 -28.4624 -0.2881
42.7600 -28.4758 -0.2886
42.7800 -28.4891 -0.2882
42.8000 -28.5024 -0.2874
42.8200 -28.5157 -0.2874
42.8400 -28.5291 -0.2889
42.8600 -28.5424 -0.2882
42.8800 -28.5557 -0.2883
42.9000 -28.5690 -0.2864
42.9200 -28.5824 -0.2874
42.9400 -28.5958 -0.2860
42.9600 -28.6091 -0.2841
42.9800 -28.6224 -0.2840
43.0000 -28.6358 -0.2836
43.0200 -28.6491 -0.2819
43.0400 -28.6625 -0.2827
43.0600 -28.6758 -0.2827
43.0800 -28.6892 -0.2817
43.1000 -28.7025 -0.2817
43.1200 -28.7158 -0.2819
43.1400 -28.7291 -0.2816
43.1600 -28.7424 -0.2807
43.1800 -28.7557 -0.2808
43.2000 -28.7691 -0.2772
43.2200 -28.7824 -0.2773
43.2400 -28.7957 -0.2766
43.2600 -28.8090 -0.2742
43.2800 -28.8224 -0.2736
43.3000 -28.8358 -0.2757
43.3200 -28.8491 -0.2754
43.3400 -28.8624 -0.2765
43.3600 -28.8757 -0.2767
43.3800 -28.8891 -0.2716
43.4000 -28.9025 -0.2707
43.4200 -28.9158 -0.2697
43.4400 -28.9291 -0.2702
43.4600 -28.9425 -0.2703
43.4800 -28.9558 -0.2714
43.5000 -28.9691 -0.2699
43.5200 -28.9824 -0.2685
43.5400 -28.9957 -0.2685
43.5600 -29.0090 -0.2707
43.5800 -29.0224 -0.2683
43.6000 -29.0357 -0.2690
43.6200 -29.0490 -0.2686
43.6400 -29.0624 -0.2678
43.6600 -29.0758 -0.2670
43.6800 -29.0892 -0.2647
43.7000 -29.1025 -0.2665
43.7200 -29.1158 -0.2671
43.7400 -29.1291 -0.2654
43.7600 -29.1425 -0.2658
43.7800 -29.1558 -0.2648
43.8000 -29.1691 -0.2632
43.8200 -29.1824 -0.2627
43.8400 -29.1957 -0.2628
43.8600 -29.2090 -0.2610
43.8800 -29.2223 -0.2627
43.9000 -29.2357 -0.2616
43.9200 -29.2490 -0.2616
43.9400 -29.2624 -0.2585
43.9600 -29.2758 -0.2596
43.9800 -29.2891 -0.2580
44.0000 -29.3024 -0.2601
44.0200 -29.3158 -0.2608
44.0400 -29.3292 -0.2600
44.0600 -29.3425 -0.2580
44.0800 -29.3558 -0.2583
44.1000 -29.3691 -0.2563
44.1200 -29.3825 -0.2572
44.1400 -29.3958 -0.2576
44.1600 -29.4091 -0.2551
44.1800 -29.4224 -0.2562
44.2000 -29.4358 -0.2519
44.2200 -29.4491 -0.2537
44.2400 -29.4624 -0.2524
44.2600 -29.4757 -0.2556
44.2800 -29.4891 -0.2508
44.3000 -29.5024 -0.2534
44.3200 -29.5158 -0.2501
44.3400 -29.5291 -0.2524
44.3600 -29.5424 -0.2502
44.3800 -29.5558 -0.2505
44.4000 -29.5692 -0.2483
44.4200 -29.5825 -0.2500
44.4400 -29.5958 -0.2481
44.4600 -29.6091 -0.2486
44.4800 -29.6225 -0.2488
44.5000 -29.6358 -0.2488
44.5200 -29.6491 -0.2473
44.5400 -29.6624 -0.2471
44.5600 -29.6758 -0.2465
44.5800 -29.6891 -0.2461
44.6000 -29.7024 -0.2463
44.6200 -29.7157 -0.2452
44.6400 -29.7290 -0.2460
44.6600 -29.7424 -0.2435
44.6800 -29.7558 -0.2444
44.7000 -29.7691 -0.2437
44.7200 -29.7824 -0.2432
44.7400 -29.7958 -0.2418
44.7600 -29.8091 -0.2424
44.7800 -29.8225 -0.2424
44.8000 -29.8358 -0.2417
44.8200 -29.8491 -0.2400
44.8400 -29.8625 -0.2409
44.8600 -29.8758 -0.2397
44.8800 -29.8891 -0.2407
44.9000 -29.9024 -0.2414
44.9200 -29.9158 -0.2413
44.9400 -29.9291 -0.2433
44.9600 -29.9424 -0.2374
44.9800 -29.9557 -0.2378
45.0000 -29.9690 -0.2367
45.0200 -29.9824 -0.2392
45.0400 -29.9958 -0.2363
45.0600 -30.0091 -0.2384
45.0800 -30.0224 -0.2357
45.1000 -30.0358 -0.2382
45.1200 -30.0491 -0.2350
45.1400 -30.0625 -0.2353
45.1600 -30.0758 -0.2368
45.1800 -30.0891 -0.2360
45.2000 -30.1025 -0.2362
45.2200 -30.1158 -0.2328
45.2400 -30.1291 -0.2365
45.2600 -30.1425 -0.2342
45.2800 -30.1558 -0.2358
45.3000 -30.1691 -0.2340
45.3200 -30.1824 -0.2338
45.3400 -30.1957 -0.2347
45.3600 -30.2090 -0.2370
45.3800 -30.2224 -0.2358
45.4000 -30.2357 -0.2340
45.4200 -30.2491 -0.2345
45.4400 -30.2624 -0.2342
45.4600 -30.2758 -0.2350
45.4800 -30.2892 -0.2331
45.5000 -30.3025 -0.2323
45.5200 -30.3158 -0.2312
45.5400 -30.3291 -0.2325
45.5600 -30.3425 -0.2305
45.5800 -30.3558 -0.2311
45.6000 -30.3691 -0.2305
45.6200 -30.3825 -0.2302
45.6400 -30.3958 -0.2290
45.6600 -30.4091 -0.2308
45.6800 -30.4224 -0.2277
45.7000 -30.4357 -0.2271
45.7200 -30.4490 -0.2247
45.7400 -30.4624 -0.2233
45.7600 -30.4757 -0.2240
45.7800 -30.4891 -0.2252
45.8000 -30.5024 -0.2255
45.8200 -30.5158 -0.2227
45.8400 -30.5292 -0.2229
45.8600 -30.5425 -0.2193
45.8800 -30.5558 -0.2204
45.9000 -30.5691 -0.2202
45.9200 -30.5825 -0.2205
45.9400 -30.5958 -0.2181
45.9600 -30.6091 -0.2200
45.9800 -30.6224 -0.2178
46.0000 -30.6358 -0.2173
46.0200 -30.6491 -0.2147
46.0400 -30.6624 -0.2150
46.0600 -30.6757 -0.2150
46.0800 -30.6890 -0.2151
46.1000 -30.7024 -0.2135
46.1200 -30.7158 -0.2146
46.1400 -30.7291 -0.2141
46.1600 -30.7424 -0.2153
46.1800 -30.7558 -0.2127
46.2000 -30.7691 -0.2125
46.2200 -30.7825 -0.2112
46.2400 -30.7957 -0.2114
46.2600 -30.8090 -0.2106
46.2800 -30.8224 -0.2107
46.3000 -30.8358 -0.2088
46.3200 -30.8491 -0.2116
46.3400 -30.8624 -0.2089
46.3600 -30.8758 -0.2066
46.3800 -30.8891 -0.2059
46.4000 -30.9025 -0.2052
46.4200 -30.9157 -0.2068
46.4400 -30.9291 -0.2078
46.4600 -30.9424 -0.2075
46.4800 -30.9558 -0.2073
46.5000 -30.9691 -0.2074
46.5200 -30.9824 -0.2074
46.5400 -30.9958 -0.2042
46.5600 -31.0091 -0.2043
46.5800 -31.0225 -0.2057
46.6000 -31.0358 -0.2050
46.6200 -31.0491 -0.2037
46.6400 -31.0625 -0.2016
46.6600 -31.0758 -0.2013
46.6800 -31.0892 -0.2010
46.7000 -31.1025 -0.2022
46.7200 -31.1158 -0.2018
46.7400 -31.1291 -0.2022
46.7600 -31.1424 -0.2020
46.7800 -31.1557 -0.2009
46.8000 -31.1690 -0.2000
46.8200 -31.1824 -0.2005
46.8400 -31.1957 -0.1962
46.8600 -31.2091 -0.2005
46.8800 -31.2224 -0.1982
46.9000 -31.2357 -0.2010
46.9200 -31.2491 -0.1974
46.9400 -31.2625 -0.1996
46.9600 -31.2758 -0.1957
46.9800 -31.2891 -0.1986
47.0000 -31.3025 -0.1959
47.0200 -31.3158 -0.1971
47.0400 -31.3291 -0.1973
47.0600 -31.3424 -0.1970
47.0800 -31.3558 -0.1947
47.1000 -31.3691 -0.1974
47.1200 -31.3824 -0.1951
47.1400 -31.3957 -0.1937
47.1600 -31.4090 -0.1962
47.1800 -31.4224 -0.1901
47.2000 -31.4358 -0.1917
47.2200 -31.4491 -0.1900
47.2400 -31.4624 -0.1915
47.2600 -31.4757 -0.1910
47.2800 -31.4891 -0.1906
47.3000 -31.5025 -0.1893
47.3200 -31.5158 -0.1897
47.3400 -31.5291 -0.1900
47.3600 -31.5424 -0.1886
47.3800 -31.5558 -0.1858
47.4000 -31.5691 -0.1853
47.4200 -31.5825 -0.1846
47.4400 -31.5958 -0.1839
47.4600 -31.6091 -0.1856
47.4800 -31.6225 -0.1833
47.5000 -31.6357 -0.1841
47.5200 -31.6490 -0.1836
47.5400 -31.6624 -0.1826
47.5600 -31.6758 -0.1811
47.5800 -31.6891 -0.1828
47.6000 -31.7024 -0.1809
47.6200 -31.7158 -0.1802
47.6400 -31.7292 -0.1809
47.6600 -31.7425 -0.1788
47.6800 -31.7558 -0.1789
47.7000 -31.7691 -0.1791
47.7200 -31.7824 -0.1777
47.7400 -31.7958 -0.1758
47.7600 -31.8091 -0.1765
47.7800 -31.8224 -0.1779
47.8000 -31.8358 -0.1774
47.8200 -31.8491 -0.1768
47.8400 -31.8624 -0.1743
47.8600 -31.8757 -0.1727
47.8800 -31.8890 -0.1740
47.9000 -31.9024 -0.1730
47.9200 -31.9158 -0.1716
47.9400 -31.9291 -0.1748
47.9600 -31.9424 -0.1720
47.9800 -31.9558 -0.1720
48.0000 -31.9691 -0.1739
48.0200 -31.9825 -0.1712
48.0400 -31.9958 -0.1715
48.0600 -32.0091 -0.1713
48.0800 -32.0224 -0.1691
48.1000 -32.0358 -0.1707
48.1200 -32.0491 -0.1706
48.1400 -32.0624 -0.1688
48.1600 -32.0757 -0.1664
48.1800 -32.0891 -0.1658
48.2000 -32.1024 -0.1663
48.2200 -32.1157 -0.1651
48.2400 -32.1290 -0.1670
48.2600 -32.1424 -0.1638
48.2800 -32.1558 -0.1628
48.3000 -32.1691 -0.1654
48.3200 -32.1824 -0.1640
48.3400 -32.1957 -0.1634
48.3600 -32.2091 -0.1651
48.3800 -32.2225 -0.1631
48.4000 -32.2358 -0.1613
48.4200 -32.2491 -0.1632
48.4400 -32.2624 -0.1641
48.4600 -32.2758 -0.1621
48.4800 -32.2891 -0.1646
48.5000 -32.3025 -0.1607
48.5200 -32.3158 -0.1631
48.5400 -32.3292 -0.1595
48.5600 -32.3425 -0.1614
48.5800 -32.3558 -0.1595
48.6000 -32.3690 -0.1605
48.6200 -32.3824 -0.1574
48.6400 -32.3957 -0.1571
48.6600 -32.4090 -0.1566
48.6800 -32.4223 -0.1581
48.7000 -32.4357 -0.1562
48.7200 -32.4491 -0.1595
48.7400 -32.4625 -0.1573
48.7600 -32.4758 -0.1547
48.7800 -32.4891 -0.1559
48.8000 -32.5025 -0.1532
48.8200 -32.5159 -0.1542
48.8400 -32.5292 -0.1537
48.8600 -32.5425 -0.1523
48.8800 -32.5558 -0.1523
48.9000 -32.5691 -0.1542
48.9200 -32.5825 -0.1529
48.9400 -32.5958 -0.1511
48.9600 -32.6091 -0.1507
48.9800 -32.6224 -0.1502
49.0000 -32.6358 -0.1485
49.0200 -32.6491 -0.1503
49.0400 -32.6624 -0.1492
49.0600 -32.6758 -0.1470
49.0800 -32.6891 -0.1480
49.1000 -32.7025 -0.1476
49.1200 -32.7158 -0.1459
49.1400 -32.7291 -0.1445
49.1600 -32.7425 -0.1435
49.1800 -32.7558 -0.1431
49.2000 -32.7691 -0.1438
49.2200 -32.7825 -0.1456
49.2400 -32.7958 -0.1420
49.2600 -32.8091 -0.1439
49.2800 -32.8224 -0.1414
49.3000 -32.8357 -0.1428
49.3200 -32.8490 -0.1440
49.3400 -32.8624 -0.1428
49.3600 -32.8757 -0.1396
49.3800 -32.8891 -0.1410
49.4000 -32.9024 -0.1395
49.4200 -32.9158 -0.1409
49.4400 -32.9291 -0.1378
49.4600 -32.9425 -0.1396
49.4800 -32.9558 -0.1372
49.5000 -32.9691 -0.1388
49.5200 -32.9824 -0.1381
49.5400 -32.9958 -0.1374
49.5600 -33.0091 -0.1358
49.5800 -33.0224 -0.1373
49.6000 -33.0358 -0.1369
49.6200 -33.0491 -0.1389
49.6400 -33.0625 -0.1370
49.6600 -33.0757 -0.1333
49.6800 -33.0890 -0.1354
49.7000 -33.1023 -0.1361
49.7200 -33.1157 -0.1356
49.7400 -33.1291 -0.1339
49.7600 -33.1424 -0.1358
49.7800 -33.1557 -0.1319
49.8000 -33.1691 -0.1334
49.8200 -33.1825 -0.1330
49.8400 -33.1958 -0.1315
49.8600 -33.2092 -0.1321
49.8800 -33.2225 -0.1341
49.9000 -33.2358 -0.1338
49.9200 -33.2492 -0.1319
49.9400 -33.2625 -0.1305
49.9600 -33.2758 -0.1302
49.9800 -33.2891 -0.1306
50.0000 -33.3025 -0.1298
50.0200 -33.3158 -0.1282
50.0400 -33.3291 -0.1292
50.0600 -33.3424 -0.1299
50.0800 -33.3558 -0.1275
50.1000 -33.3691 -0.1276
50.1200 -33.3824 -0.1275
50.1400 -33.3957 -0.1242
50.1600 -33.4091 -0.1277
50.1800 -33.4224 -0.1271
50.2000 -33.4358 -0.1273
50.2200 -33.4491 -0.1246
50.2400 -33.4624 -0.1236
50.2600 -33.4758 -0.1227
50.2800 -33.4892 -0.1217
50.3000 -33.5025 -0.1240
50.3200 -33.5158 -0.1187
50.3400 -33.5291 -0.1198
50.3600 -33.5425 -0.1190
50.3800 -33.5558 -0.1207
50.4000 -33.5691 -0.1202
50.4200 -33.5824 -0.1208
50.4400 -33.5957 -0.1180
50.4600 -33.6091 -0.1193
50.4800 -33.6224 -0.1175
50.5000 -33.6357 -0.1180
50.5200 -33.6491 -0.1180
50.5400 -33.6625 -0.1193
50.5600 -33.6758 -0.1154
50.5800 -33.6891 -0.1160
50.6000 -33.7024 -0.1164
50.6200 -33.7158 -0.1138
50.6400 -33.7292 -0.1156
50.6600 -33.7425 -0.1147
50.6800 -33.7558 -0.1138
50.7000 -33.7691 -0.1138
50.7200 -33.7825 -0.1139
50.7400 -33.7958 -0.1105
50.7600 -33.8090 -0.1113
50.7800 -33.8224 -0.1118
50.8000 -33.8357 -0.1114
50.8200 -33.8491 -0.1102
50.8400 -33.8624 -0.1112
50.8600 -33.8757 -0.1075
50.8800 -33.8891 -0.1090
50.9000 -33.9025 -0.1089
50.9200 -33.9158 -0.1055
50.9400 -33.9291 -0.1055
50.9600 -33.9425 -0.1058
50.9800 -33.9558 -0.1040
51.0000 -33.9692 -0.1050
51.0200 -33.9825 -0.1052
51.0400 -33.9957 -0.1026
51.0600 -34.0090 -0.1031
51.0800 -34.0224 -0.1048
51.1000 -34.0357 -0.1011
51.1200 -34.0490 -0.1015
51.1400 -34.0623 -0.1031
51.1600 -34.0757 -0.1013
51.1800 -34.0891 -0.1020
51.2000 -34.1024 -0.1027
51.2200 -34.1158 -0.1006
51.2400 -34.1291 -0.1005
51.2600 -34.1425 -0.1001
51.2800 -34.1559 -0.0989
51.3000 -34.1692 -0.1010
51.3200 -34.1825 -0.1019
51.3400 -34.1958 -0.0964
51.3600 -34.2092 -0.0958
51.3800 -34.2225 -0.0955
51.4000 -34.2358 -0.0943
51.4200 -34.2491 -0.0960
51.4400 -34.2625 -0.0953
51.4600 -34.2758 -0.0933
51.4800 -34.2891 -0.0937
51.5000 -34.3024 -0.0936
51.5200 -34.3157 -0.0917
51.5400 -34.3291 -0.0921
51.5600 -34.3424 -0.0912
51.5800 -34.3558 -0.0931
51.6000 -34.3691 -0.0892
51.6200 -34.3825 -0.0924
51.6400 -34.3958 -0.0898
51.6600 -34.4091 -0.0905
51.6800 -34.4225 -0.0881
51.7000 -34.4358 -0.0881
51.7200 -34.4491 -0.0868
51.7400 -34.4624 -0.0907
51.7600 -34.4757 -0.0871
51.7800 -34.4891 -0.0878
51.8000 -34.5024 -0.0865
51.8200 -34.5158 -0.0850
51.8400 -34.5290 -0.0862
51.8600 -34.5423 -0.0883
51.8800 -34.5556 -0.0866
51.9000 -34.5690 -0.0863
51.9200 -34.5824 -0.0864
51.9400 -34.5957 -0.0856
51.9600 -34.6091 -0.0855
51.9800 -34.6225 -0.0860
52.0000 -34.6358 -0.0835
52.0200 -34.6491 -0.0840
52.0400 -34.6624 -0.0859
52.0600 -34.6758 -0.0847
52.0800 -34.6891 -0.0827
52.1000 -34.7024 -0.0847
52.1200 -34.7157 -0.0849
52.1400 -34.7291 -0.0826
52.1600 -34.7424 -0.0857
52.1800 -34.7558 -0.0824
52.2000 -34.7690 -0.0842
52.2200 -34.7824 -0.0827
52.2400 -34.7957 -0.0789
52.2600 -34.8091 -0.0795
52.2800 -34.8224 -0.0823
52.3000 -34.8358 -0.0785
52.3200 -34.8491 -0.0798
52.3400 -34.8625 -0.0794
52.3600 -34.8758 -0.0787
52.3800 -34.8892 -0.0765
52.4000 -34.9025 -0.0784
52.4200 -34.9158 -0.0764
52.4400 -34.9292 -0.0764
52.4600 -34.9425 -0.0771
52.4800 -34.9558 -0.0730
52.5000 -34.9691 -0.0734
52.5200 -34.9824 -0.0749
52.5400 -34.9958 -0.0730
52.5600 -35.0090 -0.0717
52.5800 -35.0223 -0.0730
52.6000 -35.0357 -0.0715
52.6200 -35.0491 -0.0699
52.6400 -35.0624 -0.0708
52.6600 -35.0757 -0.0700
52.6800 -35.0891 -0.0678
52.7000 -35.1025 -0.0694
52.7200 -35.1159 -0.0677
52.7400 -35.1292 -0.0657
52.7600 -35.1425 -0.0681
52.7800 -35.1558 -0.0642
52.8000 -35.1692 -0.0642
52.8200 -35.1825 -0.0657
52.8400 -35.1958 -0.0638
52.8600 -35.2091 -0.0630
52.8800 -35.2224 -0.0618
52.9000 -35.2358 -0.0602
52.9200 -35.2490 -0.0602
52.9400 -35.2623 -0.0613
52.9600 -35.2757 -0.0615
52.9800 -35.2890 -0.0599
53.0000 -35.3024 -0.0599
53.0200 -35.3157 -0.0567
53.0400 -35.3291 -0.0565
53.0600 -35.3425 -0.0581
53.0800 -35.3559 -0.0556
53.1000 -35.3692 -0.0538
53.1200 -35.3825 -0.0559
53.1400 -35.3958 -0.0555
53.1600 -35.4091 -0.0554
53.1800 -35.4225 -0.0543
53.2000 -35.4358 -0.0551
53.2200 -35.4491 -0.0505
53.2400 -35.4624 -0.0559
53.2600 -35.4757 -0.0519
53.2800 -35.4890 -0.0522
53.3000 -35.5024 -0.0528
53.3200 -35.5157 -0.0518
53.3400 -35.5291 -0.0492
53.3600 -35.5425 -0.0510
53.3800 -35.5558 -0.0505
53.4000 -35.5691 -0.0492
53.4200 -35.5825 -0.0499
53.4400 -35.5958 -0.0488
53.4600 -35.6091 -0.0470
53.4800 -35.6224 -0.0491
53.5000 -35.6357 -0.0468
53.5200 -35.6491 -0.0460
53.5400 -35.6624 -0.0456
53.5600 -35.6758 -0.0460
53.5800 -35.6891 -0.0437
53.6000 -35.7025 -0.0461
53.6200 -35.7158 -0.0427
53.6400 -35.7291 -0.0416
53.6600 -35.7424 -0.0458
53.6800 -35.7557 -0.0439
53.7000 -35.7691 -0.0408
53.7200 -35.7824 -0.0428
53.7400 -35.7957 -0.0426
53.7600 -35.8091 -0.0397
53.7800 -35.8225 -0.0410
53.8000 -35.8358 -0.0386
53.8200 -35.8492 -0.0394
53.8400 -35.8624 -0.0393
53.8600 -35.8758 -0.0381
53.8800 -35.8892 -0.0333
53.9000 -35.9025 -0.0380
53.9200 -35.9158 -0.0361
53.9400 -35.9291 -0.0353
53.9600 -35.9425 -0.0377
53.9800 -35.9558 -0.0380
54.0000 -35.9691 -0.0355
54.0200 -35.9824 -0.0353
54.0400 -35.9957 -0.0328
54.0600 -36.0091 -0.0320
54.0800 -36.0224 -0.0343
54.1000 -36.0357 -0.0342
54.1200 -36.0491 -0.0324
54.1400 -36.0624 -0.0357
54.1600 -36.0758 -0.0311
54.1800 -36.0891 -0.0304
54.2000 -36.1024 -0.0318
54.2200 -36.1158 -0.0310
54.2400 -36.1292 -0.0270
54.2600 -36.1425 -0.0297
54.2800 -36.1558 -0.0282
54.3000 -36.1691 -0.0277
54.3200 -36.1824 -0.0285
54.3400 -36.1958 -0.0272
54.3600 -36.2091 -0.0255
54.3800 -36.2224 -0.0299
54.4000 -36.2357 -0.0280
54.4200 -36.2491 -0.0275
54.4400 -36.2624 -0.0275
54.4600 -36.2757 -0.0273
54.4800 -36.2891 -0.0270
54.5000 -36.3024 -0.0270
54.5200 -36.3158 -0.0268
54.5400 -36.3291 -0.0235
54.5600 -36.3424 -0.0260
54.5800 -36.3558 -0.0242
54.6000 -36.3691 -0.0233
54.6200 -36.3825 -0.0232
54.6400 -36.3958 -0.0241
54.6600 -36.4091 -0.0205
54.6800 -36.4224 -0.0215
54.7000 -36.4358 -0.0184
54.7200 -36.4491 -0.0178
54.7400 -36.4624 -0.0178
54.7600 -36.4757 -0.0159
54.7800 -36.4891 -0.0153
54.8000 -36.5024 -0.0192
54.8200 -36.5158 -0.0156
54.8400 -36.5291 -0.0148
54.8600 -36.5424 -0.0139
54.8800 -36.5558 -0.0123
54.9000 -36.5692 -0.0102
54.9200 -36.5825 -0.0125
54.9400 -36.5958 -0.0114
54.9600 -36.6091 -0.0086
54.9800 -36.6224 -0.0102
55.0000 -36.6358 -0.0087
55.0200 -36.6491 -0.0075
55.0400 -36.6624 -0.0080
55.0600 -36.6758 -0.0081
55.0800 -36.6891 -0.0054
55.1000 -36.7024 -0.0061
55.1200 -36.7157 -0.0067
55.1400 -36.7291 -0.0048
55.1600 -36.7425 -0.0040
55.1800 -36.7558 -0.0044
55.2000 -36.7691 -0.0026
55.2200 -36.7824 -0.0030
55.2400 -36.7958 -0.0023
55.2600 -36.8091 -0.0018
55.2800 -36.8224 -0.0020
55.3000 -36.8357 -0.0003
55.3200 -36.8491 0.0024
55.3400 -36.8625 0.0015
55.3600 -36.8758 0.0013
55.3800 -36.8891 0.0039
55.4000 -36.9024 0.0027
55.4200 -36.9158 0.0037
55.4400 -36.9291 0.0034
55.4600 -36.9424 0.0051
55.4800 -36.9557 0.0052
55.5000 -36.9691 0.0059
55.5200 -36.9825 0.0076
55.5400 -36.9958 0.0083
55.5600 -37.0091 0.0085
55.5800 -37.0224 0.0088
55.6000 -37.0358 0.0073
55.6200 -37.0491 0.0088
55.6400 -37.0624 0.0065
55.6600 -37.0757 0.0079
55.6800 -37.0891 0.0109
55.7000 -37.1025 0.0104
55.7200 -37.1158 0.0099
55.7400 -37.1292 0.0140
55.7600 -37.1425 0.0087
55.7800 -37.1558 0.0117
55.8000 -37.1691 0.0116
55.8200 -37.1824 0.0116
55.8400 -37.1957 0.0106
55.8600 -37.2090 0.0151
55.8800 -37.2224 0.0130
55.9000 -37.2357 0.0131
55.9200 -37.2490 0.0152
55.9400 -37.2624 0.0142
55.9600 -37.2758 0.0134
55.9800 -37.2891 0.0158
56.0000 -37.3024 0.0165
56.0200 -37.3158 0.0156
56.0400 -37.3292 0.0195
56.0600 -37.3425 0.0177
56.0800 -37.3558 0.0180
56.1000 -37.3691 0.0195
56.1200 -37.3824 0.0200
56.1400 -37.3958 0.0181
56.1600 -37.4091 0.0227
56.1800 -37.4224 0.0226
56.2000 -37.4357 0.0219
56.2200 -37.4491 0.0223
56.2400 -37.4624 0.0222
56.2600 -37.4758 0.0235
56.2800 -37.4891 0.0264
56.3000 -37.5024 0.0244
56.3200 -37.5158 0.0240
56.3400 -37.5292 0.0262
56.3600 -37.5425 0.0268
56.3800 -37.5558 0.0238
56.4000 -37.5691 0.0293
56.4200 -37.5825 0.0286
56.4400 -37.5958 0.0310
56.4600 -37.6091 0.0335
56.4800 -37.6224 0.0321
56.5000 -37.6358 0.0295
56.5200 -37.6491 0.0347
56.5400 -37.6624 0.0292
56.5600 -37.6757 0.0309
56.5800 -37.6890 0.0326
56.6000 -37.7024 0.0352
56.6200 -37.7158 0.0331
56.6400 -37.7291 0.0342
56.6600 -37.7424 0.0344
56.6800 -37.7558 0.0347
56.7000 -37.7692 0.0375
56.7200 -37.7825 0.0372
56.7400 -37.7958 0.0347
56.7600 -37.8091 0.0393
56.7800 -37.8225 0.0370
56.8000 -37.8358 0.0363
56.8200 -37.8491 0.0385
56.8400 -37.8624 0.0380
56.8600 -37.8758 0.0391
56.8800 -37.8891 0.0421
56.9000 -37.9024 0.0413
56.9200 -37.9157 0.0414
56.9400 -37.9290 0.0437
56.9600 -37.9424 0.0434
56.9800 -37.9558 0.0437
57.0000 -37.9691 0.0452
57.0200 -37.9824 0.0448
57.0400 -37.9958 0.0460
57.0600 -38.0092 0.0482
57.0800 -38.0225 0.0462
57.1000 -38.0358 0.0481
57.1200 -38.0491 0.0495
57.1400 -38.0625 0.0487
57.1600 -38.0758 0.0479
57.1800 -38.0891 0.0503
57.2000 -38.1024 0.0509
57.2200 -38.1158 0.0502
57.2400 -38.1291 0.0538
57.2600 -38.1424 0.0532
57.2800 -38.1557 0.0544
57.3000 -38.1691 0.0578
57.3200 -38.1824 0.0558
57.3400 -38.1958 0.0537
57.3600 -38.2091 0.0556
57.3800 -38.2224 0.0564
57.4000 -38.2358 0.0560
57.4200 -38.2491 0.0573
57.4400 -38.2625 0.0567
57.4600 -38.2758 0.0573
57.4800 -38.2891 0.0595
57.5000 -38.3025 0.0589
57.5200 -38.3158 0.0579
57.5400 -38.3291 0.0602
57.5600 -38.3425 0.0618
57.5800 -38.3558 0.0599
57.6000 -38.3691 0.0632
57.6200 -38.3824 0.0611
57.6400 -38.3957 0.0626
57.6600 -38.4090 0.0636
57.6800 -38.4224 0.0641
57.7000 -38.4358 0.0629
57.7200 -38.4491 0.0644
57.7400 -38.4624 0.0654
57.7600 -38.4758 0.0655
57.7800 -38.4892 0.0683
57.8000 -38.5025 0.0682
57.8200 -38.5158 0.0689
57.8400 -38.5291 0.0700
57.8600 -38.5425 0.0705
57.8800 -38.5558 0.0685
57.9000 -38.5692 0.0727
57.9200 -38.5825 0.0710
57.9400 -38.5958 0.0734
57.9600 -38.6091 0.0732
57.9800 -38.6224 0.0757
58.0000 -38.6357 0.0726
58.0200 -38.6490 0.0769
58.0400 -38.6624 0.0768
58.0600 -38.6757 0.0777
58.0800 -38.6891 0.0772
58.1000 -38.7024 0.0784
58.1200 -38.7158 0.0762
58.1400 -38.7292 0.0811
58.1600 -38.7425 0.0789
58.1800 -38.7558 0.0783
58.2000 -38.7691 0.0806
58.2200 -38.7825 0.0811
58.2400 -38.7958 0.0805
58.2600 -38.8091 0.0833
58.2800 -38.8224 0.0816
58.3000 -38.8357 0.0819
58.3200 -38.8490 0.0851
58.3400 -38.8623 0.0854
58.3600 -38.8757 0.0822
58.3800 -38.8890 0.0828
58.4000 -38.9024 0.0843
58.4200 -38.9158 0.0842
58.4400 -38.9291 0.0843
58.4600 -38.9424 0.0849
58.4800 -38.9558 0.0846
58.5000 -38.9692 0.0876
58.5200 -38.9825 0.0890
58.5400 -38.9958 0.0897
58.5600 -39.0091 0.0896
58.5800 -39.0225 0.0889
58.6000 -39.0358 0.0892
58.6200 -39.0491 0.0913
58.6400 -39.0624 0.0943
58.6600 -39.0758 0.0923
58.6800 -39.0891 0.0962
58.7000 -39.1024 0.0929
58.7200 -39.1157 0.0956
58.7400 -39.1290 0.0966
58.7600 -39.1424 0.0985
58.7800 -39.1558 0.0972
58.8000 -39.1691 0.1000
58.8200 -39.1824 0.0997
58.8400 -39.1958 0.0986
58.8600 -39.2091 0.0997
58.8800 -39.2225 0.1024
58.9000 -39.2358 0.1008
58.9200 -39.2491 0.1045
58.9400 -39.2624 0.1048
58.9600 -39.2758 0.1047
58.9800 -39.2891 0.1050
59.0000 -39.3024 0.1061
59.0200 -39.3158 0.1062
59.0400 -39.3291 0.1068
59.0600 -39.3424 0.1084
59.0800 -39.3557 0.1072
59.1000 -39.3690 0.1094
59.1200 -39.3824 0.1093
59.1400 -39.3958 0.1093
59.1600 -39.4091 0.1105
59.1800 -39.4224 0.1113
59.2000 -39.4358 0.1101
59.2200 -39.4492 0.1124
59.2400 -39.4625 0.1122
59.2600 -39.4758 0.1123
59.2800 -39.4891 0.1143
59.3000 -39.5024 0.1154
59.3200 -39.5158 0.1158
59.3400 -39.5291 0.1165
59.3600 -39.5424 0.1165
59.3800 -39.5558 0.1137
59.4000 -39.5691 0.1166
59.4200 -39.5824 0.1186
59.4400 -39.5957 0.1181
59.4600 -39.6090 0.1195
59.4800 -39.6224 0.1215
59.5000 -39.6358 0.1189
59.5200 -39.6491 0.1201
59.5400 -39.6624 0.1200
59.5600 -39.6758 0.1199
59.5800 -39.6891 0.1223
59.6000 -39.7025 0.1241
59.6200 -39.7158 0.1215
59.6400 -39.7291 0.1238
59.6600 -39.7425 0.1235
59.6800 -39.7558 0.1255
59.7000 -39.7691 0.1257
59.7200 -39.7825 0.1273
59.7400 -39.7958 0.1259
59.7600 -39.8091 0.1290
59.7800 -39.8224 0.1289
59.8000 -39.8357 0.1305
59.8200 -39.8490 0.1297
59.8400 -39.8624 0.1294
59.8600 -39.8758 0.1293
59.8800 -39.8891 0.1287
59.9000 -39.9024 0.1300
59.9200 -39.9158 0.1295
59.9400 -39.9292 0.1307
59.9600 -39.9425 0.1327
59.9800 -39.9558 0.1312
60.0000 -39.9691 0.1341
60.0200 -39.9825 0.1347
60.0400 -39.9958 0.1359
60.0470 -40.0004 0.1391
