Raw Data
Time Displacement Force
(s) (mm) (N)
0.0000 0.0000 0.4402
0.0200 -0.0001 0.4341
0.0400 -0.0019 0.4141
0.0600 -0.0092 0.3823
0.0800 -0.0209 0.3399
0.1000 -0.0334 0.2810
0.1200 -0.0461 0.2184
0.1400 -0.0594 0.1433
0.1600 -0.0734 0.0674
0.1800 -0.0876 0.0172
0.2000 -0.1015 0.0279
0.2200 -0.1151 0.0014
0.2400 -0.1285 -0.0493
0.2600 -0.1418 -0.1099
0.2800 -0.1552 -0.1680
0.3000 -0.1686 -0.2181
0.3200 -0.1819 -0.2716
0.3400 -0.1953 -0.3116
0.3600 -0.2086 -0.3582
0.3800 -0.2220 -0.4061
0.4000 -0.2353 -0.4536
0.4200 -0.2486 -0.4928
0.4400 -0.2619 -0.5332
0.4600 -0.2752 -0.5527
0.4800 -0.2885 -0.5605
0.5000 -0.3018 -0.5608
0.5200 -0.3151 -0.5579
0.5400 -0.3285 -0.5550
0.5600 -0.3419 -0.5552
0.5800 -0.3552 -0.5534
0.6000 -0.3686 -0.5526
0.6200 -0.3820 -0.5525
0.6400 -0.3953 -0.5520
0.6600 -0.4087 -0.5499
0.6800 -0.4219 -0.5527
0.7000 -0.4352 -0.5489
0.7200 -0.4486 -0.5478
0.7400 -0.4620 -0.5468
0.7600 -0.4753 -0.5471
0.7800 -0.4886 -0.5427
0.8000 -0.5019 -0.5467
0.8200 -0.5153 -0.5444
0.8400 -0.5286 -0.5419
0.8600 -0.5419 -0.5440
0.8800 -0.5552 -0.5414
0.9000 -0.5685 -0.5395
0.9200 -0.5819 -0.5427
0.9400 -0.5952 -0.5393
0.9600 -0.6085 -0.5379
0.9800 -0.6218 -0.5412
1.0000 -0.6352 -0.5365
1.0200 -0.6485 -0.5363
1.0400 -0.6618 -0.5347
1.0600 -0.6752 -0.5347
1.0800 -0.6886 -0.5309
1.1000 -0.7019 -0.5331
1.1200 -0.7152 -0.5310
1.1400 -0.7285 -0.5310
1.1600 -0.7419 -0.5313
1.1800 -0.7552 -0.5284
1.2000 -0.7686 -0.5273
1.2200 -0.7818 -0.5283
1.2400 -0.7952 -0.5274
1.2600 -0.8085 -0.5276
1.2800 -0.8219 -0.5287
1.3000 -0.8352 -0.5284
1.3200 -0.8485 -0.5232
1.3400 -0.8619 -0.5240
1.3600 -0.8753 -0.5224
1.3800 -0.8886 -0.5211
1.4000 -0.9019 -0.5227
1.4200 -0.9152 -0.5208
1.4400 -0.9286 -0.5203
1.4600 -0.9419 -0.5210
1.4800 -0.9552 -0.5186
1.5000 -0.9686 -0.5177
1.5200 -0.9819 -0.5170
1.5400 -0.9952 -0.5150
1.5600 -1.0085 -0.5121
1.5800 -1.0218 -0.5132
1.6000 -1.0351 -0.5132
1.6200 -1.0485 -0.5112
1.6400 -1.0619 -0.5105
1.6600 -1.0752 -0.5095
1.6800 -1.0886 -0.5090
1.7000 -1.1019 -0.5098
1.7200 -1.1153 -0.5084
1.7400 -1.1286 -0.5067
1.7600 -1.1419 -0.5073
1.7800 -1.1553 -0.5056
1.8000 -1.1686 -0.5039
1.8200 -1.1820 -0.5035
1.8400 -1.1953 -0.5019
1.8600 -1.2086 -0.4998
1.8800 -1.2219 -0.5000
1.9000 -1.2352 -0.4997
1.9200 -1.2485 -0.4982
1.9400 -1.2618 -0.5012
1.9600 -1.2751 -0.4990
1.9800 -1.2885 -0.4976
2.0000 -1.3019 -0.4963
2.0200 -1.3152 -0.4986
2.0400 -1.3285 -0.4941
2.0600 -1.3419 -0.4956
2.0800 -1.3553 -0.4950
2.1000 -1.3687 -0.4948
2.1200 -1.3820 -0.4938
2.1400 -1.3953 -0.4947
2.1600 -1.4086 -0.4891
2.1800 -1.4220 -0.4923
2.2000 -1.4353 -0.4917
2.2200 -1.4486 -0.4902
2.2400 -1.4619 -0.4913
2.2600 -1.4752 -0.4892
2.2800 -1.4885 -0.4854
2.3000 -1.5018 -0.4873
2.3200 -1.5151 -0.4858
2.3400 -1.5285 -0.4827
2.3600 -1.5419 -0.4831
2.3800 -1.5552 -0.4825
2.4000 -1.5685 -0.4801
2.4200 -1.5819 -0.4818
2.4400 -1.5953 -0.4813
2.4600 -1.6086 -0.4761
2.4800 -1.6219 -0.4789
2.5000 -1.6352 -0.4786
2.5200 -1.6485 -0.4774
2.5400 -1.6619 -0.4772
2.5600 -1.6752 -0.4756
2.5800 -1.6885 -0.4723
2.6000 -1.7019 -0.4733
2.6200 -1.7152 -0.4720
2.6400 -1.7286 -0.4708
2.6600 -1.7419 -0.4706
2.6800 -1.7552 -0.4736
2.7000 -1.7686 -0.4686
2.7200 -1.7819 -0.4725
2.7400 -1.7953 -0.4701
2.7600 -1.8086 -0.4705
2.7800 -1.8219 -0.4685
2.8000 -1.8353 -0.4699
2.8200 -1.8486 -0.4644
2.8400 -1.8619 -0.4686
2.8600 -1.8752 -0.4649
2.8800 -1.8885 -0.4639
2.9000 -1.9019 -0.4633
2.9200 -1.9152 -0.4643
2.9400 -1.9286 -0.4619
2.9600 -1.9419 -0.4640
2.9800 -1.9553 -0.4625
3.0000 -1.9686 -0.4588
3.0200 -1.9819 -0.4594
3.0400 -1.9952 -0.4611
3.0600 -2.0086 -0.4583
3.0800 -2.0219 -0.4596
3.1000 -2.0352 -0.4603
3.1200 -2.0485 -0.4577
3.1400 -2.0619 -0.4590
3.1600 -2.0753 -0.4565
3.1800 -2.0886 -0.4539
3.2000 -2.1020 -0.4532
3.2200 -2.1153 -0.4530
3.2400 -2.1286 -0.4504
3.2600 -2.1420 -0.4548
3.2800 -2.1553 -0.4526
3.3000 -2.1686 -0.4492
3.3200 -2.1819 -0.4492
3.3400 -2.1952 -0.4497
3.3600 -2.2086 -0.4458
3.3800 -2.2219 -0.4478
3.4000 -2.2352 -0.4470
3.4200 -2.2485 -0.4467
3.4400 -2.2619 -0.4454
3.4600 -2.2752 -0.4453
3.4800 -2.2885 -0.4432
3.5000 -2.3019 -0.4444
3.5200 -2.3152 -0.4429
3.5400 -2.3286 -0.4407
3.5600 -2.3419 -0.4415
3.5800 -2.3552 -0.4415
3.6000 -2.3686 -0.4388
3.6200 -2.3819 -0.4402
3.6400 -2.3953 -0.4387
3.6600 -2.4086 -0.4373
3.6800 -2.4219 -0.4368
3.7000 -2.4352 -0.4370
3.7200 -2.4486 -0.4337
3.7400 -2.4619 -0.4346
3.7600 -2.4752 -0.4363
3.7800 -2.4885 -0.4338
3.8000 -2.5019 -0.4348
3.8200 -2.5152 -0.4328
3.8400 -2.5285 -0.4300
3.8600 -2.5419 -0.4292
3.8800 -2.5552 -0.4322
3.9000 -2.5686 -0.4279
3.9200 -2.5819 -0.4298
3.9400 -2.5952 -0.4286
3.9600 -2.6086 -0.4284
3.9800 -2.6219 -0.4290
4.0000 -2.6353 -0.4298
4.0200 -2.6486 -0.4258
4.0400 -2.6619 -0.4258
4.0600 -2.6752 -0.4248
4.0800 -2.6886 -0.4220
4.1000 -2.7019 -0.4222
4.1200 -2.7152 -0.4224
4.1400 -2.7285 -0.4210
4.1600 -2.7419 -0.4198
4.1800 -2.7552 -0.4208
4.2000 -2.7686 -0.4186
4.2200 -2.7819 -0.4181
4.2400 -2.7953 -0.4167
4.2600 -2.8086 -0.4169
4.2800 -2.8220 -0.4161
4.3000 -2.8353 -0.4190
4.3200 -2.8486 -0.4160
4.3400 -2.8619 -0.4184
4.3600 -2.8752 -0.4149
4.3800 -2.8886 -0.4155
4.4000 -2.9019 -0.4134
4.4200 -2.9152 -0.4162
4.4400 -2.9286 -0.4116
4.4600 -2.9419 -0.4132
4.4800 -2.9552 -0.4114
4.5000 -2.9685 -0.4120
4.5200 -2.9819 -0.4113
4.5400 -2.9953 -0.4122
4.5600 -3.0086 -0.4081
4.5800 -3.0219 -0.4089
4.6000 -3.0353 -0.4110
4.6200 -3.0486 -0.4082
4.6400 -3.0620 -0.4081
4.6600 -3.0752 -0.4083
4.6800 -3.0886 -0.4059
4.7000 -3.1019 -0.4058
4.7200 -3.1153 -0.4058
4.7400 -3.1286 -0.4034
4.7600 -3.1419 -0.4033
4.7800 -3.1552 -0.4044
4.8000 -3.1686 -0.4020
4.8200 -3.1819 -0.4010
4.8400 -3.1952 -0.4016
4.8600 -3.2085 -0.4001
4.8800 -3.2219 -0.4006
4.9000 -3.2352 -0.4003
4.9200 -3.2485 -0.3992
4.9400 -3.2618 -0.3982
4.9600 -3.2752 -0.3970
4.9800 -3.2886 -0.3958
5.0000 -3.3019 -0.3975
5.0200 -3.3152 -0.3984
5.0400 -3.3286 -0.3961
5.0600 -3.3419 -0.3966
5.0800 -3.3553 -0.3961
5.1000 -3.3686 -0.3918
5.1200 -3.3819 -0.3929
5.1400 -3.3953 -0.3947
5.1600 -3.4086 -0.3920
5.1800 -3.4219 -0.3912
5.2000 -3.4352 -0.3942
5.2200 -3.4485 -0.3914
5.2400 -3.4618 -0.3923
5.2600 -3.4751 -0.3887
5.2800 -3.4885 -0.3886
5.3000 -3.5018 -0.3878
5.3200 -3.5152 -0.3891
5.3400 -3.5286 -0.3875
5.3600 -3.5419 -0.3872
5.3800 -3.5552 -0.3865
5.4000 -3.5686 -0.3843
5.4200 -3.5820 -0.3835
5.4400 -3.5953 -0.3833
5.4600 -3.6086 -0.3837
5.4800 -3.6219 -0.3816
5.5000 -3.6352 -0.3845
5.5200 -3.6486 -0.3793
5.5400 -3.6619 -0.3813
5.5600 -3.6752 -0.3820
5.5800 -3.6885 -0.3823
5.6000 -3.7019 -0.3789
5.6200 -3.7152 -0.3799
5.6400 -3.7286 -0.3766
5.6600 -3.7419 -0.3777
5.6800 -3.7553 -0.3775
5.7000 -3.7686 -0.3771
5.7200 -3.7820 -0.3760
5.7400 -3.7953 -0.3782
5.7600 -3.8086 -0.3769
5.7800 -3.8219 -0.3775
5.8000 -3.8353 -0.3771
5.8200 -3.8486 -0.3755
5.8400 -3.8619 -0.3741
5.8600 -3.8752 -0.3741
5.8800 -3.8886 -0.3721
5.9000 -3.9019 -0.3717
5.9200 -3.9152 -0.3724
5.9400 -3.9285 -0.3692
5.9600 -3.9418 -0.3700
5.9800 -3.9552 -0.3684
6.0000 -3.9685 -0.3696
6.0200 -3.9819 -0.3667
6.0400 -3.9952 -0.3682
6.0600 -4.0086 -0.3672
6.0800 -4.0220 -0.3670
6.1000 -4.0353 -0.3664
6.1200 -4.0486 -0.3650
6.1400 -4.0619 -0.3638
6.1600 -4.0753 -0.3647
6.1800 -4.0886 -0.3639
6.2000 -4.1019 -0.3628
6.2200 -4.1152 -0.3630
6.2400 -4.1286 -0.3590
6.2600 -4.1419 -0.3596
6.2800 -4.1552 -0.3601
6.3000 -4.1685 -0.3606
6.3200 -4.1818 -0.3611
6.3400 -4.1952 -0.3606
6.3600 -4.2085 -0.3585
6.3800 -4.2218 -0.3589
6.4000 -4.2352 -0.3588
6.4200 -4.2486 -0.3576
6.4400 -4.2620 -0.3550
6.4600 -4.2753 -0.3565
6.4800 -4.2886 -0.3558
6.5000 -4.3020 -0.3550
6.5200 -4.3153 -0.3546
6.5400 -4.3286 -0.3543
6.5600 -4.3419 -0.3531
6.5800 -4.3552 -0.3546
6.6000 -4.3686 -0.3523
6.6200 -4.3819 -0.3522
6.6400 -4.3952 -0.3507
6.6600 -4.4085 -0.3511
6.6800 -4.4219 -0.3493
6.7000 -4.4352 -0.3511
6.7200 -4.4485 -0.3501
6.7400 -4.4618 -0.3509
6.7600 -4.4752 -0.3477
6.7800 -4.4886 -0.3471
6.8000 -4.5019 -0.3471
6.8200 -4.5152 -0.3484
6.8400 -4.5286 -0.3466
6.8600 -4.5419 -0.3463
6.8800 -4.5553 -0.3465
6.9000 -4.5686 -0.3439
6.9200 -4.5819 -0.3437
6.9400 -4.5953 -0.3442
6.9600 -4.6086 -0.3439
6.9800 -4.6219 -0.3415
7.0000 -4.6352 -0.3430
7.0200 -4.6485 -0.3437
7.0400 -4.6619 -0.3442
7.0600 -4.6752 -0.3439
7.0800 -4.6885 -0.3435
7.1000 -4.7018 -0.3412
7.1200 -4.7152 -0.3419
7.1400 -4.7286 -0.3399
7.1600 -4.7420 -0.3406
7.1800 -4.7553 -0.3411
7.2000 -4.7686 -0.3423
7.2200 -4.7819 -0.3365
7.2400 -4.7953 -0.3384
7.2600 -4.8086 -0.3340
7.2800 -4.8219 -0.3352
7.3000 -4.8352 -0.3361
7.3200 -4.8485 -0.3374
7.3400 -4.8619 -0.3341
7.3600 -4.8751 -0.3359
7.3800 -4.8885 -0.3328
7.4000 -4.9018 -0.3311
7.4200 -4.9152 -0.3295
7.4400 -4.9285 -0.3326
7.4600 -4.9418 -0.3304
7.4800 -4.9552 -0.3305
7.5000 -4.9686 -0.3302
7.5200 -4.9820 -0.3262
7.5400 -4.9953 -0.3306
7.5600 -5.0086 -0.3276
7.5800 -5.0219 -0.3267
7.6000 -5.0353 -0.3252
7.6200 -5.0486 -0.3236
7.6400 -5.0619 -0.3237
7.6600 -5.0752 -0.3266
7.6800 -5.0885 -0.3235
7.7000 -5.1018 -0.3222
7.7200 -5.1151 -0.3219
7.7400 -5.1285 -0.3211
7.7600 -5.1418 -0.3205
7.7800 -5.1552 -0.3196
7.8000 -5.1686 -0.3192
7.8200 -5.1819 -0.3200
7.8400 -5.1952 -0.3197
7.8600 -5.2086 -0.3195
7.8800 -5.2220 -0.3179
7.9000 -5.2353 -0.3177
7.9200 -5.2486 -0.3173
7.9400 -5.2619 -0.3151
7.9600 -5.2753 -0.3141
7.9800 -5.2886 -0.3152
8.0000 -5.3019 -0.3146
8.0200 -5.3152 -0.3140
8.0400 -5.3286 -0.3133
8.0600 -5.3419 -0.3128
8.0800 -5.3552 -0.3160
8.1000 -5.3685 -0.3140
8.1200 -5.3819 -0.3135
8.1400 -5.3952 -0.3115
8.1600 -5.4086 -0.3109
8.1800 -5.4219 -0.3101
8.2000 -5.4352 -0.3114
8.2200 -5.4486 -0.3113
8.2400 -5.4619 -0.3111
8.2600 -5.4752 -0.3105
8.2800 -5.4886 -0.3100
8.3000 -5.5019 -0.3086
8.3200 -5.5153 -0.3089
8.3400 -5.5286 -0.3074
8.3600 -5.5419 -0.3073
8.3800 -5.5552 -0.3070
8.4000 -5.5686 -0.3071
8.4200 -5.5819 -0.3051
8.4400 -5.5952 -0.3050
8.4600 -5.6085 -0.3049
8.4800 -5.6218 -0.3043
8.5000 -5.6352 -0.3037
8.5200 -5.6486 -0.3042
8.5400 -5.6619 -0.3033
8.5600 -5.6752 -0.3028
8.5800 -5.6886 -0.3028
8.6000 -5.7019 -0.3012
8.6200 -5.7153 -0.3029
8.6400 -5.7286 -0.3004
8.6600 -5.7419 -0.2990
8.6800 -5.7552 -0.2977
8.7000 -5.7686 -0.2976
8.7200 -5.7819 -0.2986
8.7400 -5.7952 -0.2985
8.7600 -5.8085 -0.2958
8.7800 -5.8219 -0.2974
8.8000 -5.8352 -0.2953
8.8200 -5.8485 -0.2989
8.8400 -5.8618 -0.2950
8.8600 -5.8752 -0.2955
8.8800 -5.8886 -0.2929
8.9000 -5.9019 -0.2945
8.9200 -5.9152 -0.2921
8.9400 -5.9286 -0.2927
8.9600 -5.9420 -0.2886
8.9800 -5.9553 -0.2896
9.0000 -5.9686 -0.2906
9.0200 -5.9819 -0.2892
9.0400 -5.9953 -0.2902
9.0600 -6.0086 -0.2904
9.0800 -6.0219 -0.2888
9.1000 -6.0352 -0.2882
9.1200 -6.0486 -0.2896
9.1400 -6.0619 -0.2854
9.1600 -6.0752 -0.2858
9.1800 -6.0885 -0.2850
9.2000 -6.1018 -0.2854
9.2200 -6.1152 -0.2847
9.2400 -6.1285 -0.2848
9.2600 -6.1419 -0.2846
9.2800 -6.1552 -0.2842
9.3000 -6.1686 -0.2825
9.3200 -6.1820 -0.2846
9.3400 -6.1953 -0.2817
9.3600 -6.2086 -0.2827
9.3800 -6.2219 -0.2808
9.4000 -6.2353 -0.2820
9.4200 -6.2486 -0.2811
9.4400 -6.2619 -0.2831
9.4600 -6.2752 -0.2789
9.4800 -6.2885 -0.2804
9.5000 -6.3018 -0.2788
9.5200 -6.3152 -0.2812
9.5400 -6.3285 -0.2799
9.5600 -6.3418 -0.2792
9.5800 -6.3552 -0.2765
9.6000 -6.3686 -0.2788
9.6200 -6.3819 -0.2771
9.6400 -6.3952 -0.2751
9.6600 -6.4086 -0.2752
9.6800 -6.4220 -0.2744
9.7000 -6.4353 -0.2748
9.7200 -6.4486 -0.2736
9.7400 -6.4619 -0.2735
9.7600 -6.4752 -0.2716
9.7800 -6.4886 -0.2740
9.8000 -6.5019 -0.2721
9.8200 -6.5152 -0.2724
9.8400 -6.5286 -0.2717
9.8600 -6.5419 -0.2710
9.8800 -6.5552 -0.2721
9.9000 -6.5685 -0.2703
9.9200 -6.5819 -0.2709
9.9400 -6.5952 -0.2692
9.9600 -6.6086 -0.2698
9.9800 -6.6219 -0.2673
10.0000 -6.6352 -0.2687
10.0200 -6.6486 -0.2666
10.0400 -6.6620 -0.2666
10.0600 -6.6753 -0.2650
10.0800 -6.6885 -0.2666
10.1000 -6.7018 -0.2674
10.1200 -6.7152 -0.2639
10.1400 -6.7286 -0.2647
10.1600 -6.7419 -0.2635
10.1800 -6.7552 -0.2627
10.2000 -6.7686 -0.2613
10.2200 -6.7819 -0.2625
10.2400 -6.7953 -0.2619
10.2600 -6.8085 -0.2600
10.2800 -6.8219 -0.2587
10.3000 -6.8352 -0.2597
10.3200 -6.8486 -0.2593
10.3400 -6.8619 -0.2609
10.3600 -6.8752 -0.2597
10.3800 -6.8886 -0.2566
10.4000 -6.9020 -0.2583
10.4200 -6.9153 -0.2554
10.4400 -6.9286 -0.2593
10.4600 -6.9419 -0.2563
10.4800 -6.9553 -0.2557
10.5000 -6.9686 -0.2538
10.5200 -6.9819 -0.2555
10.5400 -6.9952 -0.2530
10.5600 -7.0086 -0.2547
10.5800 -7.0219 -0.2535
10.6000 -7.0352 -0.2537
10.6200 -7.0485 -0.2523
10.6400 -7.0618 -0.2534
10.6600 -7.0752 -0.2500
10.6800 -7.0886 -0.2505
10.7000 -7.1019 -0.2505
10.7200 -7.1152 -0.2520
10.7400 -7.1285 -0.2513
10.7600 -7.1419 -0.2497
10.7800 -7.1553 -0.2480
10.8000 -7.1686 -0.2473
10.8200 -7.1819 -0.2490
10.8400 -7.1953 -0.2482
10.8600 -7.2086 -0.2479
10.8800 -7.2219 -0.2486
10.9000 -7.2352 -0.2489
10.9200 -7.2486 -0.2476
10.9400 -7.2619 -0.2490
10.9600 -7.2753 -0.2457
10.9800 -7.2885 -0.2472
11.0000 -7.3018 -0.2460
11.0200 -7.3152 -0.2439
11.0400 -7.3286 -0.2432
11.0600 -7.3419 -0.2446
11.0800 -7.3552 -0.2445
11.1000 -7.3685 -0.2452
11.1200 -7.3819 -0.2434
11.1400 -7.3953 -0.2429
11.1600 -7.4086 -0.2419
11.1800 -7.4219 -0.2439
11.2000 -7.4352 -0.2410
11.2200 -7.4486 -0.2443
11.2400 -7.4619 -0.2419
11.2600 -7.4752 -0.2431
11.2800 -7.4886 -0.2402
11.3000 -7.5019 -0.2404
11.3200 -7.5153 -0.2391
11.3400 -7.5285 -0.2397
11.3600 -7.5418 -0.2387
11.3800 -7.5552 -0.2384
11.4000 -7.5686 -0.2361
11.4200 -7.5819 -0.2378
11.4400 -7.5952 -0.2355
11.4600 -7.6086 -0.2352
11.4800 -7.6220 -0.2365
11.5000 -7.6353 -0.2326
11.5200 -7.6486 -0.2345
11.5400 -7.6619 -0.2324
11.5600 -7.6752 -0.2342
11.5800 -7.6886 -0.2307
11.6000 -7.7019 -0.2315
11.6200 -7.7152 -0.2291
11.6400 -7.7285 -0.2304
11.6600 -7.7419 -0.2283
11.6800 -7.7552 -0.2290
11.7000 -7.7685 -0.2273
11.7200 -7.7818 -0.2283
11.7400 -7.7952 -0.2255
11.7600 -7.8086 -0.2252
11.7800 -7.8219 -0.2261
11.8000 -7.8352 -0.2244
11.8200 -7.8486 -0.2254
11.8400 -7.8619 -0.2252
11.8600 -7.8753 -0.2237
11.8800 -7.8886 -0.2238
11.9000 -7.9019 -0.2241
11.9200 -7.9152 -0.2211
11.9400 -7.9286 -0.2215
11.9600 -7.9419 -0.2220
11.9800 -7.9552 -0.2205
12.0000 -7.9685 -0.2210
12.0200 -7.9819 -0.2221
12.0400 -7.9952 -0.2219
12.0600 -8.0085 -0.2197
12.0800 -8.0218 -0.2184
12.1000 -8.0352 -0.2176
12.1200 -8.0486 -0.2198
12.1400 -8.0619 -0.2198
12.1600 -8.0752 -0.2175
12.1800 -8.0885 -0.2180
12.2000 -8.1019 -0.2171
12.2200 -8.1153 -0.2157
12.2400 -8.1286 -0.2162
12.2600 -8.1419 -0.2183
12.2800 -8.1553 -0.2154
12.3000 -8.1686 -0.2144
12.3200 -8.1820 -0.2155
12.3400 -8.1953 -0.2154
12.3600 -8.2086 -0.2159
12.3800 -8.2220 -0.2159
12.4000 -8.2353 -0.2157
12.4200 -8.2486 -0.2144
12.4400 -8.2619 -0.2137
12.4600 -8.2752 -0.2141
12.4800 -8.2885 -0.2121
12.5000 -8.3018 -0.2126
12.5200 -8.3151 -0.2126
12.5400 -8.3285 -0.2100
12.5600 -8.3419 -0.2102
12.5800 -8.3553 -0.2071
12.6000 -8.3686 -0.2095
12.6200 -8.3819 -0.2084
12.6400 -8.3953 -0.2057
12.6600 -8.4087 -0.2052
12.6800 -8.4220 -0.2065
12.7000 -8.4353 -0.2058
12.7200 -8.4486 -0.2072
12.7400 -8.4619 -0.2067
12.7600 -8.4752 -0.2074
12.7800 -8.4885 -0.2057
12.8000 -8.5018 -0.2082
12.8200 -8.5151 -0.2028
12.8400 -8.5285 -0.2049
12.8600 -8.5419 -0.2026
12.8800 -8.5552 -0.2023
12.9000 -8.5685 -0.2029
12.9200 -8.5819 -0.2025
12.9400 -8.5953 -0.2009
12.9600 -8.6086 -0.2003
12.9800 -8.6219 -0.2003
13.0000 -8.6353 -0.2001
13.0200 -8.6486 -0.2006
13.0400 -8.6619 -0.2021
13.0600 -8.6752 -0.2000
13.0800 -8.6885 -0.1991
13.1000 -8.7019 -0.1987
13.1200 -8.7152 -0.1981
13.1400 -8.7285 -0.1994
13.1600 -8.7418 -0.2000
13.1800 -8.7552 -0.1970
13.2000 -8.7685 -0.1958
13.2200 -8.7819 -0.1955
13.2400 -8.7952 -0.1952
13.2600 -8.8085 -0.1938
13.2800 -8.8219 -0.1927
13.3000 -8.8353 -0.1922
13.3200 -8.8486 -0.1924
13.3400 -8.8619 -0.1933
13.3600 -8.8753 -0.1925
13.3800 -8.8886 -0.1920
13.4000 -8.9020 -0.1921
13.4200 -8.9152 -0.1918
13.4400 -8.9286 -0.1891
13.4600 -8.9419 -0.1894
13.4800 -8.9552 -0.1888
13.5000 -8.9685 -0.1876
13.5200 -8.9818 -0.1884
13.5400 -8.9951 -0.1887
13.5600 -9.0085 -0.1857
13.5800 -9.0219 -0.1880
13.6000 -9.0352 -0.1870
13.6200 -9.0485 -0.1837
13.6400 -9.0619 -0.1838
13.6600 -9.0753 -0.1832
13.6800 -9.0886 -0.1820
13.7000 -9.1019 -0.1819
13.7200 -9.1152 -0.1813
13.7400 -9.1286 -0.1813
13.7600 -9.1419 -0.1814
13.7800 -9.1553 -0.1818
13.8000 -9.1686 -0.1803
13.8200 -9.1819 -0.1790
13.8400 -9.1953 -0.1790
13.8600 -9.2086 -0.1784
13.8800 -9.2219 -0.1817
13.9000 -9.2352 -0.1807
13.9200 -9.2485 -0.1791
13.9400 -9.2619 -0.1772
13.9600 -9.2752 -0.1775
13.9800 -9.2885 -0.1778
14.0000 -9.3019 -0.1790
14.0200 -9.3153 -0.1771
14.0400 -9.3286 -0.1772
14.0600 -9.3419 -0.1785
14.0800 -9.3552 -0.1788
14.1000 -9.3686 -0.1761
14.1200 -9.3820 -0.1766
14.1400 -9.3953 -0.1744
14.1600 -9.4086 -0.1750
14.1800 -9.4220 -0.1744
14.2000 -9.4353 -0.1730
14.2200 -9.4486 -0.1737
14.2400 -9.4619 -0.1748
14.2600 -9.4752 -0.1747
14.2800 -9.4885 -0.1720
14.3000 -9.5019 -0.1728
14.3200 -9.5152 -0.1714
14.3400 -9.5285 -0.1722
14.3600 -9.5419 -0.1717
14.3800 -9.5552 -0.1705
14.4000 -9.5686 -0.1661
14.4200 -9.5819 -0.1688
14.4400 -9.5952 -0.1681
14.4600 -9.6086 -0.1690
14.4800 -9.6220 -0.1678
14.5000 -9.6353 -0.1681
14.5200 -9.6486 -0.1666
14.5400 -9.6619 -0.1688
14.5600 -9.6752 -0.1663
14.5800 -9.6885 -0.1667
14.6000 -9.7018 -0.1652
14.6200 -9.7151 -0.1652
14.6400 -9.7285 -0.1633
14.6600 -9.7419 -0.1651
14.6800 -9.7552 -0.1648
14.7000 -9.7685 -0.1622
14.7200 -9.7819 -0.1631
14.7400 -9.7953 -0.1619
14.7600 -9.8087 -0.1621
14.7800 -9.8220 -0.1615
14.8000 -9.8353 -0.1652
14.8200 -9.8486 -0.1595
14.8400 -9.8620 -0.1594
14.8600 -9.8753 -0.1569
14.8800 -9.8885 -0.1569
14.9000 -9.9018 -0.1575
14.9200 -9.9152 -0.1581
14.9400 -9.9285 -0.1551
14.9600 -9.9418 -0.1547
14.9800 -9.9551 -0.1546
15.0000 -9.9685 -0.1546
15.0200 -9.9819 -0.1529
15.0400 -9.9952 -0.1549
15.0600 -10.0086 -0.1549
15.0800 -10.0219 -0.1547
15.1000 -10.0353 -0.1530
15.1200 -10.0486 -0.1528
15.1400 -10.0619 -0.1515
15.1600 -10.0752 -0.1555
15.1800 -10.0886 -0.1513
15.2000 -10.1020 -0.1528
15.2200 -10.1153 -0.1529
15.2400 -10.1286 -0.1525
15.2600 -10.1419 -0.1528
15.2800 -10.1553 -0.1516
15.3000 -10.1686 -0.1507
15.3200 -10.1819 -0.1519
15.3400 -10.1952 -0.1505
15.3600 -10.2085 -0.1496
15.3800 -10.2219 -0.1465
15.4000 -10.2352 -0.1481
15.4200 -10.2486 -0.1458
15.4400 -10.2619 -0.1453
15.4600 -10.2753 -0.1465
15.4800 -10.2886 -0.1446
15.5000 -10.3019 -0.1451
15.5200 -10.3152 -0.1439
15.5400 -10.3286 -0.1426
15.5600 -10.3419 -0.1405
15.5800 -10.3552 -0.1435
15.6000 -10.3685 -0.1436
15.6200 -10.3819 -0.1420
15.6400 -10.3952 -0.1417
15.6600 -10.4086 -0.1404
15.6800 -10.4218 -0.1416
15.7000 -10.4351 -0.1419
15.7200 -10.4485 -0.1403
15.7400 -10.4619 -0.1381
15.7600 -10.4752 -0.1402
15.7800 -10.4886 -0.1376
15.8000 -10.5019 -0.1383
15.8200 -10.5153 -0.1390
15.8400 -10.5286 -0.1374
15.8600 -10.5419 -0.1370
15.8800 -10.5552 -0.1374
15.9000 -10.5686 -0.1352
15.9200 -10.5819 -0.1350
15.9400 -10.5952 -0.1384
15.9600 -10.6085 -0.1375
15.9800 -10.6219 -0.1361
16.0000 -10.6352 -0.1375
16.0200 -10.6485 -0.1339
16.0400 -10.6618 -0.1334
16.0600 -10.6751 -0.1339
16.0800 -10.6885 -0.1340
16.1000 -10.7019 -0.1337
16.1200 -10.7153 -0.1343
16.1400 -10.7286 -0.1342
16.1600 -10.7419 -0.1337
16.1800 -10.7553 -0.1328
16.2000 -10.7686 -0.1298
16.2200 -10.7819 -0.1277
16.2400 -10.7953 -0.1299
16.2600 -10.8086 -0.1284
16.2800 -10.8220 -0.1293
16.3000 -10.8353 -0.1306
16.3200 -10.8486 -0.1294
16.3400 -10.8619 -0.1271
16.3600 -10.8752 -0.1291
16.3800 -10.8886 -0.1261
16.4000 -10.9018 -0.1256
16.4200 -10.9151 -0.1265
16.4400 -10.9285 -0.1249
16.4600 -10.9419 -0.1234
16.4800 -10.9552 -0.1252
16.5000 -10.9685 -0.1254
16.5200 -10.9819 -0.1237
16.5400 -10.9953 -0.1252
16.5600 -11.0087 -0.1217
16.5800 -11.0220 -0.1232
16.6000 -11.0353 -0.1229
16.6200 -11.0486 -0.1222
16.6400 -11.0620 -0.1199
16.6600 -11.0753 -0.1214
16.6800 -11.0886 -0.1198
16.7000 -11.1019 -0.1212
16.7200 -11.1152 -0.1223
16.7400 -11.1286 -0.1205
16.7600 -11.1418 -0.1191
16.7800 -11.1551 -0.1208
16.8000 -11.1685 -0.1170
16.8200 -11.1819 -0.1182
16.8400 -11.1952 -0.1182
16.8600 -11.2085 -0.1160
16.8800 -11.2219 -0.1147
16.9000 -11.2353 -0.1177
16.9200 -11.2487 -0.1140
16.9400 -11.2620 -0.1151
16.9600 -11.2752 -0.1166
16.9800 -11.2885 -0.1168
17.0000 -11.3019 -0.1132
17.0200 -11.3152 -0.1143
17.0400 -11.3285 -0.1136
17.0600 -11.3419 -0.1130
17.0800 -11.3552 -0.1148
17.1000 -11.3685 -0.1119
17.1200 -11.3818 -0.1105
17.1400 -11.3951 -0.1121
17.1600 -11.4085 -0.1125
17.1800 -11.4219 -0.1102
17.2000 -11.4352 -0.1121
17.2200 -11.4486 -0.1096
17.2400 -11.4619 -0.1082
17.2600 -11.4753 -0.1090
17.2800 -11.4886 -0.1100
17.3000 -11.5019 -0.1090
17.3200 -11.5152 -0.1098
17.3400 -11.5285 -0.1048
17.3600 -11.5419 -0.1042
17.3800 -11.5552 -0.1065
17.4000 -11.5686 -0.1072
17.4200 -11.5819 -0.1043
17.4400 -11.5952 -0.1060
17.4600 -11.6086 -0.1037
17.4800 -11.6219 -0.1033
17.5000 -11.6352 -0.1029
17.5200 -11.6485 -0.1029
17.5400 -11.6619 -0.1017
17.5600 -11.6752 -0.1036
17.5800 -11.6885 -0.1010
17.6000 -11.7019 -0.0997
17.6200 -11.7153 -0.1008
17.6400 -11.7286 -0.0993
17.6600 -11.7420 -0.0982
17.6800 -11.7553 -0.0984
17.7000 -11.7686 -0.0974
17.7200 -11.7820 -0.0971
17.7400 -11.7953 -0.0986
17.7600 -11.8086 -0.0959
17.7800 -11.8219 -0.0940
17.8000 -11.8353 -0.0938
17.8200 -11.8486 -0.0940
17.8400 -11.8619 -0.0932
17.8600 -11.8752 -0.0956
17.8800 -11.8885 -0.0929
17.9000 -11.9019 -0.0934
17.9200 -11.9152 -0.0930
17.9400 -11.9285 -0.0932
17.9600 -11.9419 -0.0911
17.9800 -11.9552 -0.0902
18.0000 -11.9686 -0.0898
18.0200 -11.9819 -0.0876
18.0400 -11.9952 -0.0901
18.0600 -12.0086 -0.0897
18.0800 -12.0219 -0.0882
18.1000 -12.0353 -0.0892
18.1200 -12.0486 -0.0873
18.1400 -12.0619 -0.0844
18.1600 -12.0752 -0.0888
18.1800 -12.0886 -0.0857
18.2000 -12.1019 -0.0857
18.2200 -12.1152 -0.0856
18.2400 -12.1285 -0.0854
18.2600 -12.1419 -0.0839
18.2800 -12.1552 -0.0847
18.3000 -12.1685 -0.0834
18.3200 -12.1818 -0.0854
18.3400 -12.1952 -0.0862
18.3600 -12.2086 -0.0847
18.3800 -12.2219 -0.0819
18.4000 -12.2352 -0.0842
18.4200 -12.2485 -0.0821
18.4400 -12.2619 -0.0828
18.4600 -12.2753 -0.0828
18.4800 -12.2886 -0.0825
18.5000 -12.3019 -0.0788
18.5200 -12.3152 -0.0829
18.5400 -12.3286 -0.0784
18.5600 -12.3419 -0.0791
18.5800 -12.3552 -0.0792
18.6000 -12.3685 -0.0801
18.6200 -12.3819 -0.0780
18.6400 -12.3952 -0.0792
18.6600 -12.4086 -0.0791
18.6800 -12.4219 -0.0796
18.7000 -12.4352 -0.0802
18.7200 -12.4486 -0.0767
18.7400 -12.4620 -0.0763
18.7600 -12.4752 -0.0756
18.7800 -12.4886 -0.0775
18.8000 -12.5019 -0.0758
18.8200 -12.5153 -0.0777
18.8400 -12.5286 -0.0759
18.8600 -12.5419 -0.0755
18.8800 -12.5552 -0.0744
18.9000 -12.5686 -0.0742
18.9200 -12.5819 -0.0714
18.9400 -12.5952 -0.0734
18.9600 -12.6085 -0.0722
18.9800 -12.6219 -0.0704
19.0000 -12.6353 -0.0709
19.0200 -12.6486 -0.0706
19.0400 -12.6619 -0.0691
19.0600 -12.6752 -0.0711
19.0800 -12.6886 -0.0699
19.1000 -12.7020 -0.0696
19.1200 -12.7152 -0.0691
19.1400 -12.7286 -0.0685
19.1600 -12.7419 -0.0645
19.1800 -12.7553 -0.0667
19.2000 -12.7686 -0.0643
19.2200 -12.7819 -0.0631
19.2400 -12.7952 -0.0640
19.2600 -12.8085 -0.0636
19.2800 -12.8219 -0.0615
19.3000 -12.8352 -0.0628
19.3200 -12.8485 -0.0624
19.3400 -12.8619 -0.0608
19.3600 -12.8752 -0.0608
19.3800 -12.8885 -0.0603
19.4000 -12.9018 -0.0588
19.4200 -12.9152 -0.0581
19.4400 -12.9286 -0.0595
19.4600 -12.9419 -0.0584
19.4800 -12.9552 -0.0604
19.5000 -12.9686 -0.0566
19.5200 -12.9819 -0.0566
19.5400 -12.9953 -0.0553
19.5600 -13.0086 -0.0564
19.5800 -13.0219 -0.0537
19.6000 -13.0353 -0.0555
19.6200 -13.0486 -0.0558
19.6400 -13.0619 -0.0558
19.6600 -13.0752 -0.0552
19.6800 -13.0885 -0.0542
19.7000 -13.1018 -0.0516
19.7200 -13.1152 -0.0539
19.7400 -13.1285 -0.0532
19.7600 -13.1418 -0.0520
19.7800 -13.1552 -0.0517
19.8000 -13.1686 -0.0525
19.8200 -13.1820 -0.0495
19.8400 -13.1953 -0.0519
19.8600 -13.2086 -0.0519
19.8800 -13.2219 -0.0482
19.9000 -13.2353 -0.0492
19.9200 -13.2486 -0.0496
19.9400 -13.2619 -0.0467
19.9600 -13.2752 -0.0482
19.9800 -13.2886 -0.0507
20.0000 -13.3019 -0.0478
20.0200 -13.3152 -0.0483
20.0400 -13.3285 -0.0481
20.0600 -13.3419 -0.0460
20.0800 -13.3552 -0.0473
20.1000 -13.3686 -0.0481
20.1200 -13.3819 -0.0447
20.1400 -13.3952 -0.0460
20.1600 -13.4086 -0.0450
20.1800 -13.4220 -0.0461
20.2000 -13.4353 -0.0457
20.2200 -13.4486 -0.0466
20.2400 -13.4619 -0.0422
20.2600 -13.4753 -0.0457
20.2800 -13.4886 -0.0459
20.3000 -13.5019 -0.0437
20.3200 -13.5152 -0.0448
20.3400 -13.5286 -0.0444
20.3600 -13.5419 -0.0425
20.3800 -13.5552 -0.0444
20.4000 -13.5685 -0.0441
20.4200 -13.5818 -0.0410
20.4400 -13.5952 -0.0429
20.4600 -13.6085 -0.0437
20.4800 -13.6219 -0.0422
20.5000 -13.6352 -0.0410
20.5200 -13.6486 -0.0419
20.5400 -13.6619 -0.0371
20.5600 -13.6753 -0.0418
20.5800 -13.6886 -0.0391
20.6000 -13.7019 -0.0370
20.6200 -13.7153 -0.0358
20.6400 -13.7286 -0.0399
20.6600 -13.7419 -0.0362
20.6800 -13.7552 -0.0386
20.7000 -13.7686 -0.0370
20.7200 -13.7819 -0.0350
20.7400 -13.7952 -0.0349
20.7600 -13.8085 -0.0354
20.7800 -13.8218 -0.0323
20.8000 -13.8352 -0.0340
20.8200 -13.8485 -0.0350
20.8400 -13.8618 -0.0335
20.8600 -13.8752 -0.0356
20.8800 -13.8886 -0.0334
20.9000 -13.9020 -0.0299
20.9200 -13.9153 -0.0306
20.9400 -13.9286 -0.0309
20.9600 -13.9419 -0.0291
20.9800 -13.9553 -0.0270
21.0000 -13.9686 -0.0287
21.0200 -13.9819 -0.0292
21.0400 -13.9952 -0.0292
21.0600 -14.0086 -0.0290
21.0800 -14.0219 -0.0252
21.1000 -14.0352 -0.0271
21.1200 -14.0485 -0.0270
21.1400 -14.0619 -0.0262
21.1600 -14.0752 -0.0241
21.1800 -14.0886 -0.0268
21.2000 -14.1019 -0.0239
21.2200 -14.1152 -0.0254
21.2400 -14.1286 -0.0245
21.2600 -14.1419 -0.0246
21.2800 -14.1552 -0.0204
21.3000 -14.1686 -0.0233
21.3200 -14.1819 -0.0204
21.3400 -14.1953 -0.0210
21.3600 -14.2086 -0.0202
21.3800 -14.2219 -0.0201
21.4000 -14.2352 -0.0191
21.4200 -14.2486 -0.0196
21.4400 -14.2619 -0.0176
21.4600 -14.2752 -0.0182
21.4800 -14.2885 -0.0186
21.5000 -14.3018 -0.0169
21.5200 -14.3152 -0.0181
21.5400 -14.3285 -0.0174
21.5600 -14.3418 -0.0166
21.5800 -14.3552 -0.0140
21.6000 -14.3686 -0.0174
21.6200 -14.3820 -0.0135
21.6400 -14.3953 -0.0148
21.6600 -14.4086 -0.0134
21.6800 -14.4219 -0.0113
21.7000 -14.4353 -0.0114
21.7200 -14.4486 -0.0134
21.7400 -14.4619 -0.0124
21.7600 -14.4752 -0.0129
21.7800 -14.4886 -0.0139
21.8000 -14.5019 -0.0109
21.8200 -14.5152 -0.0108
21.8400 -14.5285 -0.0110
21.8600 -14.5418 -0.0085
21.8800 -14.5552 -0.0097
21.9000 -14.5685 -0.0100
21.9200 -14.5818 -0.0089
21.9400 -14.5952 -0.0075
21.9600 -14.6086 -0.0101
21.9800 -14.6220 -0.0071
22.0000 -14.6353 -0.0089
22.0200 -14.6486 -0.0077
22.0400 -14.6620 -0.0075
22.0600 -14.6753 -0.0061
22.0800 -14.6886 -0.0076
22.1000 -14.7019 -0.0061
22.1200 -14.7152 -0.0064
22.1400 -14.7285 -0.0077
22.1600 -14.7418 -0.0038
22.1800 -14.7551 -0.0051
22.2000 -14.7684 -0.0069
22.2200 -14.7818 -0.0041
22.2400 -14.7952 -0.0043
22.2600 -14.8086 -0.0039
22.2800 -14.8219 -0.0039
22.3000 -14.8352 -0.0023
22.3200 -14.8486 -0.0035
22.3400 -14.8620 -0.0016
22.3600 -14.8753 0.0004
22.3800 -14.8886 -0.0034
22.4000 -14.9019 -0.0021
22.4200 -14.9153 -0.0042
22.4400 -14.9286 -0.0010
22.4600 -14.9419 0.0014
22.4800 -14.9552 0.0025
22.5000 -14.9686 0.0004
22.5200 -14.9819 0.0014
22.5400 -14.9952 0.0024
22.5600 -15.0085 0.0008
22.5800 -15.0218 0.0029
22.6000 -15.0352 0.0029
22.6200 -15.0486 0.0018
22.6400 -15.0619 0.0028
22.6600 -15.0752 0.0047
22.6800 -15.0886 0.0033
22.7000 -15.1020 0.0096
22.7200 -15.1153 0.0072
22.7400 -15.1286 0.0062
22.7600 -15.1419 0.0068
22.7800 -15.1553 0.0089
22.8000 -15.1686 0.0084
22.8200 -15.1819 0.0132
22.8400 -15.1952 0.0116
22.8600 -15.2085 0.0109
22.8800 -15.2219 0.0109
22.9000 -15.2352 0.0117
22.9200 -15.2485 0.0107
22.9400 -15.2618 0.0124
22.9600 -15.2752 0.0133
22.9800 -15.2886 0.0131
23.0000 -15.3019 0.0149
23.0200 -15.3152 0.0133
23.0400 -15.3286 0.0140
23.0600 -15.3419 0.0161
23.0800 -15.3553 0.0187
23.1000 -15.3686 0.0193
23.1200 -15.3819 0.0188
23.1400 -15.3953 0.0201
23.1600 -15.4086 0.0201
23.1800 -15.4219 0.0204
23.2000 -15.4352 0.0216
23.2200 -15.4485 0.0205
23.2400 -15.4619 0.0241
23.2600 -15.4752 0.0232
23.2800 -15.4885 0.0227
23.3000 -15.5018 0.0235
23.3200 -15.5152 0.0242
23.3400 -15.5286 0.0230
23.3600 -15.5419 0.0240
23.3800 -15.5552 0.0245
23.4000 -15.5686 0.0246
23.4200 -15.5820 0.0248
23.4400 -15.5953 0.0270
23.4600 -15.6086 0.0239
23.4800 -15.6219 0.0263
23.5000 -15.6353 0.0250
23.5200 -15.6486 0.0255
23.5400 -15.6619 0.0252
23.5600 -15.6752 0.0263
23.5800 -15.6885 0.0252
23.6000 -15.7019 0.0255
23.6200 -15.7152 0.0245
23.6400 -15.7285 0.0260
23.6600 -15.7418 0.0242
23.6800 -15.7552 0.0287
23.7000 -15.7685 0.0268
23.7200 -15.7819 0.0290
23.7400 -15.7952 0.0271
23.7600 -15.8086 0.0272
23.7800 -15.8219 0.0269
23.8000 -15.8353 0.0292
23.8200 -15.8486 0.0275
23.8400 -15.8619 0.0286
23.8600 -15.8753 0.0299
23.8800 -15.8886 0.0284
23.9000 -15.9019 0.0305
23.9200 -15.9152 0.0306
23.9400 -15.9285 0.0333
23.9600 -15.9419 0.0318
23.9800 -15.9552 0.0350
24.0000 -15.9685 0.0320
24.0200 -15.9818 0.0344
24.0400 -15.9952 0.0348
24.0600 -16.0085 0.0352
24.0800 -16.0219 0.0362
24.1000 -16.0352 0.0361
24.1200 -16.0486 0.0336
24.1400 -16.0620 0.0354
24.1600 -16.0753 0.0392
24.1800 -16.0886 0.0385
24.2000 -16.1019 0.0367
24.2200 -16.1152 0.0388
24.2400 -16.1286 0.0363
24.2600 -16.1419 0.0373
24.2800 -16.1552 0.0391
24.3000 -16.1686 0.0376
24.3200 -16.1819 0.0384
24.3400 -16.1952 0.0388
24.3600 -16.2085 0.0380
24.3800 -16.2218 0.0406
24.4000 -16.2352 0.0427
24.4200 -16.2486 0.0411
24.4400 -16.2619 0.0399
24.4600 -16.2752 0.0408
24.4800 -16.2886 0.0435
24.5000 -16.3020 0.0444
24.5200 -16.3153 0.0471
24.5400 -16.3285 0.0446
24.5600 -16.3418 0.0449
24.5800 -16.3552 0.0452
24.6000 -16.3686 0.0454
24.6200 -16.3819 0.0472
24.6400 -16.3952 0.0491
24.6600 -16.4086 0.0475
24.6800 -16.4219 0.0486
24.7000 -16.4353 0.0507
24.7200 -16.4486 0.0504
24.7400 -16.4619 0.0521
24.7600 -16.4752 0.0521
24.7800 -16.4886 0.0537
24.8000 -16.5019 0.0525
24.8200 -16.5152 0.0549
24.8400 -16.5286 0.0530
24.8600 -16.5420 0.0548
24.8800 -16.5553 0.0553
24.9000 -16.5686 0.0575
24.9200 -16.5819 0.0577
24.9400 -16.5953 0.0600
24.9600 -16.6087 0.0582
24.9800 -16.6220 0.0605
25.0000 -16.6353 0.0626
25.0200 -16.6486 0.0629
25.0400 -16.6619 0.0649
25.0600 -16.6753 0.0671
25.0800 -16.6885 0.0661
25.1000 -16.7018 0.0672
25.1200 -16.7152 0.0668
25.1400 -16.7285 0.0682
25.1600 -16.7419 0.0680
25.1800 -16.7552 0.0706
25.2000 -16.7685 0.0709
25.2200 -16.7819 0.0722
25.2400 -16.7953 0.0698
25.2600 -16.8086 0.0722
25.2800 -16.8219 0.0694
25.3000 -16.8353 0.0747
25.3200 -16.8486 0.0729
25.3400 -16.8619 0.0740
25.3600 -16.8752 0.0758
25.3800 -16.8886 0.0737
25.4000 -16.9019 0.0754
25.4200 -16.9152 0.0759
25.4400 -16.9285 0.0765
25.4600 -16.9418 0.0740
25.4800 -16.9552 0.0761
25.5000 -16.9685 0.0726
25.5200 -16.9819 0.0771
25.5400 -16.9952 0.0756
25.5600 -17.0085 0.0775
25.5800 -17.0219 0.0748
25.6000 -17.0352 0.0795
25.6200 -17.0486 0.0779
25.6400 -17.0619 0.0776
25.6600 -17.0752 0.0777
25.6800 -17.0886 0.0803
25.7000 -17.1019 0.0819
25.7200 -17.1152 0.0849
25.7400 -17.1286 0.0843
25.7600 -17.1419 0.0829
25.7800 -17.1553 0.0856
25.8000 -17.1686 0.0836
25.8200 -17.1818 0.0854
25.8400 -17.1952 0.0875
25.8600 -17.2086 0.0859
25.8800 -17.2219 0.0848
25.9000 -17.2352 0.0862
25.9200 -17.2486 0.0870
25.9400 -17.2620 0.0871
25.9600 -17.2753 0.0903
25.9800 -17.2886 0.0878
26.0000 -17.3019 0.0891
26.0200 -17.3153 0.0895
26.0400 -17.3286 0.0917
26.0600 -17.3419 0.0903
26.0800 -17.3552 0.0930
26.1000 -17.3685 0.0909
26.1200 -17.3819 0.0903
26.1400 -17.3952 0.0929
26.1600 -17.4085 0.0927
26.1800 -17.4218 0.0935
26.2000 -17.4352 0.0944
26.2200 -17.4486 0.0946
26.2400 -17.4619 0.0943
26.2600 -17.4752 0.0969
26.2800 -17.4885 0.0945
26.3000 -17.5019 0.0965
26.3200 -17.5153 0.0978
26.3400 -17.5286 0.0982
26.3600 -17.5419 0.0970
26.3800 -17.5552 0.1000
26.4000 -17.5685 0.0982
26.4200 -17.5819 0.1025
26.4400 -17.5952 0.1019
26.4600 -17.6085 0.1019
26.4800 -17.6218 0.1032
26.5000 -17.6352 0.1036
26.5200 -17.6485 0.1034
26.5400 -17.6618 0.1022
26.5600 -17.6752 0.1034
26.5800 -17.6886 0.1045
26.6000 -17.7019 0.1044
26.6200 -17.7152 0.1056
26.6400 -17.7285 0.1075
26.6600 -17.7419 0.1062
26.6800 -17.7553 0.1098
26.7000 -17.7686 0.1086
26.7200 -17.7819 0.1100
26.7400 -17.7952 0.1114
26.7600 -17.8086 0.1123
26.7800 -17.8220 0.1126
26.8000 -17.8353 0.1143
26.8200 -17.8486 0.1131
26.8400 -17.8620 0.1135
26.8600 -17.8753 0.1130
26.8800 -17.8886 0.1157
26.9000 -17.9019 0.1146
26.9200 -17.9152 0.1177
26.9400 -17.9285 0.1150
26.9600 -17.9418 0.1170
26.9800 -17.9551 0.1189
27.0000 -17.9685 0.1172
27.0200 -17.9819 0.1203
27.0400 -17.9953 0.1187
27.0600 -18.0086 0.1188
27.0800 -18.0219 0.1173
27.1000 -18.0353 0.1206
27.1200 -18.0487 0.1205
27.1400 -18.0620 0.1241
27.1600 -18.0753 0.1210
27.1800 -18.0886 0.1222
27.2000 -18.1019 0.1218
27.2200 -18.1152 0.1260
27.2400 -18.1286 0.1235
27.2600 -18.1419 0.1246
27.2800 -18.1552 0.1251
27.3000 -18.1686 0.1268
27.3200 -18.1819 0.1254
27.3400 -18.1952 0.1282
27.3600 -18.2086 0.1274
27.3800 -18.2219 0.1288
27.4000 -18.2353 0.1301
27.4200 -18.2486 0.1301
27.4400 -18.2619 0.1294
27.4600 -18.2753 0.1309
27.4800 -18.2886 0.1292
27.5000 -18.3020 0.1313
27.5200 -18.3153 0.1318
27.5400 -18.3286 0.1322
27.5600 -18.3419 0.1299
27.5800 -18.3552 0.1347
27.6000 -18.3685 0.1339
27.6200 -18.3818 0.1362
27.6400 -18.3951 0.1333
27.6600 -18.4085 0.1383
27.6800 -18.4219 0.1350
27.7000 -18.4352 0.1371
27.7200 -18.4485 0.1353
27.7400 -18.4619 0.1367
27.7600 -18.4753 0.1370
27.7800 -18.4886 0.1361
27.8000 -18.5019 0.1356
27.8200 -18.5152 0.1362
27.8400 -18.5286 0.1395
27.8600 -18.5420 0.1376
27.8800 -18.5553 0.1394
27.9000 -18.5686 0.1376
27.9200 -18.5819 0.1401
27.9400 -18.5952 0.1398
27.9600 -18.6085 0.1419
27.9800 -18.6218 0.1394
28.0000 -18.6351 0.1427
28.0200 -18.6485 0.1417
28.0400 -18.6619 0.1434
28.0600 -18.6752 0.1446
28.0800 -18.6885 0.1455
28.1000 -18.7019 0.1459
28.1200 -18.7153 0.1467
28.1400 -18.7286 0.1476
28.1600 -18.7419 0.1475
28.1800 -18.7552 0.1516
28.2000 -18.7686 0.1489
28.2200 -18.7820 0.1508
28.2400 -18.7953 0.1496
28.2600 -18.8086 0.1526
28.2800 -18.8219 0.1531
28.3000 -18.8353 0.1559
28.3200 -18.8486 0.1563
28.3400 -18.8619 0.1558
28.3600 -18.8752 0.1581
28.3800 -18.8885 0.1571
28.4000 -18.9019 0.1589
28.4200 -18.9152 0.1576
28.4400 -18.9285 0.1614
28.4600 -18.9419 0.1595
28.4800 -18.9552 0.1616
28.5000 -18.9686 0.1618
28.5200 -18.9819 0.1623
28.5400 -18.9952 0.1605
28.5600 -19.0086 0.1628
28.5800 -19.0220 0.1633
28.6000 -19.0353 0.1640
28.6200 -19.0486 0.1657
28.6400 -19.0620 0.1657
28.6600 -19.0753 0.1667
28.6800 -19.0886 0.1658
28.7000 -19.1019 0.1678
28.7200 -19.1152 0.1682
28.7400 -19.1285 0.1686
28.7600 -19.1419 0.1685
28.7800 -19.1552 0.1676
28.8000 -19.1685 0.1703
28.8200 -19.1819 0.1686
28.8400 -19.1952 0.1715
28.8600 -19.2086 0.1703
28.8800 -19.2219 0.1696
28.9000 -19.2352 0.1689
28.9200 -19.2486 0.1705
28.9400 -19.2620 0.1710
28.9600 -19.2753 0.1725
28.9800 -19.2886 0.1702
29.0000 -19.3019 0.1727
29.0200 -19.3152 0.1726
29.0400 -19.3285 0.1749
29.0600 -19.3418 0.1730
29.0800 -19.3551 0.1755
29.1000 -19.3685 0.1742
29.1200 -19.3819 0.1743
29.1400 -19.3952 0.1732
29.1600 -19.4085 0.1746
29.1800 -19.4219 0.1754
29.2000 -19.4353 0.1767
29.2200 -19.4486 0.1785
29.2400 -19.4620 0.1785
29.2600 -19.4753 0.1770
29.2800 -19.4886 0.1801
29.3000 -19.5020 0.1788
29.3200 -19.5153 0.1826
29.3400 -19.5286 0.1806
29.3600 -19.5418 0.1810
29.3800 -19.5552 0.1820
29.4000 -19.5685 0.1853
29.4200 -19.5818 0.1868
29.4400 -19.5951 0.1858
29.4600 -19.6085 0.1879
29.4800 -19.6219 0.1871
29.5000 -19.6352 0.1887
29.5200 -19.6486 0.1881
29.5400 -19.6619 0.1901
29.5600 -19.6753 0.1882
29.5800 -19.6887 0.1917
29.6000 -19.7020 0.1907
29.6200 -19.7153 0.1903
29.6400 -19.7286 0.1905
29.6600 -19.7420 0.1922
29.6800 -19.7553 0.1930
29.7000 -19.7686 0.1942
29.7200 -19.7819 0.1927
29.7400 -19.7952 0.1942
29.7600 -19.8086 0.1930
29.7800 -19.8219 0.1951
29.8000 -19.8352 0.1936
29.8200 -19.8485 0.1944
29.8400 -19.8619 0.1954
29.8600 -19.8752 0.1953
29.8800 -19.8885 0.1980
29.9000 -19.9019 0.1966
29.9200 -19.9153 0.1987
29.9400 -19.9286 0.2013
29.9600 -19.9419 0.1997
29.9800 -19.9552 0.2013
30.0000 -19.9686 0.2016
30.0200 -19.9819 0.2031
30.0400 -19.9953 0.2023
30.0600 -20.0086 0.2059
30.0800 -20.0219 0.2053
30.1000 -20.0352 0.2071
30.1200 -20.0486 0.2081
30.1400 -20.0619 0.2093
30.1600 -20.0752 0.2071
30.1800 -20.0885 0.2089
30.2000 -20.1019 0.2084
30.2200 -20.1152 0.2089
30.2400 -20.1286 0.2093
30.2600 -20.1419 0.2095
30.2800 -20.1552 0.2092
30.3000 -20.1686 0.2102
30.3200 -20.1819 0.2115
30.3400 -20.1953 0.2097
30.3600 -20.2086 0.2130
30.3800 -20.2219 0.2129
30.4000 -20.2353 0.2115
30.4200 -20.2485 0.2115
30.4400 -20.2619 0.2123
30.4600 -20.2752 0.2117
30.4800 -20.2885 0.2146
30.5000 -20.3018 0.2130
30.5200 -20.3151 0.2143
30.5400 -20.3285 0.2161
30.5600 -20.3419 0.2166
30.5800 -20.3552 0.2153
30.6000 -20.3686 0.2158
30.6200 -20.3819 0.2163
30.6400 -20.3952 0.2170
30.6600 -20.4086 0.2178
30.6800 -20.4219 0.2205
30.7000 -20.4352 0.2208
30.7200 -20.4486 0.2218
30.7400 -20.4620 0.2215
30.7600 -20.4753 0.2216
30.7800 -20.4886 0.2229
30.8000 -20.5019 0.2241
30.8200 -20.5152 0.2230
30.8400 -20.5286 0.2218
30.8600 -20.5418 0.2231
30.8800 -20.5551 0.2219
30.9000 -20.5685 0.2246
30.9200 -20.5818 0.2210
30.9400 -20.5952 0.1872
30.9600 -20.6085 0.1152
30.9800 -20.6219 0.0277
31.0000 -20.6353 -0.0637
31.0200 -20.6486 -0.1476
31.0400 -20.6620 -0.2276
31.0600 -20.6753 -0.2892
31.0800 -20.6886 -0.3206
31.1000 -20.7020 -0.3490
31.1200 -20.7153 -0.3903
31.1400 -20.7286 -0.4373
31.1600 -20.7419 -0.4874
31.1800 -20.7552 -0.5379
31.2000 -20.7686 -0.5832
31.2200 -20.7818 -0.6146
31.2400 -20.7951 -0.6233
31.2600 -20.8085 -0.6215
31.2800 -20.8219 -0.6193
31.3000 -20.8352 -0.6195
31.3200 -20.8485 -0.6173
31.3400 -20.8619 -0.6179
31.3600 -20.8753 -0.6176
31.3800 -20.8887 -0.6168
31.4000 -20.9020 -0.6153
31.4200 -20.9152 -0.6144
31.4400 -20.9286 -0.6122
31.4600 -20.9419 -0.6109
31.4800 -20.9553 -0.6087
31.5000 -20.9686 -0.6078
31.5200 -20.9819 -0.6066
31.5400 -20.9952 -0.6080
31.5600 -21.0085 -0.6078
31.5800 -21.0219 -0.6070
31.6000 -21.0352 -0.6044
31.6200 -21.0485 -0.6049
31.6400 -21.0619 -0.6030
31.6600 -21.0753 -0.6049
31.6800 -21.0886 -0.6038
31.7000 -21.1019 -0.6023
31.7200 -21.1153 -0.6024
31.7400 -21.1286 -0.6010
31.7600 -21.1419 -0.6009
31.7800 -21.1552 -0.6024
31.8000 -21.1685 -0.6017
31.8200 -21.1819 -0.6004
31.8400 -21.1952 -0.6002
31.8600 -21.2085 -0.5998
31.8800 -21.2219 -0.5984
31.9000 -21.2352 -0.5978
31.9200 -21.2486 -0.5984
31.9400 -21.2619 -0.5978
31.9600 -21.2752 -0.6000
31.9800 -21.2885 -0.5965
32.0000 -21.3019 -0.5979
32.0200 -21.3152 -0.5929
32.0400 -21.3285 -0.5928
32.0600 -21.3419 -0.5912
32.0800 -21.3552 -0.5924
32.1000 -21.3686 -0.5897
32.1200 -21.3819 -0.5877
32.1400 -21.3952 -0.5864
32.1600 -21.4086 -0.5861
32.1800 -21.4220 -0.5836
32.2000 -21.4353 -0.5847
32.2200 -21.4486 -0.5831
32.2400 -21.4619 -0.5808
32.2600 -21.4752 -0.5807
32.2800 -21.4886 -0.5807
32.3000 -21.5019 -0.5801
32.3200 -21.5152 -0.5820
32.3400 -21.5285 -0.5809
32.3600 -21.5419 -0.5812
32.3800 -21.5552 -0.5790
32.4000 -21.5686 -0.5779
32.4200 -21.5819 -0.5765
32.4400 -21.5952 -0.5740
32.4600 -21.6086 -0.5755
32.4800 -21.6219 -0.5751
32.5000 -21.6352 -0.5757
32.5200 -21.6486 -0.5730
32.5400 -21.6619 -0.5727
32.5600 -21.6753 -0.5699
32.5800 -21.6886 -0.5687
32.6000 -21.7019 -0.5682
32.6200 -21.7152 -0.5685
32.6400 -21.7286 -0.5660
32.6600 -21.7419 -0.5648
32.6800 -21.7552 -0.5643
32.7000 -21.7685 -0.5660
32.7200 -21.7819 -0.5631
32.7400 -21.7952 -0.5626
32.7600 -21.8086 -0.5616
32.7800 -21.8219 -0.5602
32.8000 -21.8352 -0.5599
32.8200 -21.8486 -0.5596
32.8400 -21.8619 -0.5583
32.8600 -21.8752 -0.5586
32.8800 -21.8885 -0.5583
32.9000 -21.9019 -0.5568
32.9200 -21.9152 -0.5563
32.9400 -21.9286 -0.5542
32.9600 -21.9419 -0.5544
32.9800 -21.9552 -0.5536
33.0000 -21.9686 -0.5521
33.0200 -21.9819 -0.5499
33.0400 -21.9952 -0.5518
33.0600 -22.0085 -0.5487
33.0800 -22.0219 -0.5498
33.1000 -22.0352 -0.5481
33.1200 -22.0486 -0.5468
33.1400 -22.0619 -0.5458
33.1600 -22.0752 -0.5463
33.1800 -22.0886 -0.5463
33.2000 -22.1020 -0.5452
33.2200 -22.1152 -0.5424
33.2400 -22.1286 -0.5403
33.2600 -22.1419 -0.5396
33.2800 -22.1552 -0.5401
33.3000 -22.1686 -0.5393
33.3200 -22.1819 -0.5376
33.3400 -22.1952 -0.5369
33.3600 -22.2086 -0.5366
33.3800 -22.2219 -0.5325
33.4000 -22.2352 -0.5337
33.4200 -22.2485 -0.5343
33.4400 -22.2619 -0.5322
33.4600 -22.2752 -0.5290
33.4800 -22.2886 -0.5291
33.5000 -22.3019 -0.5296
33.5200 -22.3152 -0.5289
33.5400 -22.3286 -0.5276
33.5600 -22.3420 -0.5245
33.5800 -22.3553 -0.5256
33.6000 -22.3686 -0.5245
33.6200 -22.3819 -0.5238
33.6400 -22.3953 -0.5223
33.6600 -22.4086 -0.5217
33.6800 -22.4219 -0.5208
33.7000 -22.4352 -0.5221
33.7200 -22.4485 -0.5204
33.7400 -22.4619 -0.5226
33.7600 -22.4752 -0.5179
33.7800 -22.4885 -0.5209
33.8000 -22.5019 -0.5180
33.8200 -22.5152 -0.5187
33.8400 -22.5285 -0.5185
33.8600 -22.5419 -0.5173
33.8800 -22.5552 -0.5169
33.9000 -22.5686 -0.5193
33.9200 -22.5819 -0.5161
33.9400 -22.5953 -0.5183
33.9600 -22.6086 -0.5183
33.9800 -22.6219 -0.5179
34.0000 -22.6353 -0.5168
34.0200 -22.6486 -0.5161
34.0400 -22.6619 -0.5162
34.0600 -22.6753 -0.5135
34.0800 -22.6886 -0.5159
34.1000 -22.7019 -0.5123
34.1200 -22.7152 -0.5153
34.1400 -22.7285 -0.5133
34.1600 -22.7418 -0.5160
34.1800 -22.7551 -0.5122
34.2000 -22.7685 -0.5152
34.2200 -22.7818 -0.5137
34.2400 -22.7952 -0.5146
34.2600 -22.8086 -0.5140
34.2800 -22.8219 -0.5126
34.3000 -22.8353 -0.5123
34.3200 -22.8486 -0.5134
34.3400 -22.8619 -0.5129
34.3600 -22.8753 -0.5097
34.3800 -22.8886 -0.5102
34.4000 -22.9019 -0.5072
34.4200 -22.9152 -0.5074
34.4400 -22.9286 -0.5089
34.4600 -22.9419 -0.5073
34.4800 -22.9552 -0.5065
34.5000 -22.9685 -0.5047
34.5200 -22.9819 -0.5065
34.5400 -22.9952 -0.5029
34.5600 -23.0086 -0.5015
34.5800 -23.0219 -0.5034
34.6000 -23.0352 -0.5018
34.6200 -23.0486 -0.5030
34.6400 -23.0620 -0.4994
34.6600 -23.0753 -0.4994
34.6800 -23.0886 -0.4988
34.7000 -23.1019 -0.4987
34.7200 -23.1153 -0.4966
34.7400 -23.1286 -0.4977
34.7600 -23.1419 -0.4948
34.7800 -23.1552 -0.4948
34.8000 -23.1686 -0.4951
34.8200 -23.1819 -0.4960
34.8400 -23.1952 -0.4924
34.8600 -23.2085 -0.4927
34.8800 -23.2218 -0.4910
34.9000 -23.2352 -0.4897
34.9200 -23.2486 -0.4902
34.9400 -23.2619 -0.4903
34.9600 -23.2752 -0.4884
34.9800 -23.2886 -0.4906
35.0000 -23.3019 -0.4881
35.0200 -23.3153 -0.4866
35.0400 -23.3286 -0.4883
35.0600 -23.3419 -0.4868
35.0800 -23.3553 -0.4845
35.1000 -23.3686 -0.4842
35.1200 -23.3819 -0.4821
35.1400 -23.3952 -0.4790
35.1600 -23.4086 -0.4796
35.1800 -23.4219 -0.4780
35.2000 -23.4352 -0.4776
35.2200 -23.4485 -0.4769
35.2400 -23.4618 -0.4767
35.2600 -23.4752 -0.4732
35.2800 -23.4886 -0.4753
35.3000 -23.5019 -0.4740
35.3200 -23.5152 -0.4747
35.3400 -23.5286 -0.4735
35.3600 -23.5420 -0.4729
35.3800 -23.5553 -0.4676
35.4000 -23.5686 -0.4708
35.4200 -23.5819 -0.4693
35.4400 -23.5953 -0.4695
35.4600 -23.6086 -0.4691
35.4800 -23.6219 -0.4690
35.5000 -23.6352 -0.4648
35.5200 -23.6486 -0.4657
35.5400 -23.6619 -0.4651
35.5600 -23.6752 -0.4623
35.5800 -23.6885 -0.4630
35.6000 -23.7019 -0.4636
35.6200 -23.7152 -0.4613
35.6400 -23.7286 -0.4606
35.6600 -23.7419 -0.4634
35.6800 -23.7552 -0.4611
35.7000 -23.7685 -0.4623
35.7200 -23.7819 -0.4588
35.7400 -23.7952 -0.4596
35.7600 -23.8086 -0.4586
35.7800 -23.8219 -0.4579
35.8000 -23.8353 -0.4567
35.8200 -23.8486 -0.4580
35.8400 -23.8619 -0.4566
35.8600 -23.8753 -0.4557
35.8800 -23.8886 -0.4548
35.9000 -23.9019 -0.4559
35.9200 -23.9152 -0.4550
35.9400 -23.9285 -0.4558
35.9600 -23.9418 -0.4560
35.9800 -23.9552 -0.4526
36.0000 -23.9685 -0.4545
36.0200 -23.9819 -0.4552
36.0400 -23.9952 -0.4544
36.0600 -24.0085 -0.4556
36.0800 -24.0219 -0.4552
36.1000 -24.0353 -0.4554
36.1200 -24.0486 -0.4540
36.1400 -24.0619 -0.4536
36.1600 -24.0753 -0.4517
36.1800 -24.0886 -0.4543
36.2000 -24.1019 -0.4546
36.2200 -24.1153 -0.4509
36.2400 -24.1286 -0.4503
36.2600 -24.1419 -0.4528
36.2800 -24.1552 -0.4505
36.3000 -24.1685 -0.4510
36.3200 -24.1818 -0.4503
36.3400 -24.1952 -0.4480
36.3600 -24.2085 -0.4494
36.3800 -24.2219 -0.4499
36.4000 -24.2352 -0.4477
36.4200 -24.2486 -0.4459
36.4400 -24.2620 -0.4442
36.4600 -24.2753 -0.4431
36.4800 -24.2886 -0.4473
36.5000 -24.3019 -0.4440
36.5200 -24.3153 -0.4461
36.5400 -24.3286 -0.4436
36.5600 -24.3419 -0.4445
36.5800 -24.3552 -0.4398
36.6000 -24.3685 -0.4403
36.6200 -24.3818 -0.4377
36.6400 -24.3951 -0.4370
36.6600 -24.4085 -0.4384
36.6800 -24.4218 -0.4384
36.7000 -24.4352 -0.4324
36.7200 -24.4486 -0.4330
36.7400 -24.4619 -0.4326
36.7600 -24.4752 -0.4334
36.7800 -24.4886 -0.4323
36.8000 -24.5020 -0.4314
36.8200 -24.5153 -0.4300
36.8400 -24.5286 -0.4309
36.8600 -24.5419 -0.4298
36.8800 -24.5553 -0.4275
36.9000 -24.5686 -0.4287
36.9200 -24.5819 -0.4253
36.9400 -24.5952 -0.4271
36.9600 -24.6086 -0.4280
36.9800 -24.6219 -0.4295
37.0000 -24.6352 -0.4254
37.0200 -24.6485 -0.4274
37.0400 -24.6619 -0.4269
37.0600 -24.6752 -0.4249
37.0800 -24.6886 -0.4258
37.1000 -24.7019 -0.4260
37.1200 -24.7152 -0.4240
37.1400 -24.7286 -0.4230
37.1600 -24.7419 -0.4243
37.1800 -24.7553 -0.4222
37.2000 -24.7686 -0.4205
37.2200 -24.7819 -0.4233
37.2400 -24.7952 -0.4197
37.2600 -24.8086 -0.4179
37.2800 -24.8219 -0.4186
37.3000 -24.8352 -0.4161
37.3200 -24.8485 -0.4191
37.3400 -24.8619 -0.4185
37.3600 -24.8752 -0.4171
37.3800 -24.8885 -0.4160
37.4000 -24.9018 -0.4163
37.4200 -24.9152 -0.4144
37.4400 -24.9285 -0.4129
37.4600 -24.9419 -0.4154
37.4800 -24.9552 -0.4138
37.5000 -24.9686 -0.4136
37.5200 -24.9819 -0.4145
37.5400 -24.9953 -0.4097
37.5600 -25.0086 -0.4125
37.5800 -25.0219 -0.4114
37.6000 -25.0352 -0.4093
37.6200 -25.0486 -0.4085
37.6400 -25.0619 -0.4113
37.6600 -25.0752 -0.4057
37.6800 -25.0886 -0.4116
37.7000 -25.1019 -0.4094
37.7200 -25.1152 -0.4079
37.7400 -25.1285 -0.4053
37.7600 -25.1418 -0.4082
37.7800 -25.1552 -0.4053
37.8000 -25.1686 -0.4072
37.8200 -25.1819 -0.4067
37.8400 -25.1952 -0.4044
37.8600 -25.2086 -0.4020
37.8800 -25.2220 -0.4029
37.9000 -25.2353 -0.4010
37.9200 -25.2486 -0.4022
37.9400 -25.2619 -0.4021
37.9600 -25.2753 -0.4014
37.9800 -25.2887 -0.3988
38.0000 -25.3020 -0.4006
38.0200 -25.3153 -0.3969
38.0400 -25.3286 -0.3978
38.0600 -25.3419 -0.3997
38.0800 -25.3552 -0.3977
38.1000 -25.3685 -0.3971
38.1200 -25.3818 -0.3969
38.1400 -25.3952 -0.3974
38.1600 -25.4085 -0.3975
38.1800 -25.4219 -0.3989
38.2000 -25.4352 -0.3957
38.2200 -25.4485 -0.3966
38.2400 -25.4619 -0.3976
38.2600 -25.4753 -0.3967
38.2800 -25.4886 -0.3956
38.3000 -25.5019 -0.3974
38.3200 -25.5153 -0.3946
38.3400 -25.5286 -0.3936
38.3600 -25.5419 -0.3955
38.3800 -25.5552 -0.3951
38.4000 -25.5686 -0.3937
38.4200 -25.5819 -0.3954
38.4400 -25.5952 -0.3941
38.4600 -25.6085 -0.3950
38.4800 -25.6218 -0.3916
38.5000 -25.6351 -0.3903
38.5200 -25.6485 -0.3899
38.5400 -25.6619 -0.3932
38.5600 -25.6752 -0.3885
38.5800 -25.6886 -0.3887
38.6000 -25.7020 -0.3882
38.6200 -25.7153 -0.3857
38.6400 -25.7286 -0.3859
38.6600 -25.7419 -0.3861
38.6800 -25.7552 -0.3844
38.7000 -25.7686 -0.3845
38.7200 -25.7819 -0.3832
38.7400 -25.7952 -0.3830
38.7600 -25.8085 -0.3817
38.7800 -25.8219 -0.3819
38.8000 -25.8352 -0.3792
38.8200 -25.8485 -0.3787
38.8400 -25.8618 -0.3827
38.8600 -25.8752 -0.3793
38.8800 -25.8886 -0.3803
38.9000 -25.9019 -0.3793
38.9200 -25.9152 -0.3789
38.9400 -25.9286 -0.3784
38.9600 -25.9419 -0.3783
38.9800 -25.9553 -0.3755
39.0000 -25.9685 -0.3734
39.0200 -25.9818 -0.3752
39.0400 -25.9952 -0.3736
39.0600 -26.0086 -0.3729
39.0800 -26.0219 -0.3738
39.1000 -26.0352 -0.3733
39.1200 -26.0485 -0.3698
39.1400 -26.0619 -0.3712
39.1600 -26.0752 -0.3698
39.1800 -26.0885 -0.3724
39.2000 -26.1018 -0.3715
39.2200 -26.1152 -0.3706
39.2400 -26.1286 -0.3691
39.2600 -26.1419 -0.3690
39.2800 -26.1552 -0.3689
39.3000 -26.1686 -0.3693
39.3200 -26.1819 -0.3684
39.3400 -26.1953 -0.3668
39.3600 -26.2086 -0.3666
39.3800 -26.2219 -0.3688
39.4000 -26.2353 -0.3649
39.4200 -26.2486 -0.3639
39.4400 -26.2620 -0.3650
39.4600 -26.2753 -0.3679
39.4800 -26.2886 -0.3664
39.5000 -26.3019 -0.3661
39.5200 -26.3153 -0.3616
39.5400 -26.3285 -0.3644
39.5600 -26.3418 -0.3640
39.5800 -26.3552 -0.3648
39.6000 -26.3685 -0.3651
39.6200 -26.3819 -0.3654
39.6400 -26.3952 -0.3636
39.6600 -26.4085 -0.3626
39.6800 -26.4219 -0.3641
39.7000 -26.4353 -0.3622
39.7200 -26.4486 -0.3640
39.7400 -26.4619 -0.3627
39.7600 -26.4753 -0.3639
39.7800 -26.4886 -0.3624
39.8000 -26.5019 -0.3642
39.8200 -26.5152 -0.3624
39.8400 -26.5285 -0.3631
39.8600 -26.5419 -0.3622
39.8800 -26.5553 -0.3624
39.9000 -26.5686 -0.3594
39.9200 -26.5818 -0.3630
39.9400 -26.5952 -0.3595
39.9600 -26.6085 -0.3609
39.9800 -26.6219 -0.3603
40.0000 -26.6352 -0.3591
40.0200 -26.6485 -0.3582
40.0400 -26.6619 -0.3598
40.0600 -26.6753 -0.3582
40.0800 -26.6886 -0.3559
40.1000 -26.7019 -0.3554
40.1200 -26.7152 -0.3549
40.1400 -26.7286 -0.3530
40.1600 -26.7419 -0.3546
40.1800 -26.7553 -0.3528
40.2000 -26.7686 -0.3484
40.2200 -26.7819 -0.3507
40.2400 -26.7953 -0.3503
40.2600 -26.8086 -0.3485
40.2800 -26.8218 -0.3497
40.3000 -26.8352 -0.3462
40.3200 -26.8485 -0.3449
40.3400 -26.8619 -0.3456
40.3600 -26.8752 -0.3452
40.3800 -26.8886 -0.3437
40.4000 -26.9019 -0.3431
40.4200 -26.9153 -0.3424
40.4400 -26.9286 -0.3398
40.4600 -26.9419 -0.3424
40.4800 -26.9552 -0.3404
40.5000 -26.9686 -0.3385
40.5200 -26.9819 -0.3403
40.5400 -26.9952 -0.3391
40.5600 -27.0085 -0.3355
40.5800 -27.0219 -0.3363
40.6000 -27.0352 -0.3344
40.6200 -27.0485 -0.3338
40.6400 -27.0619 -0.3356
40.6600 -27.0752 -0.3325
40.6800 -27.0886 -0.3314
40.7000 -27.1019 -0.3316
40.7200 -27.1152 -0.3335
40.7400 -27.1286 -0.3317
40.7600 -27.1419 -0.3313
40.7800 -27.1553 -0.3290
40.8000 -27.1686 -0.3292
40.8200 -27.1819 -0.3328
40.8400 -27.1952 -0.3295
40.8600 -27.2086 -0.3296
40.8800 -27.2219 -0.3286
40.9000 -27.2352 -0.3298
40.9200 -27.2486 -0.3267
40.9400 -27.2619 -0.3305
40.9600 -27.2752 -0.3276
40.9800 -27.2885 -0.3260
41.0000 -27.3018 -0.3261
41.0200 -27.3152 -0.3271
41.0400 -27.3285 -0.3238
41.0600 -27.3419 -0.3273
41.0800 -27.3552 -0.3252
41.1000 -27.3685 -0.3256
41.1200 -27.3819 -0.3259
41.1400 -27.3952 -0.3267
41.1600 -27.4086 -0.3253
41.1800 -27.4219 -0.3254
41.2000 -27.4352 -0.3260
41.2200 -27.4486 -0.3231
41.2400 -27.4619 -0.3250
41.2600 -27.4753 -0.3233
41.2800 -27.4886 -0.3231
41.3000 -27.5019 -0.3231
41.3200 -27.5153 -0.3229
41.3400 -27.5286 -0.3203
41.3600 -27.5419 -0.3236
41.3800 -27.5552 -0.3232
41.4000 -27.5685 -0.3217
41.4200 -27.5818 -0.3210
41.4400 -27.5951 -0.3196
41.4600 -27.6085 -0.3178
41.4800 -27.6219 -0.3196
41.5000 -27.6353 -0.3205
41.5200 -27.6486 -0.3150
41.5400 -27.6619 -0.3177
41.5600 -27.6753 -0.3158
41.5800 -27.6886 -0.3165
41.6000 -27.7020 -0.3141
41.6200 -27.7153 -0.3162
41.6400 -27.7286 -0.3116
41.6600 -27.7419 -0.3142
41.6800 -27.7552 -0.3118
41.7000 -27.7686 -0.3125
41.7200 -27.7819 -0.3106
41.7400 -27.7952 -0.3115
41.7600 -27.8085 -0.3080
41.7800 -27.8219 -0.3092
41.8000 -27.8352 -0.3093
41.8200 -27.8486 -0.3080
41.8400 -27.8619 -0.3078
41.8600 -27.8753 -0.3064
41.8800 -27.8887 -0.3042
41.9000 -27.9020 -0.3074
41.9200 -27.9153 -0.3072
41.9400 -27.9286 -0.3029
41.9600 -27.9420 -0.3053
41.9800 -27.9553 -0.3052
42.0000 -27.9686 -0.3030
42.0200 -27.9819 -0.3033
42.0400 -27.9952 -0.3047
42.0600 -28.0086 -0.3008
42.0800 -28.0218 -0.3041
42.1000 -28.0351 -0.3008
42.1200 -28.0485 -0.3009
42.1400 -28.0619 -0.3011
42.1600 -28.0752 -0.3015
42.1800 -28.0886 -0.2982
42.2000 -28.1019 -0.2997
42.2200 -28.1153 -0.2992
42.2400 -28.1286 -0.2983
42.2600 -28.1419 -0.3004
42.2800 -28.1553 -0.3009
42.3000 -28.1686 -0.2963
42.3200 -28.1820 -0.2986
42.3400 -28.1953 -0.2994
42.3600 -28.2086 -0.2978
42.3800 -28.2219 -0.2992
42.4000 -28.2352 -0.3000
42.4200 -28.2485 -0.2973
42.4400 -28.2618 -0.2999
42.4600 -28.2751 -0.2976
42.4800 -28.2885 -0.2977
42.5000 -28.3019 -0.2976
42.5200 -28.3152 -0.2996
42.5400 -28.3285 -0.2954
42.5600 -28.3419 -0.2977
42.5800 -28.3553 -0.2970
42.6000 -28.3686 -0.2965
42.6200 -28.3819 -0.2967
42.6400 -28.3953 -0.2973
42.6600 -28.4086 -0.2956
42.6800 -28.4220 -0.2952
42.7000 -28.4353 -0.2951
42.7200 -28.4486 -0.2964
42.7400 -28.4619 -0.2938
42.7600 -28.4752 -0.2935
42.7800 -28.4886 -0.2908
42.8000 -28.5019 -0.2890
42.8200 -28.5152 -0.2920
42.8400 -28.5285 -0.2896
42.8600 -28.5419 -0.2898
42.8800 -28.5552 -0.2889
42.9000 -28.5685 -0.2896
42.9200 -28.5819 -0.2904
42.9400 -28.5952 -0.2882
42.9600 -28.6086 -0.2830
42.9800 -28.6219 -0.2834
43.0000 -28.6352 -0.2848
43.0200 -28.6486 -0.2842
43.0400 -28.6620 -0.2844
43.0600 -28.6753 -0.2846
43.0800 -28.6886 -0.2832
43.1000 -28.7019 -0.2836
43.1200 -28.7153 -0.2846
43.1400 -28.7286 -0.2792
43.1600 -28.7419 -0.2786
43.1800 -28.7552 -0.2780
43.2000 -28.7685 -0.2775
43.2200 -28.7819 -0.2781
43.2400 -28.7952 -0.2781
43.2600 -28.8085 -0.2739
43.2800 -28.8219 -0.2766
43.3000 -28.8352 -0.2757
43.3200 -28.8486 -0.2749
43.3400 -28.8619 -0.2749
43.3600 -28.8752 -0.2753
43.3800 -28.8886 -0.2727
43.4000 -28.9020 -0.2724
43.4200 -28.9153 -0.2742
43.4400 -28.9286 -0.2707
43.4600 -28.9419 -0.2712
43.4800 -28.9552 -0.2714
43.5000 -28.9686 -0.2685
43.5200 -28.9818 -0.2720
43.5400 -28.9951 -0.2714
43.5600 -29.0085 -0.2703
43.5800 -29.0219 -0.2705
43.6000 -29.0352 -0.2700
43.6200 -29.0485 -0.2682
43.6400 -29.0618 -0.2688
43.6600 -29.0752 -0.2699
43.6800 -29.0886 -0.2660
43.7000 -29.1020 -0.2669
43.7200 -29.1153 -0.2684
43.7400 -29.1286 -0.2677
43.7600 -29.1420 -0.2642
43.7800 -29.1553 -0.2650
43.8000 -29.1686 -0.2618
43.8200 -29.1818 -0.2632
43.8400 -29.1951 -0.2622
43.8600 -29.2085 -0.2635
43.8800 -29.2218 -0.2612
43.9000 -29.2351 -0.2614
43.9200 -29.2485 -0.2594
43.9400 -29.2619 -0.2625
43.9600 -29.2752 -0.2616
43.9800 -29.2886 -0.2595
44.0000 -29.3019 -0.2589
44.0200 -29.3153 -0.2625
44.0400 -29.3286 -0.2586
44.0600 -29.3420 -0.2608
44.0800 -29.3553 -0.2592
44.1000 -29.3686 -0.2561
44.1200 -29.3820 -0.2556
44.1400 -29.3953 -0.2563
44.1600 -29.4086 -0.2556
44.1800 -29.4219 -0.2549
44.2000 -29.4352 -0.2534
44.2200 -29.4486 -0.2512
44.2400 -29.4619 -0.2523
44.2600 -29.4752 -0.2535
44.2800 -29.4885 -0.2520
44.3000 -29.5019 -0.2531
44.3200 -29.5152 -0.2526
44.3400 -29.5285 -0.2497
44.3600 -29.5419 -0.2512
44.3800 -29.5553 -0.2515
44.4000 -29.5686 -0.2495
44.4200 -29.5819 -0.2490
44.4400 -29.5952 -0.2537
44.4600 -29.6086 -0.2483
44.4800 -29.6219 -0.2470
44.5000 -29.6353 -0.2498
44.5200 -29.6486 -0.2461
44.5400 -29.6619 -0.2438
44.5600 -29.6752 -0.2474
44.5800 -29.6886 -0.2444
44.6000 -29.7019 -0.2470
44.6200 -29.7152 -0.2458
44.6400 -29.7285 -0.2441
44.6600 -29.7419 -0.2418
44.6800 -29.7552 -0.2442
44.7000 -29.7686 -0.2442
44.7200 -29.7819 -0.2450
44.7400 -29.7952 -0.2450
44.7600 -29.8086 -0.2432
44.7800 -29.8219 -0.2424
44.8000 -29.8352 -0.2433
44.8200 -29.8486 -0.2420
44.8400 -29.8619 -0.2422
44.8600 -29.8753 -0.2416
44.8800 -29.8886 -0.2431
44.9000 -29.9019 -0.2412
44.9200 -29.9152 -0.2420
44.9400 -29.9286 -0.2391
44.9600 -29.9418 -0.2384
44.9800 -29.9551 -0.2409
45.0000 -29.9685 -0.2404
45.0200 -29.9819 -0.2410
45.0400 -29.9952 -0.2412
45.0600 -30.0086 -0.2414
45.0800 -30.0219 -0.2394
45.1000 -30.0352 -0.2395
45.1200 -30.0486 -0.2374
45.1400 -30.0619 -0.2388
45.1600 -30.0752 -0.2381
45.1800 -30.0886 -0.2382
45.2000 -30.1020 -0.2372
45.2200 -30.1153 -0.2393
45.2400 -30.1286 -0.2369
45.2600 -30.1419 -0.2362
45.2800 -30.1552 -0.2384
45.3000 -30.1686 -0.2357
45.3200 -30.1819 -0.2350
45.3400 -30.1951 -0.2357
45.3600 -30.2085 -0.2354
45.3800 -30.2218 -0.2354
45.4000 -30.2352 -0.2343
45.4200 -30.2485 -0.2346
45.4400 -30.2619 -0.2341
45.4600 -30.2752 -0.2357
45.4800 -30.2886 -0.2332
45.5000 -30.3020 -0.2332
45.5200 -30.3153 -0.2351
45.5400 -30.3286 -0.2343
45.5600 -30.3420 -0.2321
45.5800 -30.3553 -0.2314
45.6000 -30.3686 -0.2327
45.6200 -30.3819 -0.2308
45.6400 -30.3952 -0.2328
45.6600 -30.4086 -0.2273
45.6800 -30.4219 -0.2283
45.7000 -30.4352 -0.2261
45.7200 -30.4485 -0.2257
45.7400 -30.4618 -0.2247
45.7600 -30.4752 -0.2259
45.7800 -30.4885 -0.2252
45.8000 -30.5019 -0.2231
45.8200 -30.5153 -0.2242
45.8400 -30.5287 -0.2221
45.8600 -30.5420 -0.2213
45.8800 -30.5553 -0.2213
45.9000 -30.5686 -0.2213
45.9200 -30.5819 -0.2194
45.9400 -30.5953 -0.2210
45.9600 -30.6086 -0.2190
45.9800 -30.6219 -0.2184
46.0000 -30.6352 -0.2177
46.0200 -30.6485 -0.2194
46.0400 -30.6619 -0.2156
46.0600 -30.6752 -0.2187
46.0800 -30.6885 -0.2144
46.1000 -30.7019 -0.2147
46.1200 -30.7153 -0.2138
46.1400 -30.7286 -0.2136
46.1600 -30.7419 -0.2125
46.1800 -30.7552 -0.2156
46.2000 -30.7686 -0.2120
46.2200 -30.7819 -0.2122
46.2400 -30.7952 -0.2125
46.2600 -30.8085 -0.2139
46.2800 -30.8219 -0.2104
46.3000 -30.8352 -0.2113
46.3200 -30.8486 -0.2106
46.3400 -30.8619 -0.2096
46.3600 -30.8752 -0.2097
46.3800 -30.8886 -0.2088
46.4000 -30.9019 -0.2056
46.4200 -30.9152 -0.2076
46.4400 -30.9285 -0.2075
46.4600 -30.9419 -0.2058
46.4800 -30.9552 -0.2076
46.5000 -30.9685 -0.2065
46.5200 -30.9819 -0.2070
46.5400 -30.9952 -0.2066
46.5600 -31.0086 -0.2059
46.5800 -31.0220 -0.2033
46.6000 -31.0353 -0.2059
46.6200 -31.0486 -0.2048
46.6400 -31.0619 -0.2043
46.6600 -31.0753 -0.2051
46.6800 -31.0886 -0.2021
46.7000 -31.1019 -0.2023
46.7200 -31.1152 -0.2034
46.7400 -31.1286 -0.2016
46.7600 -31.1419 -0.2025
46.7800 -31.1552 -0.2022
46.8000 -31.1685 -0.2019
46.8200 -31.1819 -0.2004
46.8400 -31.1952 -0.2025
46.8600 -31.2085 -0.2005
46.8800 -31.2218 -0.2005
46.9000 -31.2352 -0.2018
46.9200 -31.2486 -0.2010
46.9400 -31.2619 -0.1979
46.9600 -31.2752 -0.1977
46.9800 -31.2886 -0.1984
47.0000 -31.3019 -0.1980
47.0200 -31.3153 -0.1966
47.0400 -31.3286 -0.1946
47.0600 -31.3419 -0.1951
47.0800 -31.3552 -0.1951
47.1000 -31.3686 -0.1959
47.1200 -31.3819 -0.1941
47.1400 -31.3952 -0.1983
47.1600 -31.4085 -0.1971
47.1800 -31.4218 -0.1933
47.2000 -31.4352 -0.1925
47.2200 -31.4486 -0.1922
47.2400 -31.4619 -0.1900
47.2600 -31.4752 -0.1911
47.2800 -31.4886 -0.1911
47.3000 -31.5019 -0.1874
47.3200 -31.5152 -0.1885
47.3400 -31.5286 -0.1896
47.3600 -31.5419 -0.1890
47.3800 -31.5553 -0.1886
47.4000 -31.5686 -0.1856
47.4200 -31.5819 -0.1868
47.4400 -31.5953 -0.1865
47.4600 -31.6086 -0.1858
47.4800 -31.6219 -0.1846
47.5000 -31.6352 -0.1853
47.5200 -31.6485 -0.1833
47.5400 -31.6619 -0.1840
47.5600 -31.6752 -0.1820
47.5800 -31.6886 -0.1827
47.6000 -31.7019 -0.1840
47.6200 -31.7152 -0.1816
47.6400 -31.7286 -0.1830
47.6600 -31.7420 -0.1792
47.6800 -31.7553 -0.1818
47.7000 -31.7686 -0.1792
47.7200 -31.7819 -0.1798
47.7400 -31.7953 -0.1799
47.7600 -31.8086 -0.1788
47.7800 -31.8219 -0.1748
47.8000 -31.8352 -0.1766
47.8200 -31.8485 -0.1774
47.8400 -31.8619 -0.1765
47.8600 -31.8752 -0.1776
47.8800 -31.8885 -0.1745
47.9000 -31.9019 -0.1736
47.9200 -31.9152 -0.1710
47.9400 -31.9286 -0.1722
47.9600 -31.9419 -0.1727
47.9800 -31.9552 -0.1728
48.0000 -31.9686 -0.1736
48.0200 -31.9820 -0.1691
48.0400 -31.9953 -0.1698
48.0600 -32.0086 -0.1717
48.0800 -32.0219 -0.1711
48.1000 -32.0353 -0.1694
48.1200 -32.0486 -0.1698
48.1400 -32.0619 -0.1668
48.1600 -32.0752 -0.1675
48.1800 -32.0885 -0.1668
48.2000 -32.1019 -0.1647
48.2200 -32.1152 -0.1650
48.2400 -32.1285 -0.1656
48.2600 -32.1419 -0.1653
48.2800 -32.1552 -0.1655
48.3000 -32.1685 -0.1653
48.3200 -32.1818 -0.1633
48.3400 -32.1952 -0.1650
48.3600 -32.2086 -0.1654
48.3800 -32.2220 -0.1647
48.4000 -32.2353 -0.1631
48.4200 -32.2486 -0.1644
48.4400 -32.2619 -0.1631
48.4600 -32.2753 -0.1644
48.4800 -32.2886 -0.1623
48.5000 -32.3019 -0.1626
48.5200 -32.3153 -0.1607
48.5400 -32.3286 -0.1630
48.5600 -32.3419 -0.1611
48.5800 -32.3552 -0.1618
48.6000 -32.3685 -0.1580
48.6200 -32.3818 -0.1601
48.6400 -32.3952 -0.1585
48.6600 -32.4085 -0.1596
48.6800 -32.4218 -0.1596
48.7000 -32.4352 -0.1597
48.7200 -32.4486 -0.1586
48.7400 -32.4619 -0.1578
48.7600 -32.4753 -0.1581
48.7800 -32.4886 -0.1569
48.8000 -32.5019 -0.1559
48.8200 -32.5153 -0.1557
48.8400 -32.5287 -0.1578
48.8600 -32.5420 -0.1550
48.8800 -32.5553 -0.1565
48.9000 -32.5686 -0.1548
48.9200 -32.5819 -0.1560
48.9400 -32.5952 -0.1519
48.9600 -32.6085 -0.1534
48.9800 -32.6218 -0.1508
49.0000 -32.6352 -0.1512
49.0200 -32.6486 -0.1517
49.0400 -32.6619 -0.1511
49.0600 -32.6752 -0.1469
49.0800 -32.6886 -0.1466
49.1000 -32.7020 -0.1464
49.1200 -32.7153 -0.1484
49.1400 -32.7286 -0.1465
49.1600 -32.7419 -0.1444
49.1800 -32.7553 -0.1447
49.2000 -32.7686 -0.1437
49.2200 -32.7819 -0.1448
49.2400 -32.7952 -0.1440
49.2600 -32.8086 -0.1446
49.2800 -32.8219 -0.1399
49.3000 -32.8352 -0.1438
49.3200 -32.8485 -0.1437
49.3400 -32.8618 -0.1400
49.3600 -32.8752 -0.1394
49.3800 -32.8885 -0.1400
49.4000 -32.9019 -0.1382
49.4200 -32.9152 -0.1402
49.4400 -32.9286 -0.1386
49.4600 -32.9419 -0.1374
49.4800 -32.9553 -0.1356
49.5000 -32.9686 -0.1359
49.5200 -32.9819 -0.1341
49.5400 -32.9953 -0.1363
49.5600 -33.0086 -0.1360
49.5800 -33.0219 -0.1363
49.6000 -33.0352 -0.1347
49.6200 -33.0486 -0.1317
49.6400 -33.0619 -0.1346
49.6600 -33.0752 -0.1357
49.6800 -33.0885 -0.1321
49.7000 -33.1018 -0.1318
49.7200 -33.1152 -0.1327
49.7400 -33.1285 -0.1315
49.7600 -33.1418 -0.1316
49.7800 -33.1552 -0.1310
49.8000 -33.1686 -0.1310
49.8200 -33.1820 -0.1304
49.8400 -33.1953 -0.1327
49.8600 -33.2086 -0.1327
49.8800 -33.2220 -0.1302
49.9000 -33.2353 -0.1296
49.9200 -33.2486 -0.1297
49.9400 -33.2619 -0.1305
49.9600 -33.2752 -0.1291
49.9800 -33.2886 -0.1281
50.0000 -33.3019 -0.1294
50.0200 -33.3152 -0.1277
50.0400 -33.3285 -0.1294
50.0600 -33.3419 -0.1268
50.0800 -33.3552 -0.1274
50.1000 -33.3686 -0.1255
50.1200 -33.3819 -0.1257
50.1400 -33.3952 -0.1233
50.1600 -33.4085 -0.1241
50.1800 -33.4219 -0.1216
50.2000 -33.4352 -0.1234
50.2200 -33.4486 -0.1236
50.2400 -33.4619 -0.1242
50.2600 -33.4753 -0.1223
50.2800 -33.4886 -0.1226
50.3000 -33.5020 -0.1232
50.3200 -33.5153 -0.1205
50.3400 -33.5286 -0.1201
50.3600 -33.5420 -0.1179
50.3800 -33.5553 -0.1178
50.4000 -33.5685 -0.1178
50.4200 -33.5818 -0.1190
50.4400 -33.5952 -0.1172
50.4600 -33.6085 -0.1158
50.4800 -33.6219 -0.1164
50.5000 -33.6352 -0.1166
50.5200 -33.6485 -0.1158
50.5400 -33.6619 -0.1155
50.5600 -33.6753 -0.1141
50.5800 -33.6886 -0.1162
50.6000 -33.7019 -0.1164
50.6200 -33.7153 -0.1145
50.6400 -33.7286 -0.1131
50.6600 -33.7419 -0.1139
50.6800 -33.7553 -0.1132
50.7000 -33.7686 -0.1124
50.7200 -33.7819 -0.1103
50.7400 -33.7952 -0.1100
50.7600 -33.8085 -0.1093
50.7800 -33.8218 -0.1108
50.8000 -33.8352 -0.1081
50.8200 -33.8485 -0.1112
50.8400 -33.8619 -0.1114
50.8600 -33.8752 -0.1088
50.8800 -33.8885 -0.1068
50.9000 -33.9019 -0.1067
50.9200 -33.9153 -0.1062
50.9400 -33.9286 -0.1055
50.9600 -33.9419 -0.1057
50.9800 -33.9553 -0.1046
51.0000 -33.9686 -0.1041
51.0200 -33.9819 -0.1042
51.0400 -33.9952 -0.1037
51.0600 -34.0085 -0.1033
51.0800 -34.0218 -0.1030
51.1000 -34.0351 -0.1027
51.1200 -34.0485 -0.1028
51.1400 -34.0618 -0.1018
51.1600 -34.0752 -0.0991
51.1800 -34.0886 -0.1013
51.2000 -34.1019 -0.0998
51.2200 -34.1152 -0.0984
51.2400 -34.1286 -0.0989
51.2600 -34.1420 -0.0979
51.2800 -34.1553 -0.0977
51.3000 -34.1686 -0.0959
51.3200 -34.1819 -0.0982
51.3400 -34.1953 -0.0966
51.3600 -34.2086 -0.0967
51.3800 -34.2220 -0.0944
51.4000 -34.2353 -0.0947
51.4200 -34.2486 -0.0930
51.4400 -34.2619 -0.0923
51.4600 -34.2753 -0.0907
51.4800 -34.2886 -0.0903
51.5000 -34.3019 -0.0875
51.5200 -34.3152 -0.0883
51.5400 -34.3286 -0.0877
51.5600 -34.3419 -0.0890
51.5800 -34.3552 -0.0876
51.6000 -34.3686 -0.0862
51.6200 -34.3819 -0.0868
51.6400 -34.3953 -0.0847
51.6600 -34.4086 -0.0859
51.6800 -34.4219 -0.0862
51.7000 -34.4352 -0.0866
51.7200 -34.4486 -0.0844
51.7400 -34.4619 -0.0858
51.7600 -34.4752 -0.0834
51.7800 -34.4886 -0.0842
51.8000 -34.5019 -0.0832
51.8200 -34.5152 -0.0834
51.8400 -34.5285 -0.0817
51.8600 -34.5418 -0.0850
51.8800 -34.5551 -0.0833
51.9000 -34.5685 -0.0824
51.9200 -34.5819 -0.0827
51.9400 -34.5952 -0.0842
51.9600 -34.6085 -0.0842
51.9800 -34.6219 -0.0858
52.0000 -34.6353 -0.0837
52.0200 -34.6486 -0.0835
52.0400 -34.6619 -0.0849
52.0600 -34.6752 -0.0842
52.0800 -34.6886 -0.0827
52.1000 -34.7019 -0.0840
52.1200 -34.7152 -0.0834
52.1400 -34.7285 -0.0815
52.1600 -34.7419 -0.0839
52.1800 -34.7552 -0.0814
52.2000 -34.7685 -0.0820
52.2200 -34.7818 -0.0818
52.2400 -34.7952 -0.0833
52.2600 -34.8086 -0.0814
52.2800 -34.8219 -0.0813
52.3000 -34.8352 -0.0791
52.3200 -34.8486 -0.0776
52.3400 -34.8619 -0.0786
52.3600 -34.8753 -0.0788
52.3800 -34.8886 -0.0774
52.4000 -34.9019 -0.0763
52.4200 -34.9153 -0.0723
52.4400 -34.9287 -0.0706
52.4600 -34.9420 -0.0711
52.4800 -34.9553 -0.0721
52.5000 -34.9686 -0.0728
52.5200 -34.9819 -0.0699
52.5400 -34.9952 -0.0699
52.5600 -35.0085 -0.0691
52.5800 -35.0218 -0.0693
52.6000 -35.0351 -0.0682
52.6200 -35.0485 -0.0652
52.6400 -35.0619 -0.0665
52.6600 -35.0752 -0.0669
52.6800 -35.0886 -0.0646
52.7000 -35.1020 -0.0645
52.7200 -35.1153 -0.0628
52.7400 -35.1286 -0.0618
52.7600 -35.1420 -0.0644
52.7800 -35.1553 -0.0603
52.8000 -35.1686 -0.0609
52.8200 -35.1820 -0.0607
52.8400 -35.1952 -0.0620
52.8600 -35.2085 -0.0601
52.8800 -35.2219 -0.0588
52.9000 -35.2352 -0.0586
52.9200 -35.2485 -0.0562
52.9400 -35.2618 -0.0572
52.9600 -35.2751 -0.0568
52.9800 -35.2885 -0.0566
53.0000 -35.3019 -0.0555
53.0200 -35.3152 -0.0547
53.0400 -35.3286 -0.0527
53.0600 -35.3419 -0.0528
53.0800 -35.3553 -0.0515
53.1000 -35.3686 -0.0546
53.1200 -35.3819 -0.0527
53.1400 -35.3952 -0.0531
53.1600 -35.4086 -0.0497
53.1800 -35.4219 -0.0514
53.2000 -35.4352 -0.0504
53.2200 -35.4485 -0.0496
53.2400 -35.4619 -0.0503
53.2600 -35.4752 -0.0512
53.2800 -35.4885 -0.0494
53.3000 -35.5018 -0.0489
53.3200 -35.5152 -0.0492
53.3400 -35.5286 -0.0465
53.3600 -35.5419 -0.0462
53.3800 -35.5553 -0.0471
53.4000 -35.5686 -0.0470
53.4200 -35.5819 -0.0450
53.4400 -35.5953 -0.0454
53.4600 -35.6086 -0.0427
53.4800 -35.6218 -0.0443
53.5000 -35.6352 -0.0443
53.5200 -35.6485 -0.0419
53.5400 -35.6619 -0.0411
53.5600 -35.6752 -0.0418
53.5800 -35.6886 -0.0423
53.6000 -35.7019 -0.0407
53.6200 -35.7153 -0.0407
53.6400 -35.7286 -0.0383
53.6600 -35.7419 -0.0403
53.6800 -35.7552 -0.0400
53.7000 -35.7685 -0.0371
53.7200 -35.7819 -0.0373
53.7400 -35.7952 -0.0402
53.7600 -35.8086 -0.0353
53.7800 -35.8219 -0.0348
53.8000 -35.8353 -0.0336
53.8200 -35.8486 -0.0326
53.8400 -35.8619 -0.0338
53.8600 -35.8752 -0.0343
53.8800 -35.8886 -0.0324
53.9000 -35.9020 -0.0339
53.9200 -35.9153 -0.0334
53.9400 -35.9286 -0.0312
53.9600 -35.9419 -0.0310
53.9800 -35.9553 -0.0332
54.0000 -35.9685 -0.0324
54.0200 -35.9818 -0.0306
54.0400 -35.9952 -0.0297
54.0600 -36.0085 -0.0265
54.0800 -36.0219 -0.0270
54.1000 -36.0352 -0.0289
54.1200 -36.0485 -0.0275
54.1400 -36.0619 -0.0282
54.1600 -36.0753 -0.0274
54.1800 -36.0886 -0.0242
54.2000 -36.1019 -0.0241
54.2200 -36.1152 -0.0267
54.2400 -36.1286 -0.0231
54.2600 -36.1420 -0.0240
54.2800 -36.1552 -0.0240
54.3000 -36.1685 -0.0234
54.3200 -36.1819 -0.0221
54.3400 -36.1952 -0.0237
54.3600 -36.2085 -0.0210
54.3800 -36.2218 -0.0223
54.4000 -36.2352 -0.0216
54.4200 -36.2485 -0.0218
54.4400 -36.2619 -0.0205
54.4600 -36.2752 -0.0217
54.4800 -36.2885 -0.0199
54.5000 -36.3019 -0.0203
54.5200 -36.3152 -0.0222
54.5400 -36.3286 -0.0184
54.5600 -36.3419 -0.0201
54.5800 -36.3552 -0.0192
54.6000 -36.3686 -0.0183
54.6200 -36.3819 -0.0172
54.6400 -36.3952 -0.0199
54.6600 -36.4086 -0.0189
54.6800 -36.4219 -0.0196
54.7000 -36.4353 -0.0177
54.7200 -36.4486 -0.0181
54.7400 -36.4618 -0.0156
54.7600 -36.4752 -0.0162
54.7800 -36.4885 -0.0131
54.8000 -36.5019 -0.0146
54.8200 -36.5152 -0.0141
54.8400 -36.5285 -0.0118
54.8600 -36.5419 -0.0109
54.8800 -36.5553 -0.0121
54.9000 -36.5686 -0.0115
54.9200 -36.5819 -0.0099
54.9400 -36.5952 -0.0098
54.9600 -36.6086 -0.0071
54.9800 -36.6219 -0.0057
55.0000 -36.6352 -0.0080
55.0200 -36.6485 -0.0041
55.0400 -36.6619 -0.0040
55.0600 -36.6752 -0.0030
55.0800 -36.6886 -0.0024
55.1000 -36.7018 -0.0025
55.1200 -36.7152 -0.0044
55.1400 -36.7286 -0.0007
55.1600 -36.7419 -0.0008
55.1800 -36.7553 0.0013
55.2000 -36.7686 -0.0017
55.2200 -36.7819 0.0001
55.2400 -36.7953 -0.0006
55.2600 -36.8086 0.0022
55.2800 -36.8219 0.0023
55.3000 -36.8352 -0.0005
55.3200 -36.8486 0.0030
55.3400 -36.8619 0.0049
55.3600 -36.8752 0.0050
55.3800 -36.8885 0.0071
55.4000 -36.9019 0.0073
55.4200 -36.9152 0.0044
55.4400 -36.9286 0.0086
55.4600 -36.9419 0.0061
55.4800 -36.9552 0.0076
55.5000 -36.9686 0.0078
55.5200 -36.9819 0.0118
55.5400 -36.9952 0.0081
55.5600 -37.0085 0.0096
55.5800 -37.0219 0.0111
55.6000 -37.0353 0.0129
55.6200 -37.0486 0.0140
55.6400 -37.0619 0.0132
55.6600 -37.0752 0.0124
55.6800 -37.0886 0.0139
55.7000 -37.1019 0.0137
55.7200 -37.1153 0.0136
55.7400 -37.1286 0.0164
55.7600 -37.1419 0.0165
55.7800 -37.1553 0.0152
55.8000 -37.1686 0.0161
55.8200 -37.1819 0.0182
55.8400 -37.1952 0.0153
55.8600 -37.2085 0.0181
55.8800 -37.2218 0.0166
55.9000 -37.2351 0.0182
55.9200 -37.2485 0.0188
55.9400 -37.2618 0.0192
55.9600 -37.2752 0.0175
55.9800 -37.2886 0.0211
56.0000 -37.3019 0.0203
56.0200 -37.3153 0.0204
56.0400 -37.3286 0.0234
56.0600 -37.3420 0.0234
56.0800 -37.3553 0.0211
56.1000 -37.3686 0.0236
56.1200 -37.3819 0.0257
56.1400 -37.3952 0.0232
56.1600 -37.4086 0.0255
56.1800 -37.4218 0.0242
56.2000 -37.4352 0.0246
56.2200 -37.4485 0.0270
56.2400 -37.4619 0.0270
56.2600 -37.4752 0.0266
56.2800 -37.4886 0.0282
56.3000 -37.5019 0.0282
56.3200 -37.5153 0.0289
56.3400 -37.5286 0.0276
56.3600 -37.5419 0.0301
56.3800 -37.5552 0.0296
56.4000 -37.5686 0.0319
56.4200 -37.5820 0.0323
56.4400 -37.5953 0.0314
56.4600 -37.6086 0.0331
56.4800 -37.6219 0.0369
56.5000 -37.6352 0.0354
56.5200 -37.6486 0.0385
56.5400 -37.6618 0.0379
56.5600 -37.6751 0.0386
56.5800 -37.6885 0.0382
56.6000 -37.7019 0.0430
56.6200 -37.7152 0.0391
56.6400 -37.7286 0.0427
56.6600 -37.7419 0.0411
56.6800 -37.7553 0.0413
56.7000 -37.7686 0.0419
56.7200 -37.7819 0.0422
56.7400 -37.7952 0.0404
56.7600 -37.8086 0.0427
56.7800 -37.8220 0.0434
56.8000 -37.8353 0.0432
56.8200 -37.8486 0.0439
56.8400 -37.8619 0.0451
56.8600 -37.8753 0.0449
56.8800 -37.8886 0.0446
56.9000 -37.9018 0.0467
56.9200 -37.9151 0.0457
56.9400 -37.9285 0.0467
56.9600 -37.9419 0.0474
56.9800 -37.9552 0.0454
57.0000 -37.9685 0.0454
57.0200 -37.9819 0.0475
57.0400 -37.9953 0.0465
57.0600 -38.0087 0.0489
57.0800 -38.0220 0.0491
57.1000 -38.0353 0.0498
57.1200 -38.0486 0.0503
57.1400 -38.0620 0.0536
57.1600 -38.0753 0.0529
57.1800 -38.0886 0.0545
57.2000 -38.1019 0.0542
57.2200 -38.1153 0.0538
57.2400 -38.1286 0.0558
57.2600 -38.1419 0.0570
57.2800 -38.1552 0.0553
57.3000 -38.1685 0.0587
57.3200 -38.1819 0.0599
57.3400 -38.1952 0.0591
57.3600 -38.2085 0.0589
57.3800 -38.2219 0.0586
57.4000 -38.2352 0.0564
57.4200 -38.2486 0.0596
57.4400 -38.2619 0.0622
57.4600 -38.2752 0.0616
57.4800 -38.2886 0.0627
57.5000 -38.3019 0.0643
57.5200 -38.3153 0.0626
57.5400 -38.3286 0.0646
57.5600 -38.3419 0.0651
57.5800 -38.3553 0.0650
57.6000 -38.3686 0.0629
57.6200 -38.3819 0.0659
57.6400 -38.3952 0.0649
57.6600 -38.4085 0.0662
57.6800 -38.4219 0.0660
57.7000 -38.4352 0.0669
57.7200 -38.4485 0.0684
57.7400 -38.4618 0.0709
57.7600 -38.4752 0.0688
57.7800 -38.4886 0.0710
57.8000 -38.5019 0.0723
57.8200 -38.5152 0.0716
57.8400 -38.5286 0.0734
57.8600 -38.5420 0.0735
57.8800 -38.5553 0.0750
57.9000 -38.5686 0.0748
57.9200 -38.5819 0.0754
57.9400 -38.5952 0.0769
57.9600 -38.6086 0.0781
57.9800 -38.6219 0.0797
58.0000 -38.6352 0.0767
58.0200 -38.6485 0.0776
58.0400 -38.6619 0.0774
58.0600 -38.6752 0.0782
58.0800 -38.6885 0.0776
58.1000 -38.7019 0.0813
58.1200 -38.7152 0.0783
58.1400 -38.7286 0.0821
58.1600 -38.7420 0.0821
58.1800 -38.7553 0.0817
58.2000 -38.7686 0.0817
58.2200 -38.7820 0.0865
58.2400 -38.7953 0.0835
58.2600 -38.8086 0.0865
58.2800 -38.8218 0.0882
58.3000 -38.8351 0.0848
58.3200 -38.8485 0.0866
58.3400 -38.8618 0.0891
58.3600 -38.8751 0.0879
58.3800 -38.8885 0.0893
58.4000 -38.9019 0.0920
58.4200 -38.9152 0.0924
58.4400 -38.9286 0.0914
58.4600 -38.9419 0.0917
58.4800 -38.9553 0.0898
58.5000 -38.9686 0.0908
58.5200 -38.9820 0.0950
58.5400 -38.9953 0.0938
58.5600 -39.0086 0.0950
58.5800 -39.0219 0.0965
58.6000 -39.0353 0.0977
58.6200 -39.0486 0.0961
58.6400 -39.0619 0.1012
58.6600 -39.0752 0.0980
58.6800 -39.0886 0.0989
58.7000 -39.1019 0.0977
58.7200 -39.1152 0.1010
58.7400 -39.1285 0.0991
58.7600 -39.1419 0.1042
58.7800 -39.1552 0.0992
58.8000 -39.1685 0.1035
58.8200 -39.1819 0.0999
58.8400 -39.1952 0.1035
58.8600 -39.2086 0.1032
58.8800 -39.2219 0.1089
58.9000 -39.2352 0.1066
58.9200 -39.2486 0.1090
58.9400 -39.2619 0.1082
58.9600 -39.2753 0.1100
58.9800 -39.2886 0.1103
59.0000 -39.3019 0.1110
59.0200 -39.3152 0.1102
59.0400 -39.3286 0.1099
59.0600 -39.3419 0.1132
59.0800 -39.3552 0.1122
59.1000 -39.3685 0.1149
59.1200 -39.3819 0.1139
59.1400 -39.3952 0.1152
59.1600 -39.4086 0.1134
59.1800 -39.4219 0.1162
59.2000 -39.4352 0.1162
59.2200 -39.4486 0.1198
59.2400 -39.4620 0.1213
59.2600 -39.4753 0.1187
59.2800 -39.4886 0.1199
59.3000 -39.5019 0.1214
59.3200 -39.5153 0.1213
59.3400 -39.5286 0.1196
59.3600 -39.5419 0.1234
59.3800 -39.5552 0.1224
59.4000 -39.5686 0.1228
59.4200 -39.5819 0.1230
59.4400 -39.5952 0.1233
59.4600 -39.6085 0.1241
59.4800 -39.6219 0.1248
59.5000 -39.6352 0.1257
59.5200 -39.6486 0.1256
59.5400 -39.6619 0.1291
59.5600 -39.6752 0.1280
59.5800 -39.6886 0.1289
59.6000 -39.7019 0.1305
59.6200 -39.7152 0.1283
59.6400 -39.7286 0.1271
59.6600 -39.7419 0.1289
59.6800 -39.7553 0.1310
59.7000 -39.7686 0.1303
59.7200 -39.7819 0.1342
59.7400 -39.7952 0.1326
59.7600 -39.8086 0.1326
59.7800 -39.8219 0.1329
59.8000 -39.8351 0.1351
59.8200 -39.8485 0.1329
59.8400 -39.8618 0.1350
59.8600 -39.8752 0.1347
59.8800 -39.8885 0.1355
59.9000 -39.9018 0.1368
59.9200 -39.9152 0.1372
59.9400 -39.9286 0.1369
59.9600 -39.9420 0.1402
59.9800 -39.9553 0.1408
60.0000 -39.9686 0.1412
60.0200 -39.9819 0.1429
60.0400 -39.9953 0.1426
60.0480 -40.0005 0.1460
