Raw Data
Time Displacement Force
(s) (mm) (N)
0.0000 0.0000 0.4363
0.0200 -0.0001 0.4336
0.0400 -0.0020 0.4090
0.0600 -0.0093 0.3768
0.0800 -0.0212 0.3386
0.1000 -0.0338 0.2883
0.1200 -0.0466 0.2377
0.1400 -0.0598 0.1862
0.1600 -0.0737 0.1368
0.1800 -0.0878 0.0849
0.2000 -0.1017 0.0371
0.2200 -0.1153 -0.0106
0.2400 -0.1286 -0.0422
0.2600 -0.1420 -0.0705
0.2800 -0.1554 -0.1154
0.3000 -0.1687 -0.1727
0.3200 -0.1821 -0.2322
0.3400 -0.1954 -0.2865
0.3600 -0.2088 -0.3421
0.3800 -0.2222 -0.3905
0.4000 -0.2354 -0.4353
0.4200 -0.2487 -0.4827
0.4400 -0.2620 -0.5233
0.4600 -0.2753 -0.5399
0.4800 -0.2887 -0.5423
0.5000 -0.3020 -0.5415
0.5200 -0.3153 -0.5373
0.5400 -0.3287 -0.5383
0.5600 -0.3421 -0.5384
0.5800 -0.3554 -0.5372
0.6000 -0.3688 -0.5384
0.6200 -0.3821 -0.5370
0.6400 -0.3955 -0.5353
0.6600 -0.4088 -0.5349
0.6800 -0.4221 -0.5345
0.7000 -0.4354 -0.5342
0.7200 -0.4488 -0.5349
0.7400 -0.4621 -0.5353
0.7600 -0.4754 -0.5330
0.7800 -0.4888 -0.5334
0.8000 -0.5021 -0.5328
0.8200 -0.5154 -0.5308
0.8400 -0.5287 -0.5311
0.8600 -0.5420 -0.5302
0.8800 -0.5553 -0.5288
0.9000 -0.5687 -0.5288
0.9200 -0.5820 -0.5287
0.9400 -0.5953 -0.5275
0.9600 -0.6087 -0.5274
0.9800 -0.6220 -0.5271
1.0000 -0.6354 -0.5278
1.0200 -0.6487 -0.5248
1.0400 -0.6620 -0.5257
1.0600 -0.6754 -0.5218
1.0800 -0.6888 -0.5228
1.1000 -0.7021 -0.5207
1.1200 -0.7154 -0.5223
1.1400 -0.7287 -0.5215
1.1600 -0.7421 -0.5227
1.1800 -0.7554 -0.5205
1.2000 -0.7687 -0.5217
1.2200 -0.7820 -0.5181
1.2400 -0.7953 -0.5157
1.2600 -0.8087 -0.5133
1.2800 -0.8221 -0.5157
1.3000 -0.8354 -0.5138
1.3200 -0.8487 -0.5141
1.3400 -0.8621 -0.5152
1.3600 -0.8755 -0.5111
1.3800 -0.8888 -0.5115
1.4000 -0.9021 -0.5142
1.4200 -0.9154 -0.5103
1.4400 -0.9288 -0.5110
1.4600 -0.9421 -0.5098
1.4800 -0.9554 -0.5062
1.5000 -0.9687 -0.5061
1.5200 -0.9821 -0.5053
1.5400 -0.9954 -0.5031
1.5600 -1.0087 -0.5030
1.5800 -1.0220 -0.5034
1.6000 -1.0353 -0.5002
1.6200 -1.0487 -0.5005
1.6400 -1.0621 -0.5003
1.6600 -1.0754 -0.4980
1.6800 -1.0887 -0.5008
1.7000 -1.1021 -0.4996
1.7200 -1.1155 -0.4947
1.7400 -1.1288 -0.4959
1.7600 -1.1421 -0.4962
1.7800 -1.1555 -0.4958
1.8000 -1.1688 -0.4932
1.8200 -1.1822 -0.4938
1.8400 -1.1955 -0.4894
1.8600 -1.2088 -0.4905
1.8800 -1.2221 -0.4916
1.9000 -1.2354 -0.4893
1.9200 -1.2487 -0.4888
1.9400 -1.2620 -0.4899
1.9600 -1.2753 -0.4861
1.9800 -1.2887 -0.4858
2.0000 -1.3021 -0.4854
2.0200 -1.3154 -0.4846
2.0400 -1.3287 -0.4842
2.0600 -1.3421 -0.4856
2.0800 -1.3555 -0.4824
2.1000 -1.3688 -0.4819
2.1200 -1.3821 -0.4826
2.1400 -1.3955 -0.4796
2.1600 -1.4088 -0.4756
2.1800 -1.4221 -0.4753
2.2000 -1.4355 -0.4756
2.2200 -1.4487 -0.4771
2.2400 -1.4621 -0.4778
2.2600 -1.4754 -0.4731
2.2800 -1.4887 -0.4710
2.3000 -1.5020 -0.4740
2.3200 -1.5153 -0.4743
2.3400 -1.5287 -0.4723
2.3600 -1.5420 -0.4713
2.3800 -1.5554 -0.4704
2.4000 -1.5687 -0.4719
2.4200 -1.5821 -0.4729
2.4400 -1.5955 -0.4706
2.4600 -1.6088 -0.4676
2.4800 -1.6221 -0.4689
2.5000 -1.6354 -0.4661
2.5200 -1.6488 -0.4680
2.5400 -1.6621 -0.4704
2.5600 -1.6754 -0.4653
2.5800 -1.6887 -0.4618
2.6000 -1.7021 -0.4621
2.6200 -1.7154 -0.4621
2.6400 -1.7287 -0.4626
2.6600 -1.7420 -0.4646
2.6800 -1.7554 -0.4593
2.7000 -1.7687 -0.4586
2.7200 -1.7821 -0.4602
2.7400 -1.7954 -0.4591
2.7600 -1.8087 -0.4564
2.7800 -1.8221 -0.4563
2.8000 -1.8355 -0.4517
2.8200 -1.8488 -0.4518
2.8400 -1.8621 -0.4530
2.8600 -1.8753 -0.4558
2.8800 -1.8887 -0.4526
2.9000 -1.9021 -0.4526
2.9200 -1.9154 -0.4516
2.9400 -1.9287 -0.4519
2.9600 -1.9421 -0.4510
2.9800 -1.9554 -0.4506
3.0000 -1.9688 -0.4489
3.0200 -1.9821 -0.4518
3.0400 -1.9954 -0.4475
3.0600 -2.0087 -0.4492
3.0800 -2.0221 -0.4476
3.1000 -2.0354 -0.4475
3.1200 -2.0487 -0.4444
3.1400 -2.0621 -0.4482
3.1600 -2.0755 -0.4448
3.1800 -2.0888 -0.4420
3.2000 -2.1021 -0.4439
3.2200 -2.1154 -0.4424
3.2400 -2.1288 -0.4436
3.2600 -2.1422 -0.4436
3.2800 -2.1555 -0.4409
3.3000 -2.1688 -0.4383
3.3200 -2.1821 -0.4398
3.3400 -2.1955 -0.4371
3.3600 -2.2088 -0.4387
3.3800 -2.2221 -0.4368
3.4000 -2.2353 -0.4394
3.4200 -2.2487 -0.4334
3.4400 -2.2621 -0.4371
3.4600 -2.2754 -0.4338
3.4800 -2.2887 -0.4332
3.5000 -2.3021 -0.4344
3.5200 -2.3154 -0.4329
3.5400 -2.3288 -0.4308
3.5600 -2.3421 -0.4326
3.5800 -2.3554 -0.4302
3.6000 -2.3688 -0.4292
3.6200 -2.3821 -0.4296
3.6400 -2.3954 -0.4288
3.6600 -2.4087 -0.4284
3.6800 -2.4221 -0.4286
3.7000 -2.4354 -0.4262
3.7200 -2.4488 -0.4236
3.7400 -2.4621 -0.4278
3.7600 -2.4753 -0.4236
3.7800 -2.4887 -0.4228
3.8000 -2.5021 -0.4231
3.8200 -2.5154 -0.4198
3.8400 -2.5287 -0.4208
3.8600 -2.5420 -0.4224
3.8800 -2.5554 -0.4222
3.9000 -2.5688 -0.4196
3.9200 -2.5821 -0.4208
3.9400 -2.5954 -0.4172
3.9600 -2.6087 -0.4174
3.9800 -2.6221 -0.4165
4.0000 -2.6355 -0.4178
4.0200 -2.6488 -0.4159
4.0400 -2.6621 -0.4178
4.0600 -2.6754 -0.4146
4.0800 -2.6888 -0.4126
4.1000 -2.7021 -0.4146
4.1200 -2.7154 -0.4137
4.1400 -2.7287 -0.4133
4.1600 -2.7421 -0.4131
4.1800 -2.7554 -0.4142
4.2000 -2.7688 -0.4113
4.2200 -2.7821 -0.4130
4.2400 -2.7954 -0.4097
4.2600 -2.8088 -0.4102
4.2800 -2.8221 -0.4101
4.3000 -2.8354 -0.4083
4.3200 -2.8488 -0.4070
4.3400 -2.8621 -0.4088
4.3600 -2.8754 -0.4061
4.3800 -2.8887 -0.4077
4.4000 -2.9021 -0.4071
4.4200 -2.9154 -0.4058
4.4400 -2.9288 -0.4050
4.4600 -2.9421 -0.4038
4.4800 -2.9554 -0.4038
4.5000 -2.9687 -0.4021
4.5200 -2.9821 -0.4041
4.5400 -2.9954 -0.4009
4.5600 -3.0088 -0.4001
4.5800 -3.0221 -0.4016
4.6000 -3.0354 -0.4003
4.6200 -3.0488 -0.3977
4.6400 -3.0621 -0.3993
4.6600 -3.0754 -0.3971
4.6800 -3.0887 -0.3956
4.7000 -3.1021 -0.3976
4.7200 -3.1155 -0.3976
4.7400 -3.1288 -0.3941
4.7600 -3.1421 -0.3961
4.7800 -3.1554 -0.3953
4.8000 -3.1688 -0.3919
4.8200 -3.1821 -0.3941
4.8400 -3.1954 -0.3913
4.8600 -3.2087 -0.3905
4.8800 -3.2221 -0.3916
4.9000 -3.2354 -0.3905
4.9200 -3.2487 -0.3902
4.9400 -3.2621 -0.3906
4.9600 -3.2754 -0.3885
4.9800 -3.2888 -0.3868
5.0000 -3.3021 -0.3879
5.0200 -3.3154 -0.3873
5.0400 -3.3287 -0.3846
5.0600 -3.3421 -0.3847
5.0800 -3.3555 -0.3827
5.1000 -3.3688 -0.3826
5.1200 -3.3821 -0.3834
5.1400 -3.3955 -0.3819
5.1600 -3.4088 -0.3792
5.1800 -3.4221 -0.3817
5.2000 -3.4354 -0.3789
5.2200 -3.4487 -0.3788
5.2400 -3.4620 -0.3779
5.2600 -3.4753 -0.3782
5.2800 -3.4886 -0.3747
5.3000 -3.5020 -0.3787
5.3200 -3.5154 -0.3750
5.3400 -3.5288 -0.3747
5.3600 -3.5421 -0.3742
5.3800 -3.5554 -0.3766
5.4000 -3.5688 -0.3735
5.4200 -3.5822 -0.3760
5.4400 -3.5955 -0.3722
5.4600 -3.6088 -0.3727
5.4800 -3.6221 -0.3715
5.5000 -3.6354 -0.3719
5.5200 -3.6488 -0.3698
5.5400 -3.6621 -0.3724
5.5600 -3.6754 -0.3698
5.5800 -3.6887 -0.3675
5.6000 -3.7021 -0.3690
5.6200 -3.7154 -0.3678
5.6400 -3.7287 -0.3675
5.6600 -3.7421 -0.3679
5.6800 -3.7554 -0.3692
5.7000 -3.7688 -0.3654
5.7200 -3.7822 -0.3685
5.7400 -3.7955 -0.3659
5.7600 -3.8088 -0.3659
5.7800 -3.8221 -0.3644
5.8000 -3.8355 -0.3665
5.8200 -3.8488 -0.3633
5.8400 -3.8621 -0.3639
5.8600 -3.8754 -0.3621
5.8800 -3.8888 -0.3601
5.9000 -3.9021 -0.3615
5.9200 -3.9153 -0.3638
5.9400 -3.9287 -0.3597
5.9600 -3.9420 -0.3619
5.9800 -3.9554 -0.3601
6.0000 -3.9687 -0.3580
6.0200 -3.9821 -0.3602
6.0400 -3.9954 -0.3605
6.0600 -4.0088 -0.3566
6.0800 -4.0221 -0.3566
6.1000 -4.0354 -0.3574
6.1200 -4.0488 -0.3537
6.1400 -4.0621 -0.3553
6.1600 -4.0755 -0.3561
6.1800 -4.0888 -0.3524
6.2000 -4.1021 -0.3528
6.2200 -4.1154 -0.3517
6.2400 -4.1288 -0.3504
6.2600 -4.1421 -0.3535
6.2800 -4.1553 -0.3513
6.3000 -4.1686 -0.3484
6.3200 -4.1820 -0.3487
6.3400 -4.1954 -0.3499
6.3600 -4.2087 -0.3477
6.3800 -4.2220 -0.3497
6.4000 -4.2354 -0.3479
6.4200 -4.2488 -0.3444
6.4400 -4.2621 -0.3473
6.4600 -4.2755 -0.3490
6.4800 -4.2888 -0.3460
6.5000 -4.3021 -0.3472
6.5200 -4.3155 -0.3455
6.5400 -4.3288 -0.3433
6.5600 -4.3421 -0.3443
6.5800 -4.3554 -0.3432
6.6000 -4.3688 -0.3422
6.6200 -4.3821 -0.3417
6.6400 -4.3954 -0.3434
6.6600 -4.4087 -0.3382
6.6800 -4.4221 -0.3411
6.7000 -4.4354 -0.3406
6.7200 -4.4487 -0.3405
6.7400 -4.4621 -0.3390
6.7600 -4.4754 -0.3384
6.7800 -4.4888 -0.3388
6.8000 -4.5021 -0.3407
6.8200 -4.5154 -0.3376
6.8400 -4.5287 -0.3352
6.8600 -4.5421 -0.3356
6.8800 -4.5555 -0.3356
6.9000 -4.5688 -0.3347
6.9200 -4.5821 -0.3359
6.9400 -4.5955 -0.3359
6.9600 -4.6088 -0.3334
6.9800 -4.6221 -0.3331
7.0000 -4.6354 -0.3324
7.0200 -4.6487 -0.3304
7.0400 -4.6620 -0.3320
7.0600 -4.6754 -0.3342
7.0800 -4.6887 -0.3314
7.1000 -4.7020 -0.3322
7.1200 -4.7154 -0.3317
7.1400 -4.7288 -0.3317
7.1600 -4.7421 -0.3276
7.1800 -4.7554 -0.3282
7.2000 -4.7687 -0.3259
7.2200 -4.7821 -0.3258
7.2400 -4.7955 -0.3278
7.2600 -4.8088 -0.3256
7.2800 -4.8221 -0.3261
7.3000 -4.8354 -0.3270
7.3200 -4.8488 -0.3239
7.3400 -4.8621 -0.3245
7.3600 -4.8754 -0.3243
7.3800 -4.8887 -0.3241
7.4000 -4.9020 -0.3209
7.4200 -4.9154 -0.3244
7.4400 -4.9287 -0.3196
7.4600 -4.9420 -0.3230
7.4800 -4.9554 -0.3225
7.5000 -4.9688 -0.3208
7.5200 -4.9821 -0.3184
7.5400 -4.9955 -0.3210
7.5600 -5.0088 -0.3170
7.5800 -5.0221 -0.3187
7.6000 -5.0355 -0.3174
7.6200 -5.0488 -0.3161
7.6400 -5.0621 -0.3163
7.6600 -5.0754 -0.3156
7.6800 -5.0887 -0.3142
7.7000 -5.1020 -0.3133
7.7200 -5.1153 -0.3155
7.7400 -5.1286 -0.3130
7.7600 -5.1420 -0.3139
7.7800 -5.1554 -0.3135
7.8000 -5.1687 -0.3131
7.8200 -5.1821 -0.3100
7.8400 -5.1954 -0.3092
7.8600 -5.2088 -0.3062
7.8800 -5.2222 -0.3079
7.9000 -5.2355 -0.3091
7.9200 -5.2488 -0.3070
7.9400 -5.2621 -0.3075
7.9600 -5.2755 -0.3078
7.9800 -5.2888 -0.3039
8.0000 -5.3021 -0.3060
8.0200 -5.3154 -0.3046
8.0400 -5.3288 -0.3036
8.0600 -5.3421 -0.3011
8.0800 -5.3554 -0.3037
8.1000 -5.3687 -0.3007
8.1200 -5.3821 -0.3030
8.1400 -5.3954 -0.3016
8.1600 -5.4088 -0.3004
8.1800 -5.4221 -0.3009
8.2000 -5.4354 -0.3021
8.2200 -5.4488 -0.2995
8.2400 -5.4621 -0.2995
8.2600 -5.4754 -0.3017
8.2800 -5.4887 -0.2988
8.3000 -5.5021 -0.2988
8.3200 -5.5155 -0.3003
8.3400 -5.5288 -0.2970
8.3600 -5.5421 -0.2968
8.3800 -5.5554 -0.2966
8.4000 -5.5687 -0.2947
8.4200 -5.5821 -0.2957
8.4400 -5.5954 -0.2956
8.4600 -5.6087 -0.2936
8.4800 -5.6220 -0.2938
8.5000 -5.6354 -0.2953
8.5200 -5.6488 -0.2946
8.5400 -5.6621 -0.2950
8.5600 -5.6754 -0.2950
8.5800 -5.6888 -0.2929
8.6000 -5.7021 -0.2924
8.6200 -5.7155 -0.2931
8.6400 -5.7288 -0.2916
8.6600 -5.7421 -0.2917
8.6800 -5.7554 -0.2913
8.7000 -5.7688 -0.2909
8.7200 -5.7821 -0.2894
8.7400 -5.7954 -0.2908
8.7600 -5.8087 -0.2890
8.7800 -5.8221 -0.2884
8.8000 -5.8354 -0.2880
8.8200 -5.8487 -0.2869
8.8400 -5.8620 -0.2859
8.8600 -5.8754 -0.2870
8.8800 -5.8888 -0.2838
8.9000 -5.9021 -0.2848
8.9200 -5.9154 -0.2848
8.9400 -5.9288 -0.2827
8.9600 -5.9421 -0.2849
8.9800 -5.9555 -0.2832
9.0000 -5.9688 -0.2824
9.0200 -5.9821 -0.2816
9.0400 -5.9955 -0.2841
9.0600 -6.0088 -0.2794
9.0800 -6.0221 -0.2815
9.1000 -6.0354 -0.2804
9.1200 -6.0487 -0.2797
9.1400 -6.0621 -0.2766
9.1600 -6.0754 -0.2790
9.1800 -6.0886 -0.2753
9.2000 -6.1020 -0.2766
9.2200 -6.1154 -0.2767
9.2400 -6.1287 -0.2750
9.2600 -6.1421 -0.2736
9.2800 -6.1554 -0.2748
9.3000 -6.1688 -0.2738
9.3200 -6.1822 -0.2719
9.3400 -6.1955 -0.2741
9.3600 -6.2088 -0.2707
9.3800 -6.2221 -0.2701
9.4000 -6.2355 -0.2715
9.4200 -6.2488 -0.2718
9.4400 -6.2621 -0.2702
9.4600 -6.2754 -0.2719
9.4800 -6.2887 -0.2690
9.5000 -6.3021 -0.2714
9.5200 -6.3154 -0.2708
9.5400 -6.3286 -0.2703
9.5600 -6.3420 -0.2679
9.5800 -6.3554 -0.2692
9.6000 -6.3687 -0.2682
9.6200 -6.3821 -0.2679
9.6400 -6.3954 -0.2686
9.6600 -6.4088 -0.2675
9.6800 -6.4222 -0.2643
9.7000 -6.4355 -0.2662
9.7200 -6.4488 -0.2637
9.7400 -6.4621 -0.2652
9.7600 -6.4755 -0.2632
9.7800 -6.4888 -0.2634
9.8000 -6.5021 -0.2610
9.8200 -6.5154 -0.2643
9.8400 -6.5287 -0.2613
9.8600 -6.5421 -0.2617
9.8800 -6.5554 -0.2608
9.9000 -6.5687 -0.2621
9.9200 -6.5820 -0.2584
9.9400 -6.5954 -0.2602
9.9600 -6.6088 -0.2580
9.9800 -6.6221 -0.2597
10.0000 -6.6354 -0.2592
10.0200 -6.6488 -0.2589
10.0400 -6.6621 -0.2563
10.0600 -6.6754 -0.2552
10.0800 -6.6887 -0.2579
10.1000 -6.7020 -0.2545
10.1200 -6.7154 -0.2572
10.1400 -6.7287 -0.2543
10.1600 -6.7421 -0.2550
10.1800 -6.7554 -0.2531
10.2000 -6.7687 -0.2532
10.2200 -6.7821 -0.2487
10.2400 -6.7954 -0.2529
10.2600 -6.8087 -0.2500
10.2800 -6.8220 -0.2494
10.3000 -6.8354 -0.2489
10.3200 -6.8487 -0.2500
10.3400 -6.8621 -0.2484
10.3600 -6.8754 -0.2497
10.3800 -6.8888 -0.2485
10.4000 -6.9021 -0.2445
10.4200 -6.9155 -0.2464
10.4400 -6.9288 -0.2476
10.4600 -6.9421 -0.2460
10.4800 -6.9555 -0.2476
10.5000 -6.9688 -0.2454
10.5200 -6.9821 -0.2444
10.5400 -6.9954 -0.2437
10.5600 -7.0088 -0.2452
10.5800 -7.0221 -0.2439
10.6000 -7.0354 -0.2446
10.6200 -7.0487 -0.2420
10.6400 -7.0620 -0.2423
10.6600 -7.0754 -0.2424
10.6800 -7.0887 -0.2419
10.7000 -7.1021 -0.2387
10.7200 -7.1154 -0.2415
10.7400 -7.1287 -0.2405
10.7600 -7.1421 -0.2391
10.7800 -7.1555 -0.2421
10.8000 -7.1688 -0.2414
10.8200 -7.1821 -0.2389
10.8400 -7.1955 -0.2384
10.8600 -7.2088 -0.2388
10.8800 -7.2221 -0.2366
10.9000 -7.2354 -0.2391
10.9200 -7.2488 -0.2379
10.9400 -7.2621 -0.2382
10.9600 -7.2754 -0.2366
10.9800 -7.2887 -0.2372
11.0000 -7.3020 -0.2351
11.0200 -7.3154 -0.2356
11.0400 -7.3287 -0.2351
11.0600 -7.3421 -0.2347
11.0800 -7.3554 -0.2353
11.1000 -7.3687 -0.2350
11.1200 -7.3821 -0.2362
11.1400 -7.3955 -0.2323
11.1600 -7.4088 -0.2364
11.1800 -7.4221 -0.2344
11.2000 -7.4354 -0.2352
11.2200 -7.4488 -0.2332
11.2400 -7.4621 -0.2311
11.2600 -7.4754 -0.2299
11.2800 -7.4888 -0.2314
11.3000 -7.5021 -0.2298
11.3200 -7.5154 -0.2314
11.3400 -7.5287 -0.2300
11.3600 -7.5420 -0.2292
11.3800 -7.5554 -0.2303
11.4000 -7.5687 -0.2290
11.4200 -7.5821 -0.2285
11.4400 -7.5954 -0.2275
11.4600 -7.6088 -0.2281
11.4800 -7.6221 -0.2265
11.5000 -7.6355 -0.2243
11.5200 -7.6488 -0.2257
11.5400 -7.6621 -0.2255
11.5600 -7.6754 -0.2250
11.5800 -7.6888 -0.2227
11.6000 -7.7021 -0.2238
11.6200 -7.7154 -0.2219
11.6400 -7.7287 -0.2230
11.6600 -7.7421 -0.2204
11.6800 -7.7554 -0.2214
11.7000 -7.7687 -0.2221
11.7200 -7.7820 -0.2209
11.7400 -7.7954 -0.2213
11.7600 -7.8088 -0.2204
11.7800 -7.8221 -0.2196
11.8000 -7.8354 -0.2194
11.8200 -7.8487 -0.2204
11.8400 -7.8621 -0.2172
11.8600 -7.8755 -0.2182
11.8800 -7.8888 -0.2162
11.9000 -7.9021 -0.2178
11.9200 -7.9154 -0.2172
11.9400 -7.9288 -0.2189
11.9600 -7.9421 -0.2166
11.9800 -7.9554 -0.2179
12.0000 -7.9687 -0.2161
12.0200 -7.9821 -0.2166
12.0400 -7.9954 -0.2147
12.0600 -8.0087 -0.2144
12.0800 -8.0220 -0.2112
12.1000 -8.0354 -0.2125
12.1200 -8.0488 -0.2110
12.1400 -8.0621 -0.2106
12.1600 -8.0754 -0.2100
12.1800 -8.0887 -0.2126
12.2000 -8.1021 -0.2098
12.2200 -8.1155 -0.2106
12.2400 -8.1288 -0.2085
12.2600 -8.1421 -0.2075
12.2800 -8.1554 -0.2071
12.3000 -8.1688 -0.2098
12.3200 -8.1822 -0.2059
12.3400 -8.1955 -0.2070
12.3600 -8.2088 -0.2051
12.3800 -8.2222 -0.2023
12.4000 -8.2355 -0.2046
12.4200 -8.2487 -0.2051
12.4400 -8.2620 -0.2051
12.4600 -8.2754 -0.2058
12.4800 -8.2887 -0.2065
12.5000 -8.3020 -0.2015
12.5200 -8.3153 -0.2026
12.5400 -8.3287 -0.2019
12.5600 -8.3421 -0.2023
12.5800 -8.3555 -0.1997
12.6000 -8.3688 -0.2021
12.6200 -8.3821 -0.1994
12.6400 -8.3955 -0.2009
12.6600 -8.4088 -0.1991
12.6800 -8.4222 -0.1990
12.7000 -8.4355 -0.1984
12.7200 -8.4487 -0.1994
12.7400 -8.4621 -0.1993
12.7600 -8.4754 -0.1979
12.7800 -8.4887 -0.1978
12.8000 -8.5020 -0.1979
12.8200 -8.5153 -0.1958
12.8400 -8.5287 -0.1946
12.8600 -8.5421 -0.1936
12.8800 -8.5554 -0.1933
12.9000 -8.5687 -0.1934
12.9200 -8.5821 -0.1918
12.9400 -8.5955 -0.1934
12.9600 -8.6088 -0.1924
12.9800 -8.6221 -0.1930
13.0000 -8.6354 -0.1914
13.0200 -8.6488 -0.1906
13.0400 -8.6621 -0.1921
13.0600 -8.6754 -0.1910
13.0800 -8.6887 -0.1919
13.1000 -8.7021 -0.1896
13.1200 -8.7154 -0.1893
13.1400 -8.7287 -0.1891
13.1600 -8.7420 -0.1881
13.1800 -8.7554 -0.1869
13.2000 -8.7687 -0.1879
13.2200 -8.7821 -0.1867
13.2400 -8.7954 -0.1865
13.2600 -8.8087 -0.1875
13.2800 -8.8221 -0.1854
13.3000 -8.8355 -0.1842
13.3200 -8.8488 -0.1842
13.3400 -8.8621 -0.1851
13.3600 -8.8755 -0.1843
13.3800 -8.8888 -0.1843
13.4000 -8.9021 -0.1821
13.4200 -8.9154 -0.1815
13.4400 -8.9287 -0.1821
13.4600 -8.9421 -0.1804
13.4800 -8.9554 -0.1798
13.5000 -8.9687 -0.1793
13.5200 -8.9820 -0.1797
13.5400 -8.9953 -0.1778
13.5600 -9.0087 -0.1786
13.5800 -9.0220 -0.1780
13.6000 -9.0354 -0.1766
13.6200 -9.0487 -0.1763
13.6400 -9.0621 -0.1774
13.6600 -9.0755 -0.1767
13.6800 -9.0888 -0.1765
13.7000 -9.1021 -0.1748
13.7200 -9.1154 -0.1759
13.7400 -9.1288 -0.1764
13.7600 -9.1421 -0.1754
13.7800 -9.1554 -0.1747
13.8000 -9.1688 -0.1745
13.8200 -9.1821 -0.1734
13.8400 -9.1955 -0.1726
13.8600 -9.2088 -0.1745
13.8800 -9.2220 -0.1727
13.9000 -9.2354 -0.1721
13.9200 -9.2487 -0.1743
13.9400 -9.2621 -0.1737
13.9600 -9.2754 -0.1742
13.9800 -9.2887 -0.1726
14.0000 -9.3021 -0.1721
14.0200 -9.3154 -0.1722
14.0400 -9.3288 -0.1715
14.0600 -9.3421 -0.1713
14.0800 -9.3554 -0.1710
14.1000 -9.3688 -0.1714
14.1200 -9.3822 -0.1699
14.1400 -9.3955 -0.1690
14.1600 -9.4088 -0.1689
14.1800 -9.4221 -0.1695
14.2000 -9.4355 -0.1660
14.2200 -9.4488 -0.1673
14.2400 -9.4620 -0.1639
14.2600 -9.4754 -0.1668
14.2800 -9.4887 -0.1652
14.3000 -9.5021 -0.1664
14.3200 -9.5154 -0.1629
14.3400 -9.5287 -0.1662
14.3600 -9.5420 -0.1639
14.3800 -9.5554 -0.1647
14.4000 -9.5688 -0.1648
14.4200 -9.5821 -0.1647
14.4400 -9.5954 -0.1617
14.4600 -9.6088 -0.1644
14.4800 -9.6222 -0.1627
14.5000 -9.6355 -0.1632
14.5200 -9.6488 -0.1628
14.5400 -9.6621 -0.1604
14.5600 -9.6754 -0.1597
14.5800 -9.6887 -0.1583
14.6000 -9.7020 -0.1590
14.6200 -9.7153 -0.1595
14.6400 -9.7287 -0.1601
14.6600 -9.7421 -0.1597
14.6800 -9.7554 -0.1577
14.7000 -9.7687 -0.1583
14.7200 -9.7821 -0.1549
14.7400 -9.7955 -0.1554
14.7600 -9.8088 -0.1547
14.7800 -9.8221 -0.1559
14.8000 -9.8355 -0.1550
14.8200 -9.8488 -0.1553
14.8400 -9.8622 -0.1543
14.8600 -9.8755 -0.1526
14.8800 -9.8887 -0.1525
14.9000 -9.9020 -0.1524
14.9200 -9.9153 -0.1536
14.9400 -9.9287 -0.1510
14.9600 -9.9420 -0.1539
14.9800 -9.9553 -0.1514
15.0000 -9.9687 -0.1519
15.0200 -9.9821 -0.1497
15.0400 -9.9954 -0.1498
15.0600 -10.0087 -0.1507
15.0800 -10.0221 -0.1511
15.1000 -10.0355 -0.1492
15.1200 -10.0488 -0.1469
15.1400 -10.0621 -0.1468
15.1600 -10.0754 -0.1469
15.1800 -10.0888 -0.1481
15.2000 -10.1022 -0.1469
15.2200 -10.1155 -0.1452
15.2400 -10.1288 -0.1468
15.2600 -10.1421 -0.1461
15.2800 -10.1554 -0.1468
15.3000 -10.1688 -0.1439
15.3200 -10.1821 -0.1459
15.3400 -10.1954 -0.1437
15.3600 -10.2087 -0.1430
15.3800 -10.2221 -0.1418
15.4000 -10.2354 -0.1422
15.4200 -10.2487 -0.1399
15.4400 -10.2621 -0.1421
15.4600 -10.2755 -0.1383
15.4800 -10.2888 -0.1382
15.5000 -10.3021 -0.1380
15.5200 -10.3154 -0.1375
15.5400 -10.3288 -0.1379
15.5600 -10.3421 -0.1361
15.5800 -10.3554 -0.1377
15.6000 -10.3687 -0.1366
15.6200 -10.3821 -0.1369
15.6400 -10.3954 -0.1353
15.6600 -10.4088 -0.1359
15.6800 -10.4220 -0.1333
15.7000 -10.4353 -0.1369
15.7200 -10.4487 -0.1343
15.7400 -10.4621 -0.1351
15.7600 -10.4754 -0.1328
15.7800 -10.4887 -0.1315
15.8000 -10.5021 -0.1333
15.8200 -10.5154 -0.1314
15.8400 -10.5288 -0.1325
15.8600 -10.5421 -0.1302
15.8800 -10.5554 -0.1321
15.9000 -10.5688 -0.1284
15.9200 -10.5821 -0.1304
15.9400 -10.5954 -0.1275
15.9600 -10.6087 -0.1300
15.9800 -10.6221 -0.1284
16.0000 -10.6354 -0.1290
16.0200 -10.6487 -0.1261
16.0400 -10.6620 -0.1261
16.0600 -10.6753 -0.1256
16.0800 -10.6887 -0.1258
16.1000 -10.7021 -0.1256
16.1200 -10.7154 -0.1258
16.1400 -10.7287 -0.1256
16.1600 -10.7421 -0.1240
16.1800 -10.7555 -0.1237
16.2000 -10.7688 -0.1222
16.2200 -10.7821 -0.1226
16.2400 -10.7954 -0.1220
16.2600 -10.8088 -0.1206
16.2800 -10.8222 -0.1240
16.3000 -10.8355 -0.1214
16.3200 -10.8488 -0.1242
16.3400 -10.8621 -0.1224
16.3600 -10.8754 -0.1208
16.3800 -10.8887 -0.1210
16.4000 -10.9020 -0.1213
16.4200 -10.9153 -0.1209
16.4400 -10.9287 -0.1193
16.4600 -10.9421 -0.1199
16.4800 -10.9554 -0.1201
16.5000 -10.9687 -0.1184
16.5200 -10.9821 -0.1177
16.5400 -10.9955 -0.1174
16.5600 -11.0088 -0.1162
16.5800 -11.0222 -0.1191
16.6000 -11.0355 -0.1153
16.6200 -11.0488 -0.1158
16.6400 -11.0622 -0.1136
16.6600 -11.0755 -0.1155
16.6800 -11.0888 -0.1145
16.7000 -11.1021 -0.1155
16.7200 -11.1154 -0.1127
16.7400 -11.1287 -0.1118
16.7600 -11.1420 -0.1097
16.7800 -11.1553 -0.1124
16.8000 -11.1687 -0.1097
16.8200 -11.1820 -0.1122
16.8400 -11.1954 -0.1117
16.8600 -11.2087 -0.1114
16.8800 -11.2221 -0.1109
16.9000 -11.2355 -0.1101
16.9200 -11.2488 -0.1067
16.9400 -11.2621 -0.1080
16.9600 -11.2754 -0.1080
16.9800 -11.2888 -0.1060
17.0000 -11.3021 -0.1049
17.0200 -11.3154 -0.1077
17.0400 -11.3287 -0.1051
17.0600 -11.3420 -0.1071
17.0800 -11.3554 -0.1055
17.1000 -11.3687 -0.1050
17.1200 -11.3820 -0.1048
17.1400 -11.3953 -0.1046
17.1600 -11.4087 -0.1022
17.1800 -11.4221 -0.1027
17.2000 -11.4354 -0.1022
17.2200 -11.4487 -0.1016
17.2400 -11.4621 -0.1028
17.2600 -11.4754 -0.1023
17.2800 -11.4888 -0.0998
17.3000 -11.5021 -0.1010
17.3200 -11.5154 -0.1014
17.3400 -11.5287 -0.0979
17.3600 -11.5421 -0.0993
17.3800 -11.5554 -0.0975
17.4000 -11.5688 -0.0987
17.4200 -11.5821 -0.0983
17.4400 -11.5954 -0.0980
17.4600 -11.6088 -0.0964
17.4800 -11.6221 -0.0975
17.5000 -11.6354 -0.0960
17.5200 -11.6487 -0.0968
17.5400 -11.6621 -0.0954
17.5600 -11.6754 -0.0955
17.5800 -11.6887 -0.0937
17.6000 -11.7021 -0.0957
17.6200 -11.7154 -0.0946
17.6400 -11.7288 -0.0927
17.6600 -11.7422 -0.0945
17.6800 -11.7555 -0.0936
17.7000 -11.7688 -0.0930
17.7200 -11.7822 -0.0927
17.7400 -11.7955 -0.0940
17.7600 -11.8088 -0.0932
17.7800 -11.8221 -0.0936
17.8000 -11.8354 -0.0905
17.8200 -11.8488 -0.0908
17.8400 -11.8621 -0.0898
17.8600 -11.8754 -0.0898
17.8800 -11.8887 -0.0878
17.9000 -11.9020 -0.0879
17.9200 -11.9154 -0.0844
17.9400 -11.9287 -0.0854
17.9600 -11.9420 -0.0858
17.9800 -11.9554 -0.0860
18.0000 -11.9688 -0.0856
18.0200 -11.9821 -0.0862
18.0400 -11.9954 -0.0844
18.0600 -12.0088 -0.0817
18.0800 -12.0221 -0.0814
18.1000 -12.0355 -0.0829
18.1200 -12.0488 -0.0815
18.1400 -12.0621 -0.0816
18.1600 -12.0754 -0.0831
18.1800 -12.0888 -0.0793
18.2000 -12.1021 -0.0792
18.2200 -12.1154 -0.0783
18.2400 -12.1287 -0.0787
18.2600 -12.1421 -0.0784
18.2800 -12.1554 -0.0819
18.3000 -12.1687 -0.0785
18.3200 -12.1820 -0.0791
18.3400 -12.1954 -0.0779
18.3600 -12.2088 -0.0769
18.3800 -12.2221 -0.0775
18.4000 -12.2354 -0.0791
18.4200 -12.2487 -0.0753
18.4400 -12.2621 -0.0752
18.4600 -12.2755 -0.0750
18.4800 -12.2888 -0.0730
18.5000 -12.3021 -0.0730
18.5200 -12.3154 -0.0743
18.5400 -12.3288 -0.0740
18.5600 -12.3421 -0.0735
18.5800 -12.3554 -0.0740
18.6000 -12.3687 -0.0712
18.6200 -12.3821 -0.0714
18.6400 -12.3954 -0.0720
18.6600 -12.4087 -0.0703
18.6800 -12.4221 -0.0709
18.7000 -12.4354 -0.0716
18.7200 -12.4488 -0.0713
18.7400 -12.4621 -0.0708
18.7600 -12.4754 -0.0700
18.7800 -12.4887 -0.0683
18.8000 -12.5021 -0.0696
18.8200 -12.5154 -0.0689
18.8400 -12.5287 -0.0681
18.8600 -12.5421 -0.0682
18.8800 -12.5554 -0.0692
18.9000 -12.5688 -0.0658
18.9200 -12.5821 -0.0669
18.9400 -12.5954 -0.0688
18.9600 -12.6087 -0.0657
18.9800 -12.6221 -0.0663
19.0000 -12.6354 -0.0668
19.0200 -12.6487 -0.0668
19.0400 -12.6621 -0.0641
19.0600 -12.6754 -0.0639
19.0800 -12.6888 -0.0626
19.1000 -12.7021 -0.0640
19.1200 -12.7154 -0.0640
19.1400 -12.7287 -0.0614
19.1600 -12.7421 -0.0603
19.1800 -12.7555 -0.0630
19.2000 -12.7688 -0.0584
19.2200 -12.7821 -0.0597
19.2400 -12.7954 -0.0588
19.2600 -12.8087 -0.0581
19.2800 -12.8221 -0.0568
19.3000 -12.8354 -0.0577
19.3200 -12.8487 -0.0539
19.3400 -12.8621 -0.0526
19.3600 -12.8754 -0.0556
19.3800 -12.8887 -0.0545
19.4000 -12.9020 -0.0537
19.4200 -12.9154 -0.0549
19.4400 -12.9288 -0.0536
19.4600 -12.9421 -0.0509
19.4800 -12.9554 -0.0538
19.5000 -12.9687 -0.0524
19.5200 -12.9821 -0.0537
19.5400 -12.9955 -0.0515
19.5600 -13.0088 -0.0505
19.5800 -13.0221 -0.0485
19.6000 -13.0355 -0.0513
19.6200 -13.0488 -0.0491
19.6400 -13.0621 -0.0491
19.6600 -13.0754 -0.0487
19.6800 -13.0887 -0.0486
19.7000 -13.1020 -0.0462
19.7200 -13.1153 -0.0479
19.7400 -13.1287 -0.0435
19.7600 -13.1420 -0.0443
19.7800 -13.1554 -0.0459
19.8000 -13.1688 -0.0442
19.8200 -13.1821 -0.0426
19.8400 -13.1954 -0.0426
19.8600 -13.2088 -0.0435
19.8800 -13.2221 -0.0406
19.9000 -13.2355 -0.0441
19.9200 -13.2488 -0.0409
19.9400 -13.2621 -0.0427
19.9600 -13.2754 -0.0407
19.9800 -13.2888 -0.0408
20.0000 -13.3021 -0.0367
20.0200 -13.3154 -0.0401
20.0400 -13.3287 -0.0393
20.0600 -13.3421 -0.0400
20.0800 -13.3554 -0.0407
20.1000 -13.3688 -0.0382
20.1200 -13.3821 -0.0371
20.1400 -13.3954 -0.0385
20.1600 -13.4088 -0.0366
20.1800 -13.4222 -0.0367
20.2000 -13.4355 -0.0374
20.2200 -13.4488 -0.0374
20.2400 -13.4621 -0.0354
20.2600 -13.4755 -0.0382
20.2800 -13.4888 -0.0358
20.3000 -13.5021 -0.0362
20.3200 -13.5154 -0.0356
20.3400 -13.5288 -0.0355
20.3600 -13.5421 -0.0338
20.3800 -13.5554 -0.0381
20.4000 -13.5687 -0.0346
20.4200 -13.5820 -0.0338
20.4400 -13.5954 -0.0337
20.4600 -13.6087 -0.0346
20.4800 -13.6221 -0.0317
20.5000 -13.6354 -0.0330
20.5200 -13.6488 -0.0320
20.5400 -13.6621 -0.0301
20.5600 -13.6754 -0.0316
20.5800 -13.6888 -0.0293
20.6000 -13.7021 -0.0284
20.6200 -13.7155 -0.0303
20.6400 -13.7288 -0.0318
20.6600 -13.7421 -0.0287
20.6800 -13.7554 -0.0302
20.7000 -13.7687 -0.0270
20.7200 -13.7821 -0.0267
20.7400 -13.7953 -0.0267
20.7600 -13.8086 -0.0277
20.7800 -13.8220 -0.0250
20.8000 -13.8354 -0.0269
20.8200 -13.8487 -0.0234
20.8400 -13.8620 -0.0248
20.8600 -13.8754 -0.0245
20.8800 -13.8888 -0.0241
20.9000 -13.9022 -0.0204
20.9200 -13.9155 -0.0240
20.9400 -13.9288 -0.0207
20.9600 -13.9421 -0.0201
20.9800 -13.9555 -0.0201
21.0000 -13.9688 -0.0200
21.0200 -13.9821 -0.0194
21.0400 -13.9954 -0.0203
21.0600 -14.0088 -0.0207
21.0800 -14.0221 -0.0195
21.1000 -14.0354 -0.0210
21.1200 -14.0487 -0.0190
21.1400 -14.0620 -0.0180
21.1600 -14.0754 -0.0171
21.1800 -14.0887 -0.0173
21.2000 -14.1020 -0.0147
21.2200 -14.1154 -0.0179
21.2400 -14.1287 -0.0162
21.2600 -14.1421 -0.0148
21.2800 -14.1554 -0.0137
21.3000 -14.1687 -0.0146
21.3200 -14.1821 -0.0122
21.3400 -14.1955 -0.0144
21.3600 -14.2088 -0.0123
21.3800 -14.2221 -0.0102
21.4000 -14.2354 -0.0102
21.4200 -14.2488 -0.0109
21.4400 -14.2621 -0.0098
21.4600 -14.2754 -0.0110
21.4800 -14.2887 -0.0066
21.5000 -14.3020 -0.0058
21.5200 -14.3154 -0.0053
21.5400 -14.3287 -0.0061
21.5600 -14.3420 -0.0036
21.5800 -14.3554 -0.0044
21.6000 -14.3688 -0.0044
21.6200 -14.3821 -0.0027
21.6400 -14.3954 -0.0041
21.6600 -14.4087 -0.0008
21.6800 -14.4221 -0.0014
21.7000 -14.4355 -0.0028
21.7200 -14.4488 -0.0031
21.7400 -14.4621 -0.0011
21.7600 -14.4755 -0.0028
21.7800 -14.4888 -0.0011
21.8000 -14.5021 0.0005
21.8200 -14.5154 -0.0005
21.8400 -14.5287 0.0003
21.8600 -14.5420 0.0035
21.8800 -14.5554 0.0000
21.9000 -14.5687 0.0028
21.9200 -14.5820 0.0038
21.9400 -14.5954 0.0030
21.9600 -14.6088 0.0012
21.9800 -14.6222 0.0043
22.0000 -14.6355 0.0018
22.0200 -14.6488 0.0019
22.0400 -14.6621 0.0034
22.0600 -14.6755 0.0055
22.0800 -14.6888 0.0045
22.1000 -14.7021 0.0071
22.1200 -14.7154 0.0053
22.1400 -14.7287 0.0061
22.1600 -14.7420 0.0077
22.1800 -14.7553 0.0053
22.2000 -14.7686 0.0082
22.2200 -14.7820 0.0068
22.2400 -14.7954 0.0075
22.2600 -14.8087 0.0069
22.2800 -14.8221 0.0101
22.3000 -14.8354 0.0077
22.3200 -14.8488 0.0098
22.3400 -14.8622 0.0102
22.3600 -14.8755 0.0114
22.3800 -14.8888 0.0083
22.4000 -14.9021 0.0123
22.4200 -14.9154 0.0095
22.4400 -14.9288 0.0121
22.4600 -14.9421 0.0112
22.4800 -14.9554 0.0129
22.5000 -14.9688 0.0119
22.5200 -14.9821 0.0144
22.5400 -14.9954 0.0145
22.5600 -15.0087 0.0142
22.5800 -15.0220 0.0168
22.6000 -15.0354 0.0159
22.6200 -15.0488 0.0184
22.6400 -15.0621 0.0207
22.6600 -15.0754 0.0209
22.6800 -15.0888 0.0215
22.7000 -15.1021 0.0233
22.7200 -15.1155 0.0227
22.7400 -15.1288 0.0230
22.7600 -15.1421 0.0242
22.7800 -15.1554 0.0240
22.8000 -15.1688 0.0236
22.8200 -15.1821 0.0261
22.8400 -15.1954 0.0259
22.8600 -15.2087 0.0249
22.8800 -15.2221 0.0290
22.9000 -15.2354 0.0294
22.9200 -15.2487 0.0304
22.9400 -15.2620 0.0317
22.9600 -15.2754 0.0283
22.9800 -15.2888 0.0306
23.0000 -15.3021 0.0314
23.0200 -15.3154 0.0327
23.0400 -15.3288 0.0315
23.0600 -15.3421 0.0357
23.0800 -15.3555 0.0346
23.1000 -15.3688 0.0342
23.1200 -15.3821 0.0342
23.1400 -15.3955 0.0358
23.1600 -15.4088 0.0328
23.1800 -15.4221 0.0356
23.2000 -15.4354 0.0357
23.2200 -15.4487 0.0354
23.2400 -15.4621 0.0379
23.2600 -15.4754 0.0365
23.2800 -15.4887 0.0357
23.3000 -15.5020 0.0386
23.3200 -15.5154 0.0381
23.3400 -15.5288 0.0364
23.3600 -15.5421 0.0385
23.3800 -15.5554 0.0386
23.4000 -15.5688 0.0366
23.4200 -15.5822 0.0381
23.4400 -15.5955 0.0375
23.4600 -15.6088 0.0353
23.4800 -15.6221 0.0395
23.5000 -15.6355 0.0383
23.5200 -15.6488 0.0388
23.5400 -15.6621 0.0401
23.5600 -15.6754 0.0382
23.5800 -15.6887 0.0362
23.6000 -15.7021 0.0397
23.6200 -15.7154 0.0392
23.6400 -15.7287 0.0394
23.6600 -15.7420 0.0415
23.6800 -15.7554 0.0407
23.7000 -15.7687 0.0410
23.7200 -15.7820 0.0426
23.7400 -15.7954 0.0416
23.7600 -15.8087 0.0425
23.7800 -15.8221 0.0461
23.8000 -15.8355 0.0448
23.8200 -15.8488 0.0445
23.8400 -15.8621 0.0468
23.8600 -15.8755 0.0470
23.8800 -15.8888 0.0453
23.9000 -15.9021 0.0489
23.9200 -15.9154 0.0484
23.9400 -15.9287 0.0475
23.9600 -15.9421 0.0481
23.9800 -15.9554 0.0491
24.0000 -15.9687 0.0469
24.0200 -15.9820 0.0500
24.0400 -15.9954 0.0473
24.0600 -16.0087 0.0489
24.0800 -16.0220 0.0514
24.1000 -16.0354 0.0502
24.1200 -16.0487 0.0500
24.1400 -16.0621 0.0494
24.1600 -16.0755 0.0491
24.1800 -16.0888 0.0499
24.2000 -16.1021 0.0520
24.2200 -16.1155 0.0529
24.2400 -16.1288 0.0531
24.2600 -16.1421 0.0567
24.2800 -16.1554 0.0547
24.3000 -16.1687 0.0534
24.3200 -16.1821 0.0552
24.3400 -16.1954 0.0551
24.3600 -16.2087 0.0539
24.3800 -16.2220 0.0595
24.4000 -16.2354 0.0577
24.4200 -16.2488 0.0563
24.4400 -16.2621 0.0586
24.4600 -16.2754 0.0579
24.4800 -16.2888 0.0576
24.5000 -16.3021 0.0607
24.5200 -16.3154 0.0615
24.5400 -16.3287 0.0588
24.5600 -16.3420 0.0619
24.5800 -16.3554 0.0609
24.6000 -16.3688 0.0618
24.6200 -16.3821 0.0639
24.6400 -16.3954 0.0651
24.6600 -16.4087 0.0624
24.6800 -16.4221 0.0645
24.7000 -16.4354 0.0653
24.7200 -16.4487 0.0660
24.7400 -16.4621 0.0669
24.7600 -16.4754 0.0680
24.7800 -16.4888 0.0646
24.8000 -16.5021 0.0679
24.8200 -16.5154 0.0678
24.8400 -16.5288 0.0679
24.8600 -16.5421 0.0705
24.8800 -16.5555 0.0710
24.9000 -16.5688 0.0692
24.9200 -16.5821 0.0689
24.9400 -16.5955 0.0686
24.9600 -16.6088 0.0702
24.9800 -16.6222 0.0720
25.0000 -16.6355 0.0722
25.0200 -16.6488 0.0720
25.0400 -16.6621 0.0728
25.0600 -16.6754 0.0736
25.0800 -16.6887 0.0728
25.1000 -16.7020 0.0758
25.1200 -16.7154 0.0753
25.1400 -16.7287 0.0738
25.1600 -16.7421 0.0773
25.1800 -16.7554 0.0755
25.2000 -16.7687 0.0759
25.2200 -16.7821 0.0778
25.2400 -16.7955 0.0784
25.2600 -16.8088 0.0787
25.2800 -16.8221 0.0801
25.3000 -16.8354 0.0813
25.3200 -16.8488 0.0802
25.3400 -16.8621 0.0834
25.3600 -16.8754 0.0823
25.3800 -16.8887 0.0819
25.4000 -16.9021 0.0811
25.4200 -16.9154 0.0843
25.4400 -16.9287 0.0823
25.4600 -16.9420 0.0849
25.4800 -16.9553 0.0836
25.5000 -16.9687 0.0835
25.5200 -16.9820 0.0839
25.5400 -16.9954 0.0858
25.5600 -17.0087 0.0840
25.5800 -17.0221 0.0873
25.6000 -17.0354 0.0860
25.6200 -17.0488 0.0847
25.6400 -17.0621 0.0867
25.6600 -17.0754 0.0859
25.6800 -17.0888 0.0857
25.7000 -17.1021 0.0892
25.7200 -17.1154 0.0892
25.7400 -17.1288 0.0893
25.7600 -17.1421 0.0904
25.7800 -17.1555 0.0896
25.8000 -17.1687 0.0898
25.8200 -17.1820 0.0909
25.8400 -17.1954 0.0921
25.8600 -17.2087 0.0912
25.8800 -17.2221 0.0928
25.9000 -17.2354 0.0946
25.9200 -17.2488 0.0934
25.9400 -17.2621 0.0936
25.9600 -17.2755 0.0953
25.9800 -17.2888 0.0949
26.0000 -17.3021 0.0954
26.0200 -17.3154 0.0973
26.0400 -17.3288 0.0971
26.0600 -17.3421 0.0968
26.0800 -17.3554 0.0977
26.1000 -17.3687 0.0973
26.1200 -17.3821 0.0966
26.1400 -17.3954 0.0986
26.1600 -17.4087 0.0979
26.1800 -17.4220 0.0998
26.2000 -17.4354 0.1010
26.2200 -17.4488 0.1010
26.2400 -17.4621 0.0994
26.2600 -17.4754 0.1035
26.2800 -17.4887 0.1017
26.3000 -17.5021 0.1030
26.3200 -17.5155 0.1050
26.3400 -17.5288 0.1055
26.3600 -17.5421 0.1047
26.3800 -17.5554 0.1084
26.4000 -17.5687 0.1053
26.4200 -17.5820 0.1084
26.4400 -17.5953 0.1089
26.4600 -17.6087 0.1086
26.4800 -17.6220 0.1089
26.5000 -17.6354 0.1087
26.5200 -17.6487 0.1076
26.5400 -17.6620 0.1103
26.5600 -17.6754 0.1119
26.5800 -17.6887 0.1100
26.6000 -17.7021 0.1112
26.6200 -17.7154 0.1145
26.6400 -17.7287 0.1115
26.6600 -17.7421 0.1130
26.6800 -17.7555 0.1148
26.7000 -17.7688 0.1109
26.7200 -17.7821 0.1132
26.7400 -17.7954 0.1142
26.7600 -17.8088 0.1146
26.7800 -17.8221 0.1165
26.8000 -17.8355 0.1179
26.8200 -17.8488 0.1159
26.8400 -17.8621 0.1184
26.8600 -17.8755 0.1194
26.8800 -17.8888 0.1189
26.9000 -17.9021 0.1194
26.9200 -17.9154 0.1233
26.9400 -17.9287 0.1180
26.9600 -17.9420 0.1229
26.9800 -17.9553 0.1241
27.0000 -17.9687 0.1236
27.0200 -17.9820 0.1217
27.0400 -17.9955 0.1248
27.0600 -18.0088 0.1231
27.0800 -18.0221 0.1260
27.1000 -18.0355 0.1243
27.1200 -18.0488 0.1266
27.1400 -18.0622 0.1252
27.1600 -18.0755 0.1276
27.1800 -18.0888 0.1273
27.2000 -18.1021 0.1286
27.2200 -18.1154 0.1292
27.2400 -18.1288 0.1284
27.2600 -18.1420 0.1303
27.2800 -18.1554 0.1324
27.3000 -18.1687 0.1296
27.3200 -18.1821 0.1302
27.3400 -18.1954 0.1347
27.3600 -18.2087 0.1326
27.3800 -18.2221 0.1324
27.4000 -18.2355 0.1348
27.4200 -18.2488 0.1342
27.4400 -18.2622 0.1327
27.4600 -18.2755 0.1372
27.4800 -18.2888 0.1332
27.5000 -18.3022 0.1348
27.5200 -18.3154 0.1369
27.5400 -18.3287 0.1371
27.5600 -18.3421 0.1359
27.5800 -18.3554 0.1380
27.6000 -18.3687 0.1367
27.6200 -18.3820 0.1359
27.6400 -18.3953 0.1388
27.6600 -18.4087 0.1379
27.6800 -18.4221 0.1374
27.7000 -18.4354 0.1405
27.7200 -18.4487 0.1374
27.7400 -18.4621 0.1395
27.7600 -18.4754 0.1409
27.7800 -18.4888 0.1402
27.8000 -18.5021 0.1396
27.8200 -18.5154 0.1422
27.8400 -18.5288 0.1396
27.8600 -18.5421 0.1411
27.8800 -18.5554 0.1419
27.9000 -18.5688 0.1415
27.9200 -18.5821 0.1422
27.9400 -18.5954 0.1456
27.9600 -18.6087 0.1439
27.9800 -18.6220 0.1443
28.0000 -18.6353 0.1480
28.0200 -18.6487 0.1450
28.0400 -18.6621 0.1461
28.0600 -18.6754 0.1470
28.0800 -18.6887 0.1476
28.1000 -18.7021 0.1469
28.1200 -18.7155 0.1476
28.1400 -18.7288 0.1472
28.1600 -18.7421 0.1470
28.1800 -18.7555 0.1494
28.2000 -18.7688 0.1495
28.2200 -18.7822 0.1510
28.2400 -18.7955 0.1532
28.2600 -18.8088 0.1513
28.2800 -18.8221 0.1513
28.3000 -18.8354 0.1551
28.3200 -18.8488 0.1542
28.3400 -18.8621 0.1551
28.3600 -18.8754 0.1562
28.3800 -18.8887 0.1558
28.4000 -18.9021 0.1557
28.4200 -18.9154 0.1587
28.4400 -18.9287 0.1580
28.4600 -18.9420 0.1591
28.4800 -18.9554 0.1604
28.5000 -18.9688 0.1594
28.5200 -18.9821 0.1604
28.5400 -18.9954 0.1633
28.5600 -19.0088 0.1604
28.5800 -19.0221 0.1613
28.6000 -19.0355 0.1644
28.6200 -19.0488 0.1629
28.6400 -19.0621 0.1619
28.6600 -19.0755 0.1641
28.6800 -19.0888 0.1649
28.7000 -19.1021 0.1644
28.7200 -19.1154 0.1654
28.7400 -19.1287 0.1649
28.7600 -19.1421 0.1639
28.7800 -19.1554 0.1662
28.8000 -19.1687 0.1651
28.8200 -19.1821 0.1676
28.8400 -19.1954 0.1678
28.8600 -19.2088 0.1680
28.8800 -19.2221 0.1661
28.9000 -19.2354 0.1693
28.9200 -19.2488 0.1668
28.9400 -19.2622 0.1689
28.9600 -19.2755 0.1703
28.9800 -19.2888 0.1701
29.0000 -19.3021 0.1726
29.0200 -19.3154 0.1736
29.0400 -19.3287 0.1728
29.0600 -19.3420 0.1713
29.0800 -19.3553 0.1748
29.1000 -19.3687 0.1747
29.1200 -19.3821 0.1781
29.1400 -19.3954 0.1781
29.1600 -19.4087 0.1789
29.1800 -19.4220 0.1785
29.2000 -19.4354 0.1783
29.2200 -19.4488 0.1782
29.2400 -19.4622 0.1806
29.2600 -19.4755 0.1807
29.2800 -19.4888 0.1820
29.3000 -19.5022 0.1802
29.3200 -19.5155 0.1846
29.3400 -19.5287 0.1804
29.3600 -19.5420 0.1813
29.3800 -19.5553 0.1819
29.4000 -19.5687 0.1816
29.4200 -19.5820 0.1812
29.4400 -19.5953 0.1841
29.4600 -19.6087 0.1841
29.4800 -19.6221 0.1852
29.5000 -19.6354 0.1859
29.5200 -19.6487 0.1869
29.5400 -19.6621 0.1855
29.5600 -19.6755 0.1909
29.5800 -19.6889 0.1885
29.6000 -19.7021 0.1882
29.6200 -19.7154 0.1888
29.6400 -19.7288 0.1899
29.6600 -19.7421 0.1910
29.6800 -19.7555 0.1936
29.7000 -19.7688 0.1930
29.7200 -19.7821 0.1924
29.7400 -19.7954 0.1948
29.7600 -19.8088 0.1945
29.7800 -19.8221 0.1921
29.8000 -19.8354 0.1950
29.8200 -19.8487 0.1960
29.8400 -19.8621 0.1930
29.8600 -19.8754 0.1961
29.8800 -19.8887 0.1961
29.9000 -19.9021 0.1945
29.9200 -19.9155 0.1990
29.9400 -19.9288 0.1977
29.9600 -19.9421 0.1978
29.9800 -19.9554 0.2000
30.0000 -19.9688 0.1972
30.0200 -19.9821 0.2004
30.0400 -19.9954 0.2006
30.0600 -20.0088 0.2022
30.0800 -20.0221 0.1997
30.1000 -20.0354 0.2048
30.1200 -20.0488 0.2036
30.1400 -20.0620 0.2036
30.1600 -20.0753 0.2027
30.1800 -20.0887 0.2037
30.2000 -20.1021 0.2028
30.2200 -20.1154 0.2061
30.2400 -20.1287 0.2049
30.2600 -20.1421 0.2049
30.2800 -20.1554 0.2039
30.3000 -20.1688 0.2060
30.3200 -20.1821 0.2047
30.3400 -20.1954 0.2084
30.3600 -20.2087 0.2095
30.3800 -20.2221 0.2070
30.4000 -20.2354 0.2101
30.4200 -20.2487 0.2108
30.4400 -20.2620 0.2115
30.4600 -20.2754 0.2132
30.4800 -20.2887 0.2139
30.5000 -20.3020 0.2128
30.5200 -20.3154 0.2171
30.5400 -20.3287 0.2169
30.5600 -20.3421 0.2174
30.5800 -20.3554 0.2177
30.6000 -20.3687 0.2185
30.6200 -20.3821 0.2200
30.6400 -20.3954 0.2212
30.6600 -20.4088 0.2212
30.6800 -20.4221 0.2202
30.7000 -20.4354 0.2225
30.7200 -20.4488 0.2221
30.7400 -20.4621 0.2226
30.7600 -20.4755 0.2224
30.7800 -20.4888 0.2214
30.8000 -20.5021 0.2198
30.8200 -20.5154 0.2240
30.8400 -20.5287 0.2241
30.8600 -20.5420 0.2221
30.8800 -20.5553 0.2233
30.9000 -20.5686 0.2251
30.9200 -20.5820 0.2227
30.9400 -20.5954 0.1989
30.9600 -20.6087 0.1403
30.9800 -20.6220 0.0697
31.0000 -20.6354 -0.0075
31.0200 -20.6488 -0.0885
31.0400 -20.6622 -0.1701
31.0600 -20.6755 -0.2469
31.0800 -20.6888 -0.2947
31.1000 -20.7022 -0.3375
31.1200 -20.7155 -0.3878
31.1400 -20.7288 -0.4357
31.1600 -20.7421 -0.4886
31.1800 -20.7554 -0.5331
31.2000 -20.7687 -0.5763
31.2200 -20.7820 -0.6042
31.2400 -20.7953 -0.6103
31.2600 -20.8087 -0.6090
31.2800 -20.8220 -0.6073
31.3000 -20.8354 -0.6043
31.3200 -20.8487 -0.6035
31.3400 -20.8621 -0.6062
31.3600 -20.8755 -0.6040
31.3800 -20.8888 -0.6060
31.4000 -20.9022 -0.6066
31.4200 -20.9154 -0.6047
31.4400 -20.9288 -0.6027
31.4600 -20.9421 -0.6055
31.4800 -20.9555 -0.6033
31.5000 -20.9688 -0.6035
31.5200 -20.9821 -0.6014
31.5400 -20.9954 -0.6015
31.5600 -21.0087 -0.6000
31.5800 -21.0220 -0.6015
31.6000 -21.0354 -0.5973
31.6200 -21.0487 -0.5959
31.6400 -21.0621 -0.5954
31.6600 -21.0754 -0.5974
31.6800 -21.0887 -0.5946
31.7000 -21.1021 -0.5955
31.7200 -21.1154 -0.5923
31.7400 -21.1288 -0.5937
31.7600 -21.1421 -0.5940
31.7800 -21.1554 -0.5942
31.8000 -21.1687 -0.5935
31.8200 -21.1820 -0.5948
31.8400 -21.1954 -0.5917
31.8600 -21.2087 -0.5919
31.8800 -21.2221 -0.5912
31.9000 -21.2354 -0.5901
31.9200 -21.2488 -0.5897
31.9400 -21.2621 -0.5904
31.9600 -21.2754 -0.5879
31.9800 -21.2887 -0.5870
32.0000 -21.3021 -0.5865
32.0200 -21.3154 -0.5846
32.0400 -21.3287 -0.5855
32.0600 -21.3420 -0.5853
32.0800 -21.3554 -0.5837
32.1000 -21.3688 -0.5816
32.1200 -21.3821 -0.5807
32.1400 -21.3954 -0.5782
32.1600 -21.4088 -0.5795
32.1800 -21.4221 -0.5764
32.2000 -21.4355 -0.5765
32.2200 -21.4488 -0.5738
32.2400 -21.4621 -0.5744
32.2600 -21.4754 -0.5719
32.2800 -21.4888 -0.5725
32.3000 -21.5021 -0.5726
32.3200 -21.5154 -0.5720
32.3400 -21.5287 -0.5698
32.3600 -21.5421 -0.5700
32.3800 -21.5554 -0.5689
32.4000 -21.5687 -0.5689
32.4200 -21.5820 -0.5676
32.4400 -21.5954 -0.5665
32.4600 -21.6088 -0.5642
32.4800 -21.6221 -0.5647
32.5000 -21.6354 -0.5649
32.5200 -21.6488 -0.5640
32.5400 -21.6621 -0.5629
32.5600 -21.6755 -0.5600
32.5800 -21.6888 -0.5607
32.6000 -21.7021 -0.5617
32.6200 -21.7154 -0.5625
32.6400 -21.7288 -0.5594
32.6600 -21.7421 -0.5575
32.6800 -21.7554 -0.5579
32.7000 -21.7687 -0.5576
32.7200 -21.7821 -0.5562
32.7400 -21.7954 -0.5554
32.7600 -21.8087 -0.5531
32.7800 -21.8220 -0.5533
32.8000 -21.8354 -0.5535
32.8200 -21.8488 -0.5534
32.8400 -21.8621 -0.5526
32.8600 -21.8754 -0.5510
32.8800 -21.8887 -0.5493
32.9000 -21.9021 -0.5499
32.9200 -21.9155 -0.5480
32.9400 -21.9288 -0.5466
32.9600 -21.9421 -0.5465
32.9800 -21.9554 -0.5450
33.0000 -21.9688 -0.5432
33.0200 -21.9821 -0.5431
33.0400 -21.9954 -0.5430
33.0600 -22.0087 -0.5404
33.0800 -22.0221 -0.5423
33.1000 -22.0354 -0.5398
33.1200 -22.0487 -0.5388
33.1400 -22.0621 -0.5370
33.1600 -22.0754 -0.5377
33.1800 -22.0888 -0.5366
33.2000 -22.1021 -0.5376
33.2200 -22.1154 -0.5338
33.2400 -22.1287 -0.5324
33.2600 -22.1421 -0.5299
33.2800 -22.1554 -0.5310
33.3000 -22.1687 -0.5279
33.3200 -22.1821 -0.5309
33.3400 -22.1954 -0.5272
33.3600 -22.2088 -0.5278
33.3800 -22.2221 -0.5248
33.4000 -22.2354 -0.5260
33.4200 -22.2487 -0.5232
33.4400 -22.2621 -0.5253
33.4600 -22.2754 -0.5224
33.4800 -22.2888 -0.5215
33.5000 -22.3021 -0.5208
33.5200 -22.3154 -0.5202
33.5400 -22.3288 -0.5201
33.5600 -22.3421 -0.5172
33.5800 -22.3554 -0.5174
33.6000 -22.3688 -0.5155
33.6200 -22.3821 -0.5158
33.6400 -22.3955 -0.5150
33.6600 -22.4088 -0.5164
33.6800 -22.4221 -0.5139
33.7000 -22.4354 -0.5149
33.7200 -22.4487 -0.5129
33.7400 -22.4621 -0.5133
33.7600 -22.4754 -0.5135
33.7800 -22.4887 -0.5128
33.8000 -22.5021 -0.5126
33.8200 -22.5154 -0.5118
33.8400 -22.5288 -0.5091
33.8600 -22.5421 -0.5115
33.8800 -22.5554 -0.5102
33.9000 -22.5688 -0.5124
33.9200 -22.5821 -0.5114
33.9400 -22.5954 -0.5104
33.9600 -22.6087 -0.5105
33.9800 -22.6221 -0.5094
34.0000 -22.6355 -0.5073
34.0200 -22.6488 -0.5082
34.0400 -22.6621 -0.5071
34.0600 -22.6754 -0.5092
34.0800 -22.6888 -0.5061
34.1000 -22.7021 -0.5074
34.1200 -22.7154 -0.5077
34.1400 -22.7287 -0.5061
34.1600 -22.7420 -0.5045
34.1800 -22.7553 -0.5086
34.2000 -22.7687 -0.5070
34.2200 -22.7820 -0.5086
34.2400 -22.7954 -0.5056
34.2600 -22.8088 -0.5052
34.2800 -22.8221 -0.5048
34.3000 -22.8354 -0.5062
34.3200 -22.8488 -0.5059
34.3400 -22.8621 -0.5033
34.3600 -22.8755 -0.5042
34.3800 -22.8888 -0.5026
34.4000 -22.9021 -0.5019
34.4200 -22.9154 -0.4997
34.4400 -22.9287 -0.4997
34.4600 -22.9421 -0.4982
34.4800 -22.9554 -0.5017
34.5000 -22.9687 -0.5002
34.5200 -22.9820 -0.5000
34.5400 -22.9954 -0.4963
34.5600 -23.0088 -0.4977
34.5800 -23.0221 -0.4984
34.6000 -23.0354 -0.4975
34.6200 -23.0488 -0.4953
34.6400 -23.0622 -0.4929
34.6600 -23.0755 -0.4940
34.6800 -23.0888 -0.4921
34.7000 -23.1021 -0.4922
34.7200 -23.1155 -0.4913
34.7400 -23.1288 -0.4906
34.7600 -23.1421 -0.4900
34.7800 -23.1554 -0.4895
34.8000 -23.1688 -0.4883
34.8200 -23.1821 -0.4882
34.8400 -23.1954 -0.4864
34.8600 -23.2087 -0.4855
34.8800 -23.2220 -0.4859
34.9000 -23.2354 -0.4853
34.9200 -23.2487 -0.4850
34.9400 -23.2621 -0.4833
34.9600 -23.2754 -0.4855
34.9800 -23.2888 -0.4843
35.0000 -23.3021 -0.4822
35.0200 -23.3155 -0.4812
35.0400 -23.3288 -0.4802
35.0600 -23.3421 -0.4792
35.0800 -23.3555 -0.4782
35.1000 -23.3688 -0.4786
35.1200 -23.3821 -0.4759
35.1400 -23.3954 -0.4772
35.1600 -23.4088 -0.4763
35.1800 -23.4221 -0.4762
35.2000 -23.4354 -0.4751
35.2200 -23.4487 -0.4733
35.2400 -23.4620 -0.4708
35.2600 -23.4754 -0.4708
35.2800 -23.4887 -0.4701
35.3000 -23.5020 -0.4699
35.3200 -23.5154 -0.4683
35.3400 -23.5288 -0.4683
35.3600 -23.5422 -0.4657
35.3800 -23.5555 -0.4657
35.4000 -23.5688 -0.4657
35.4200 -23.5821 -0.4646
35.4400 -23.5955 -0.4633
35.4600 -23.6088 -0.4616
35.4800 -23.6221 -0.4615
35.5000 -23.6354 -0.4605
35.5200 -23.6488 -0.4590
35.5400 -23.6621 -0.4590
35.5600 -23.6754 -0.4588
35.5800 -23.6887 -0.4589
35.6000 -23.7020 -0.4594
35.6200 -23.7154 -0.4560
35.6400 -23.7287 -0.4568
35.6600 -23.7420 -0.4542
35.6800 -23.7554 -0.4541
35.7000 -23.7687 -0.4543
35.7200 -23.7821 -0.4538
35.7400 -23.7954 -0.4531
35.7600 -23.8087 -0.4538
35.7800 -23.8221 -0.4524
35.8000 -23.8355 -0.4532
35.8200 -23.8488 -0.4513
35.8400 -23.8621 -0.4532
35.8600 -23.8755 -0.4523
35.8800 -23.8888 -0.4535
35.9000 -23.9021 -0.4511
35.9200 -23.9154 -0.4503
35.9400 -23.9287 -0.4520
35.9600 -23.9420 -0.4518
35.9800 -23.9554 -0.4522
36.0000 -23.9687 -0.4505
36.0200 -23.9820 -0.4511
36.0400 -23.9954 -0.4514
36.0600 -24.0087 -0.4507
36.0800 -24.0221 -0.4491
36.1000 -24.0354 -0.4516
36.1200 -24.0487 -0.4506
36.1400 -24.0621 -0.4516
36.1600 -24.0755 -0.4481
36.1800 -24.0888 -0.4494
36.2000 -24.1021 -0.4489
36.2200 -24.1155 -0.4494
36.2400 -24.1288 -0.4490
36.2600 -24.1421 -0.4479
36.2800 -24.1554 -0.4456
36.3000 -24.1687 -0.4473
36.3200 -24.1820 -0.4446
36.3400 -24.1954 -0.4480
36.3600 -24.2087 -0.4442
36.3800 -24.2221 -0.4439
36.4000 -24.2354 -0.4438
36.4200 -24.2488 -0.4443
36.4400 -24.2621 -0.4441
36.4600 -24.2755 -0.4436
36.4800 -24.2888 -0.4423
36.5000 -24.3021 -0.4427
36.5200 -24.3155 -0.4387
36.5400 -24.3288 -0.4408
36.5600 -24.3421 -0.4375
36.5800 -24.3554 -0.4400
36.6000 -24.3687 -0.4389
36.6200 -24.3820 -0.4380
36.6400 -24.3953 -0.4367
36.6600 -24.4086 -0.4362
36.6800 -24.4220 -0.4370
36.7000 -24.4354 -0.4326
36.7200 -24.4488 -0.4336
36.7400 -24.4621 -0.4300
36.7600 -24.4754 -0.4330
36.7800 -24.4888 -0.4318
36.8000 -24.5022 -0.4302
36.8200 -24.5155 -0.4301
36.8400 -24.5288 -0.4297
36.8600 -24.5421 -0.4295
36.8800 -24.5555 -0.4280
36.9000 -24.5688 -0.4266
36.9200 -24.5821 -0.4269
36.9400 -24.5954 -0.4237
36.9600 -24.6088 -0.4253
36.9800 -24.6221 -0.4223
37.0000 -24.6354 -0.4238
37.0200 -24.6487 -0.4241
37.0400 -24.6620 -0.4239
37.0600 -24.6754 -0.4251
37.0800 -24.6887 -0.4237
37.1000 -24.7021 -0.4241
37.1200 -24.7154 -0.4228
37.1400 -24.7287 -0.4220
37.1600 -24.7421 -0.4201
37.1800 -24.7555 -0.4176
37.2000 -24.7688 -0.4184
37.2200 -24.7821 -0.4165
37.2400 -24.7954 -0.4175
37.2600 -24.8088 -0.4173
37.2800 -24.8221 -0.4165
37.3000 -24.8354 -0.4155
37.3200 -24.8487 -0.4149
37.3400 -24.8621 -0.4158
37.3600 -24.8754 -0.4153
37.3800 -24.8887 -0.4149
37.4000 -24.9020 -0.4136
37.4200 -24.9154 -0.4118
37.4400 -24.9287 -0.4130
37.4600 -24.9421 -0.4132
37.4800 -24.9554 -0.4113
37.5000 -24.9688 -0.4093
37.5200 -24.9821 -0.4092
37.5400 -24.9955 -0.4098
37.5600 -25.0088 -0.4120
37.5800 -25.0221 -0.4111
37.6000 -25.0354 -0.4088
37.6200 -25.0488 -0.4078
37.6400 -25.0621 -0.4069
37.6600 -25.0754 -0.4071
37.6800 -25.0887 -0.4074
37.7000 -25.1021 -0.4082
37.7200 -25.1154 -0.4049
37.7400 -25.1287 -0.4052
37.7600 -25.1420 -0.4051
37.7800 -25.1554 -0.4033
37.8000 -25.1688 -0.4060
37.8200 -25.1821 -0.4047
37.8400 -25.1954 -0.4040
37.8600 -25.2088 -0.4039
37.8800 -25.2221 -0.4038
37.9000 -25.2355 -0.4007
37.9200 -25.2488 -0.4050
37.9400 -25.2621 -0.4004
37.9600 -25.2755 -0.4001
37.9800 -25.2888 -0.3995
38.0000 -25.3022 -0.3995
38.0200 -25.3155 -0.3976
38.0400 -25.3288 -0.4008
38.0600 -25.3421 -0.3976
38.0800 -25.3554 -0.3975
38.1000 -25.3687 -0.3974
38.1200 -25.3820 -0.3954
38.1400 -25.3953 -0.3975
38.1600 -25.4087 -0.3965
38.1800 -25.4220 -0.3958
38.2000 -25.4354 -0.3951
38.2200 -25.4487 -0.3947
38.2400 -25.4621 -0.3951
38.2600 -25.4755 -0.3945
38.2800 -25.4888 -0.3962
38.3000 -25.5021 -0.3939
38.3200 -25.5155 -0.3927
38.3400 -25.5288 -0.3949
38.3600 -25.5421 -0.3943
38.3800 -25.5554 -0.3924
38.4000 -25.5687 -0.3936
38.4200 -25.5821 -0.3930
38.4400 -25.5954 -0.3930
38.4600 -25.6087 -0.3941
38.4800 -25.6220 -0.3927
38.5000 -25.6353 -0.3914
38.5200 -25.6487 -0.3897
38.5400 -25.6621 -0.3904
38.5600 -25.6754 -0.3862
38.5800 -25.6888 -0.3894
38.6000 -25.7021 -0.3866
38.6200 -25.7155 -0.3874
38.6400 -25.7288 -0.3874
38.6600 -25.7421 -0.3867
38.6800 -25.7554 -0.3816
38.7000 -25.7688 -0.3853
38.7200 -25.7821 -0.3822
38.7400 -25.7954 -0.3836
38.7600 -25.8087 -0.3831
38.7800 -25.8221 -0.3837
38.8000 -25.8354 -0.3768
38.8200 -25.8487 -0.3788
38.8400 -25.8620 -0.3792
38.8600 -25.8754 -0.3784
38.8800 -25.8888 -0.3792
38.9000 -25.9021 -0.3775
38.9200 -25.9154 -0.3764
38.9400 -25.9288 -0.3768
38.9600 -25.9421 -0.3764
38.9800 -25.9555 -0.3765
39.0000 -25.9687 -0.3764
39.0200 -25.9820 -0.3739
39.0400 -25.9954 -0.3725
39.0600 -26.0087 -0.3738
39.0800 -26.0221 -0.3720
39.1000 -26.0354 -0.3716
39.1200 -26.0487 -0.3726
39.1400 -26.0621 -0.3708
39.1600 -26.0754 -0.3692
39.1800 -26.0887 -0.3701
39.2000 -26.1020 -0.3711
39.2200 -26.1154 -0.3704
39.2400 -26.1287 -0.3705
39.2600 -26.1421 -0.3697
39.2800 -26.1554 -0.3685
39.3000 -26.1687 -0.3667
39.3200 -26.1821 -0.3688
39.3400 -26.1955 -0.3677
39.3600 -26.2088 -0.3676
39.3800 -26.2221 -0.3653
39.4000 -26.2355 -0.3644
39.4200 -26.2488 -0.3669
39.4400 -26.2622 -0.3676
39.4600 -26.2755 -0.3654
39.4800 -26.2888 -0.3657
39.5000 -26.3021 -0.3651
39.5200 -26.3154 -0.3643
39.5400 -26.3287 -0.3657
39.5600 -26.3420 -0.3666
39.5800 -26.3554 -0.3641
39.6000 -26.3687 -0.3631
39.6200 -26.3821 -0.3639
39.6400 -26.3954 -0.3620
39.6600 -26.4087 -0.3649
39.6800 -26.4221 -0.3629
39.7000 -26.4355 -0.3613
39.7200 -26.4488 -0.3623
39.7400 -26.4621 -0.3622
39.7600 -26.4754 -0.3599
39.7800 -26.4888 -0.3615
39.8000 -26.5021 -0.3624
39.8200 -26.5154 -0.3602
39.8400 -26.5287 -0.3599
39.8600 -26.5421 -0.3601
39.8800 -26.5554 -0.3574
39.9000 -26.5687 -0.3599
39.9200 -26.5820 -0.3612
39.9400 -26.5954 -0.3572
39.9600 -26.6087 -0.3580
39.9800 -26.6221 -0.3567
40.0000 -26.6354 -0.3546
40.0200 -26.6487 -0.3562
40.0400 -26.6621 -0.3536
40.0600 -26.6754 -0.3509
40.0800 -26.6888 -0.3526
40.1000 -26.7021 -0.3517
40.1200 -26.7154 -0.3524
40.1400 -26.7288 -0.3516
40.1600 -26.7421 -0.3501
40.1800 -26.7554 -0.3473
40.2000 -26.7688 -0.3492
40.2200 -26.7821 -0.3481
40.2400 -26.7955 -0.3478
40.2600 -26.8088 -0.3456
40.2800 -26.8220 -0.3474
40.3000 -26.8354 -0.3458
40.3200 -26.8487 -0.3460
40.3400 -26.8621 -0.3436
40.3600 -26.8754 -0.3432
40.3800 -26.8887 -0.3406
40.4000 -26.9021 -0.3420
40.4200 -26.9155 -0.3391
40.4400 -26.9288 -0.3403
40.4600 -26.9421 -0.3398
40.4800 -26.9554 -0.3385
40.5000 -26.9688 -0.3372
40.5200 -26.9821 -0.3379
40.5400 -26.9954 -0.3357
40.5600 -27.0087 -0.3370
40.5800 -27.0221 -0.3354
40.6000 -27.0354 -0.3337
40.6200 -27.0487 -0.3331
40.6400 -27.0620 -0.3333
40.6600 -27.0754 -0.3325
40.6800 -27.0888 -0.3305
40.7000 -27.1021 -0.3300
40.7200 -27.1154 -0.3296
40.7400 -27.1287 -0.3307
40.7600 -27.1421 -0.3298
40.7800 -27.1555 -0.3297
40.8000 -27.1688 -0.3303
40.8200 -27.1821 -0.3305
40.8400 -27.1954 -0.3291
40.8600 -27.2088 -0.3285
40.8800 -27.2221 -0.3288
40.9000 -27.2354 -0.3268
40.9200 -27.2487 -0.3266
40.9400 -27.2621 -0.3282
40.9600 -27.2754 -0.3243
40.9800 -27.2887 -0.3237
41.0000 -27.3020 -0.3244
41.0200 -27.3154 -0.3260
41.0400 -27.3287 -0.3260
41.0600 -27.3421 -0.3276
41.0800 -27.3554 -0.3236
41.1000 -27.3687 -0.3237
41.1200 -27.3821 -0.3226
41.1400 -27.3954 -0.3220
41.1600 -27.4088 -0.3236
41.1800 -27.4221 -0.3256
41.2000 -27.4354 -0.3238
41.2200 -27.4488 -0.3248
41.2400 -27.4621 -0.3246
41.2600 -27.4754 -0.3226
41.2800 -27.4888 -0.3234
41.3000 -27.5021 -0.3219
41.3200 -27.5155 -0.3212
41.3400 -27.5288 -0.3195
41.3600 -27.5421 -0.3213
41.3800 -27.5554 -0.3202
41.4000 -27.5687 -0.3203
41.4200 -27.5820 -0.3198
41.4400 -27.5953 -0.3193
41.4600 -27.6087 -0.3198
41.4800 -27.6220 -0.3206
41.5000 -27.6354 -0.3179
41.5200 -27.6488 -0.3153
41.5400 -27.6621 -0.3171
41.5600 -27.6754 -0.3160
41.5800 -27.6888 -0.3148
41.6000 -27.7022 -0.3160
41.6200 -27.7155 -0.3169
41.6400 -27.7288 -0.3155
41.6600 -27.7421 -0.3172
41.6800 -27.7554 -0.3141
41.7000 -27.7687 -0.3107
41.7200 -27.7820 -0.3132
41.7400 -27.7954 -0.3131
41.7600 -27.8087 -0.3118
41.7800 -27.8221 -0.3136
41.8000 -27.8354 -0.3106
41.8200 -27.8488 -0.3103
41.8400 -27.8621 -0.3112
41.8600 -27.8755 -0.3088
41.8800 -27.8888 -0.3083
41.9000 -27.9021 -0.3087
41.9200 -27.9154 -0.3064
41.9400 -27.9288 -0.3064
41.9600 -27.9422 -0.3067
41.9800 -27.9555 -0.3061
42.0000 -27.9688 -0.3021
42.0200 -27.9821 -0.3044
42.0400 -27.9954 -0.3003
42.0600 -28.0087 -0.3024
42.0800 -28.0220 -0.3036
42.1000 -28.0353 -0.3013
42.1200 -28.0487 -0.3000
42.1400 -28.0621 -0.3024
42.1600 -28.0754 -0.3006
42.1800 -28.0888 -0.3004
42.2000 -28.1021 -0.3005
42.2200 -28.1155 -0.2981
42.2400 -28.1288 -0.2981
42.2600 -28.1421 -0.2978
42.2800 -28.1554 -0.2975
42.3000 -28.1688 -0.2959
42.3200 -28.1821 -0.2995
42.3400 -28.1954 -0.2956
42.3600 -28.2088 -0.2974
42.3800 -28.2221 -0.2996
42.4000 -28.2354 -0.2968
42.4200 -28.2487 -0.2973
42.4400 -28.2620 -0.2981
42.4600 -28.2753 -0.2966
42.4800 -28.2887 -0.2948
42.5000 -28.3020 -0.2970
42.5200 -28.3154 -0.2966
42.5400 -28.3287 -0.2930
42.5600 -28.3421 -0.2962
42.5800 -28.3555 -0.2928
42.6000 -28.3688 -0.2934
42.6200 -28.3821 -0.2948
42.6400 -28.3954 -0.2953
42.6600 -28.4088 -0.2914
42.6800 -28.4221 -0.2954
42.7000 -28.4355 -0.2911
42.7200 -28.4488 -0.2911
42.7400 -28.4621 -0.2896
42.7600 -28.4754 -0.2914
42.7800 -28.4888 -0.2897
42.8000 -28.5021 -0.2923
42.8200 -28.5154 -0.2915
42.8400 -28.5287 -0.2897
42.8600 -28.5421 -0.2906
42.8800 -28.5554 -0.2882
42.9000 -28.5687 -0.2868
42.9200 -28.5820 -0.2865
42.9400 -28.5954 -0.2866
42.9600 -28.6088 -0.2853
42.9800 -28.6221 -0.2858
43.0000 -28.6354 -0.2832
43.0200 -28.6488 -0.2835
43.0400 -28.6621 -0.2837
43.0600 -28.6755 -0.2844
43.0800 -28.6888 -0.2810
43.1000 -28.7021 -0.2838
43.1200 -28.7155 -0.2803
43.1400 -28.7288 -0.2793
43.1600 -28.7421 -0.2805
43.1800 -28.7554 -0.2790
43.2000 -28.7687 -0.2761
43.2200 -28.7821 -0.2776
43.2400 -28.7954 -0.2756
43.2600 -28.8087 -0.2764
43.2800 -28.8220 -0.2772
43.3000 -28.8354 -0.2764
43.3200 -28.8488 -0.2725
43.3400 -28.8621 -0.2742
43.3600 -28.8754 -0.2759
43.3800 -28.8888 -0.2724
43.4000 -28.9021 -0.2746
43.4200 -28.9155 -0.2727
43.4400 -28.9288 -0.2712
43.4600 -28.9421 -0.2728
43.4800 -28.9554 -0.2712
43.5000 -28.9688 -0.2711
43.5200 -28.9821 -0.2717
43.5400 -28.9954 -0.2717
43.5600 -29.0087 -0.2694
43.5800 -29.0221 -0.2727
43.6000 -29.0354 -0.2708
43.6200 -29.0487 -0.2707
43.6400 -29.0620 -0.2697
43.6600 -29.0754 -0.2701
43.6800 -29.0888 -0.2675
43.7000 -29.1022 -0.2715
43.7200 -29.1155 -0.2701
43.7400 -29.1288 -0.2674
43.7600 -29.1421 -0.2710
43.7800 -29.1555 -0.2664
43.8000 -29.1687 -0.2668
43.8200 -29.1820 -0.2673
43.8400 -29.1953 -0.2678
43.8600 -29.2087 -0.2607
43.8800 -29.2220 -0.2636
43.9000 -29.2353 -0.2607
43.9200 -29.2487 -0.2630
43.9400 -29.2621 -0.2650
43.9600 -29.2754 -0.2635
43.9800 -29.2887 -0.2610
44.0000 -29.3021 -0.2612
44.0200 -29.3155 -0.2595
44.0400 -29.3288 -0.2560
44.0600 -29.3421 -0.2584
44.0800 -29.3554 -0.2581
44.1000 -29.3688 -0.2573
44.1200 -29.3821 -0.2593
44.1400 -29.3955 -0.2613
44.1600 -29.4088 -0.2551
44.1800 -29.4221 -0.2566
44.2000 -29.4354 -0.2551
44.2200 -29.4488 -0.2549
44.2400 -29.4621 -0.2521
44.2600 -29.4754 -0.2539
44.2800 -29.4887 -0.2495
44.3000 -29.5021 -0.2529
44.3200 -29.5154 -0.2480
44.3400 -29.5287 -0.2504
44.3600 -29.5421 -0.2483
44.3800 -29.5554 -0.2500
44.4000 -29.5688 -0.2459
44.4200 -29.5821 -0.2485
44.4400 -29.5954 -0.2478
44.4600 -29.6088 -0.2471
44.4800 -29.6221 -0.2473
44.5000 -29.6355 -0.2469
44.5200 -29.6488 -0.2448
44.5400 -29.6621 -0.2471
44.5600 -29.6754 -0.2465
44.5800 -29.6888 -0.2420
44.6000 -29.7021 -0.2441
44.6200 -29.7154 -0.2444
44.6400 -29.7287 -0.2439
44.6600 -29.7421 -0.2451
44.6800 -29.7554 -0.2436
44.7000 -29.7688 -0.2405
44.7200 -29.7821 -0.2408
44.7400 -29.7954 -0.2405
44.7600 -29.8088 -0.2403
44.7800 -29.8221 -0.2428
44.8000 -29.8354 -0.2421
44.8200 -29.8488 -0.2400
44.8400 -29.8621 -0.2417
44.8600 -29.8754 -0.2394
44.8800 -29.8887 -0.2383
44.9000 -29.9021 -0.2404
44.9200 -29.9154 -0.2405
44.9400 -29.9287 -0.2384
44.9600 -29.9420 -0.2401
44.9800 -29.9553 -0.2378
45.0000 -29.9687 -0.2367
45.0200 -29.9821 -0.2376
45.0400 -29.9954 -0.2377
45.0600 -30.0088 -0.2357
45.0800 -30.0221 -0.2390
45.1000 -30.0354 -0.2363
45.1200 -30.0488 -0.2365
45.1400 -30.0621 -0.2360
45.1600 -30.0754 -0.2375
45.1800 -30.0888 -0.2347
45.2000 -30.1021 -0.2365
45.2200 -30.1155 -0.2342
45.2400 -30.1288 -0.2352
45.2600 -30.1421 -0.2370
45.2800 -30.1554 -0.2381
45.3000 -30.1688 -0.2346
45.3200 -30.1820 -0.2362
45.3400 -30.1953 -0.2351
45.3600 -30.2087 -0.2333
45.3800 -30.2220 -0.2354
45.4000 -30.2354 -0.2360
45.4200 -30.2487 -0.2346
45.4400 -30.2620 -0.2356
45.4600 -30.2754 -0.2345
45.4800 -30.2888 -0.2320
45.5000 -30.3022 -0.2349
45.5200 -30.3155 -0.2327
45.5400 -30.3288 -0.2309
45.5600 -30.3421 -0.2301
45.5800 -30.3555 -0.2312
45.6000 -30.3688 -0.2299
45.6200 -30.3821 -0.2299
45.6400 -30.3954 -0.2284
45.6600 -30.4087 -0.2290
45.6800 -30.4220 -0.2294
45.7000 -30.4353 -0.2275
45.7200 -30.4487 -0.2232
45.7400 -30.4620 -0.2246
45.7600 -30.4754 -0.2244
45.7800 -30.4887 -0.2239
45.8000 -30.5021 -0.2245
45.8200 -30.5154 -0.2238
45.8400 -30.5288 -0.2215
45.8600 -30.5422 -0.2217
45.8800 -30.5555 -0.2209
45.9000 -30.5688 -0.2175
45.9200 -30.5821 -0.2183
45.9400 -30.5955 -0.2186
45.9600 -30.6088 -0.2185
45.9800 -30.6221 -0.2167
46.0000 -30.6354 -0.2175
46.0200 -30.6487 -0.2143
46.0400 -30.6620 -0.2156
46.0600 -30.6754 -0.2148
46.0800 -30.6887 -0.2129
46.1000 -30.7021 -0.2130
46.1200 -30.7154 -0.2137
46.1400 -30.7288 -0.2120
46.1600 -30.7421 -0.2131
46.1800 -30.7554 -0.2131
46.2000 -30.7688 -0.2119
46.2200 -30.7821 -0.2125
46.2400 -30.7954 -0.2124
46.2600 -30.8087 -0.2099
46.2800 -30.8220 -0.2106
46.3000 -30.8354 -0.2119
46.3200 -30.8488 -0.2103
46.3400 -30.8621 -0.2097
46.3600 -30.8754 -0.2130
46.3800 -30.8888 -0.2102
46.4000 -30.9021 -0.2107
46.4200 -30.9154 -0.2113
46.4400 -30.9287 -0.2079
46.4600 -30.9421 -0.2094
46.4800 -30.9554 -0.2097
46.5000 -30.9687 -0.2070
46.5200 -30.9820 -0.2060
46.5400 -30.9954 -0.2087
46.5600 -31.0088 -0.2046
46.5800 -31.0221 -0.2061
46.6000 -31.0354 -0.2051
46.6200 -31.0488 -0.2055
46.6400 -31.0621 -0.2047
46.6600 -31.0755 -0.2069
46.6800 -31.0888 -0.2024
46.7000 -31.1021 -0.2047
46.7200 -31.1154 -0.2045
46.7400 -31.1288 -0.2033
46.7600 -31.1421 -0.2007
46.7800 -31.1554 -0.2027
46.8000 -31.1687 -0.1997
46.8200 -31.1820 -0.2009
46.8400 -31.1954 -0.2004
46.8600 -31.2087 -0.1993
46.8800 -31.2220 -0.1998
46.9000 -31.2354 -0.2005
46.9200 -31.2488 -0.1972
46.9400 -31.2621 -0.1976
46.9600 -31.2754 -0.1969
46.9800 -31.2887 -0.1960
47.0000 -31.3021 -0.1955
47.0200 -31.3155 -0.1982
47.0400 -31.3288 -0.1951
47.0600 -31.3421 -0.1944
47.0800 -31.3554 -0.1958
47.1000 -31.3688 -0.1937
47.1200 -31.3821 -0.1935
47.1400 -31.3954 -0.1935
47.1600 -31.4087 -0.1914
47.1800 -31.4220 -0.1900
47.2000 -31.4354 -0.1917
47.2200 -31.4487 -0.1877
47.2400 -31.4620 -0.1877
47.2600 -31.4754 -0.1892
47.2800 -31.4888 -0.1885
47.3000 -31.5021 -0.1869
47.3200 -31.5154 -0.1881
47.3400 -31.5288 -0.1854
47.3600 -31.5421 -0.1861
47.3800 -31.5555 -0.1868
47.4000 -31.5688 -0.1843
47.4200 -31.5821 -0.1853
47.4400 -31.5954 -0.1881
47.4600 -31.6088 -0.1856
47.4800 -31.6221 -0.1852
47.5000 -31.6354 -0.1835
47.5200 -31.6487 -0.1819
47.5400 -31.6621 -0.1823
47.5600 -31.6754 -0.1830
47.5800 -31.6887 -0.1802
47.6000 -31.7021 -0.1816
47.6200 -31.7154 -0.1804
47.6400 -31.7288 -0.1799
47.6600 -31.7422 -0.1787
47.6800 -31.7555 -0.1800
47.7000 -31.7687 -0.1763
47.7200 -31.7821 -0.1765
47.7400 -31.7954 -0.1793
47.7600 -31.8087 -0.1761
47.7800 -31.8221 -0.1761
47.8000 -31.8354 -0.1767
47.8200 -31.8487 -0.1748
47.8400 -31.8621 -0.1742
47.8600 -31.8754 -0.1741
47.8800 -31.8887 -0.1713
47.9000 -31.9020 -0.1718
47.9200 -31.9154 -0.1732
47.9400 -31.9288 -0.1713
47.9600 -31.9421 -0.1714
47.9800 -31.9554 -0.1710
48.0000 -31.9688 -0.1697
48.0200 -31.9822 -0.1676
48.0400 -31.9955 -0.1691
48.0600 -32.0087 -0.1664
48.0800 -32.0221 -0.1670
48.1000 -32.0354 -0.1680
48.1200 -32.0488 -0.1653
48.1400 -32.0621 -0.1628
48.1600 -32.0754 -0.1655
48.1800 -32.0887 -0.1650
48.2000 -32.1021 -0.1655
48.2200 -32.1154 -0.1667
48.2400 -32.1287 -0.1663
48.2600 -32.1421 -0.1640
48.2800 -32.1554 -0.1671
48.3000 -32.1687 -0.1636
48.3200 -32.1820 -0.1638
48.3400 -32.1954 -0.1653
48.3600 -32.2088 -0.1636
48.3800 -32.2221 -0.1615
48.4000 -32.2355 -0.1640
48.4200 -32.2487 -0.1615
48.4400 -32.2621 -0.1611
48.4600 -32.2754 -0.1616
48.4800 -32.2888 -0.1601
48.5000 -32.3021 -0.1593
48.5200 -32.3155 -0.1615
48.5400 -32.3288 -0.1597
48.5600 -32.3421 -0.1602
48.5800 -32.3554 -0.1612
48.6000 -32.3687 -0.1603
48.6200 -32.3820 -0.1596
48.6400 -32.3953 -0.1591
48.6600 -32.4087 -0.1571
48.6800 -32.4220 -0.1553
48.7000 -32.4353 -0.1563
48.7200 -32.4487 -0.1559
48.7400 -32.4621 -0.1550
48.7600 -32.4755 -0.1560
48.7800 -32.4888 -0.1546
48.8000 -32.5021 -0.1521
48.8200 -32.5155 -0.1531
48.8400 -32.5289 -0.1523
48.8600 -32.5421 -0.1532
48.8800 -32.5554 -0.1529
48.9000 -32.5687 -0.1526
48.9200 -32.5821 -0.1490
48.9400 -32.5954 -0.1516
48.9600 -32.6087 -0.1498
48.9800 -32.6220 -0.1505
49.0000 -32.6354 -0.1503
49.0200 -32.6488 -0.1483
49.0400 -32.6621 -0.1482
49.0600 -32.6754 -0.1507
49.0800 -32.6888 -0.1485
49.1000 -32.7022 -0.1480
49.1200 -32.7155 -0.1479
49.1400 -32.7288 -0.1486
49.1600 -32.7421 -0.1451
49.1800 -32.7555 -0.1477
49.2000 -32.7688 -0.1459
49.2200 -32.7821 -0.1449
49.2400 -32.7954 -0.1439
49.2600 -32.8088 -0.1430
49.2800 -32.8221 -0.1396
49.3000 -32.8354 -0.1418
49.3200 -32.8487 -0.1411
49.3400 -32.8620 -0.1398
49.3600 -32.8754 -0.1408
49.3800 -32.8887 -0.1385
49.4000 -32.9021 -0.1377
49.4200 -32.9154 -0.1399
49.4400 -32.9288 -0.1402
49.4600 -32.9421 -0.1369
49.4800 -32.9555 -0.1384
49.5000 -32.9688 -0.1359
49.5200 -32.9821 -0.1355
49.5400 -32.9955 -0.1364
49.5600 -33.0088 -0.1355
49.5800 -33.0221 -0.1363
49.6000 -33.0354 -0.1363
49.6200 -33.0488 -0.1361
49.6400 -33.0621 -0.1354
49.6600 -33.0754 -0.1341
49.6800 -33.0887 -0.1326
49.7000 -33.1020 -0.1324
49.7200 -33.1153 -0.1338
49.7400 -33.1287 -0.1337
49.7600 -33.1420 -0.1312
49.7800 -33.1554 -0.1324
49.8000 -33.1688 -0.1321
49.8200 -33.1822 -0.1295
49.8400 -33.1955 -0.1333
49.8600 -33.2088 -0.1327
49.8800 -33.2221 -0.1317
49.9000 -33.2355 -0.1303
49.9200 -33.2488 -0.1296
49.9400 -33.2621 -0.1262
49.9600 -33.2754 -0.1299
49.9800 -33.2888 -0.1273
50.0000 -33.3021 -0.1293
50.0200 -33.3154 -0.1296
50.0400 -33.3287 -0.1303
50.0600 -33.3420 -0.1268
50.0800 -33.3554 -0.1270
50.1000 -33.3688 -0.1284
50.1200 -33.3821 -0.1247
50.1400 -33.3954 -0.1264
50.1600 -33.4087 -0.1251
50.1800 -33.4221 -0.1241
50.2000 -33.4354 -0.1252
50.2200 -33.4487 -0.1251
50.2400 -33.4621 -0.1218
50.2600 -33.4755 -0.1237
50.2800 -33.4888 -0.1217
50.3000 -33.5021 -0.1216
50.3200 -33.5155 -0.1219
50.3400 -33.5288 -0.1201
50.3600 -33.5421 -0.1164
50.3800 -33.5554 -0.1188
50.4000 -33.5687 -0.1172
50.4200 -33.5820 -0.1147
50.4400 -33.5954 -0.1160
50.4600 -33.6087 -0.1160
50.4800 -33.6221 -0.1157
50.5000 -33.6354 -0.1150
50.5200 -33.6487 -0.1136
50.5400 -33.6621 -0.1127
50.5600 -33.6754 -0.1150
50.5800 -33.6887 -0.1153
50.6000 -33.7021 -0.1116
50.6200 -33.7155 -0.1118
50.6400 -33.7288 -0.1133
50.6600 -33.7421 -0.1128
50.6800 -33.7555 -0.1138
50.7000 -33.7688 -0.1132
50.7200 -33.7821 -0.1109
50.7400 -33.7954 -0.1103
50.7600 -33.8087 -0.1126
50.7800 -33.8220 -0.1102
50.8000 -33.8354 -0.1115
50.8200 -33.8487 -0.1102
50.8400 -33.8621 -0.1092
50.8600 -33.8754 -0.1082
50.8800 -33.8887 -0.1090
50.9000 -33.9021 -0.1076
50.9200 -33.9155 -0.1100
50.9400 -33.9288 -0.1082
50.9600 -33.9421 -0.1072
50.9800 -33.9554 -0.1053
51.0000 -33.9688 -0.1044
51.0200 -33.9821 -0.1046
51.0400 -33.9954 -0.1042
51.0600 -34.0087 -0.1036
51.0800 -34.0220 -0.1023
51.1000 -34.0354 -0.1022
51.1200 -34.0487 -0.1021
51.1400 -34.0620 -0.1032
51.1600 -34.0754 -0.1012
51.1800 -34.0887 -0.1007
51.2000 -34.1021 -0.0977
51.2200 -34.1154 -0.0999
51.2400 -34.1288 -0.0978
51.2600 -34.1422 -0.0978
51.2800 -34.1555 -0.0949
51.3000 -34.1688 -0.0963
51.3200 -34.1821 -0.0953
51.3400 -34.1955 -0.0966
51.3600 -34.2088 -0.0941
51.3800 -34.2221 -0.0939
51.4000 -34.2354 -0.0913
51.4200 -34.2488 -0.0940
51.4400 -34.2621 -0.0910
51.4600 -34.2754 -0.0920
51.4800 -34.2887 -0.0912
51.5000 -34.3021 -0.0924
51.5200 -34.3154 -0.0921
51.5400 -34.3288 -0.0924
51.5600 -34.3421 -0.0882
51.5800 -34.3554 -0.0909
51.6000 -34.3687 -0.0905
51.6200 -34.3821 -0.0894
51.6400 -34.3955 -0.0871
51.6600 -34.4088 -0.0885
51.6800 -34.4221 -0.0870
51.7000 -34.4354 -0.0881
51.7200 -34.4488 -0.0874
51.7400 -34.4621 -0.0870
51.7600 -34.4754 -0.0877
51.7800 -34.4887 -0.0859
51.8000 -34.5021 -0.0841
51.8200 -34.5154 -0.0846
51.8400 -34.5287 -0.0870
51.8600 -34.5420 -0.0843
51.8800 -34.5553 -0.0842
51.9000 -34.5687 -0.0847
51.9200 -34.5821 -0.0850
51.9400 -34.5954 -0.0839
51.9600 -34.6087 -0.0844
51.9800 -34.6221 -0.0836
52.0000 -34.6355 -0.0851
52.0200 -34.6488 -0.0846
52.0400 -34.6621 -0.0844
52.0600 -34.6754 -0.0837
52.0800 -34.6888 -0.0845
52.1000 -34.7021 -0.0821
52.1200 -34.7154 -0.0837
52.1400 -34.7287 -0.0836
52.1600 -34.7421 -0.0832
52.1800 -34.7554 -0.0811
52.2000 -34.7687 -0.0841
52.2200 -34.7820 -0.0810
52.2400 -34.7954 -0.0803
52.2600 -34.8088 -0.0795
52.2800 -34.8221 -0.0775
52.3000 -34.8354 -0.0769
52.3200 -34.8487 -0.0782
52.3400 -34.8621 -0.0777
52.3600 -34.8755 -0.0781
52.3800 -34.8888 -0.0774
52.4000 -34.9021 -0.0751
52.4200 -34.9155 -0.0731
52.4400 -34.9288 -0.0751
52.4600 -34.9422 -0.0727
52.4800 -34.9555 -0.0728
52.5000 -34.9688 -0.0737
52.5200 -34.9821 -0.0703
52.5400 -34.9954 -0.0739
52.5600 -35.0087 -0.0719
52.5800 -35.0220 -0.0710
52.6000 -35.0353 -0.0684
52.6200 -35.0487 -0.0677
52.6400 -35.0621 -0.0680
52.6600 -35.0754 -0.0691
52.6800 -35.0887 -0.0690
52.7000 -35.1021 -0.0691
52.7200 -35.1155 -0.0680
52.7400 -35.1288 -0.0689
52.7600 -35.1421 -0.0674
52.7800 -35.1555 -0.0640
52.8000 -35.1688 -0.0646
52.8200 -35.1821 -0.0619
52.8400 -35.1954 -0.0624
52.8600 -35.2087 -0.0634
52.8800 -35.2221 -0.0636
52.9000 -35.2354 -0.0607
52.9200 -35.2487 -0.0640
52.9400 -35.2620 -0.0606
52.9600 -35.2753 -0.0596
52.9800 -35.2887 -0.0578
53.0000 -35.3021 -0.0565
53.0200 -35.3154 -0.0552
53.0400 -35.3287 -0.0579
53.0600 -35.3421 -0.0562
53.0800 -35.3555 -0.0559
53.1000 -35.3688 -0.0555
53.1200 -35.3821 -0.0531
53.1400 -35.3954 -0.0539
53.1600 -35.4088 -0.0535
53.1800 -35.4221 -0.0508
53.2000 -35.4354 -0.0500
53.2200 -35.4487 -0.0506
53.2400 -35.4621 -0.0497
53.2600 -35.4754 -0.0484
53.2800 -35.4887 -0.0502
53.3000 -35.5020 -0.0484
53.3200 -35.5154 -0.0478
53.3400 -35.5288 -0.0464
53.3600 -35.5421 -0.0457
53.3800 -35.5554 -0.0477
53.4000 -35.5687 -0.0468
53.4200 -35.5821 -0.0454
53.4400 -35.5955 -0.0426
53.4600 -35.6087 -0.0460
53.4800 -35.6220 -0.0441
53.5000 -35.6354 -0.0450
53.5200 -35.6487 -0.0433
53.5400 -35.6621 -0.0435
53.5600 -35.6754 -0.0397
53.5800 -35.6888 -0.0415
53.6000 -35.7021 -0.0388
53.6200 -35.7155 -0.0418
53.6400 -35.7288 -0.0406
53.6600 -35.7421 -0.0414
53.6800 -35.7554 -0.0381
53.7000 -35.7687 -0.0378
53.7200 -35.7821 -0.0363
53.7400 -35.7954 -0.0368
53.7600 -35.8087 -0.0355
53.7800 -35.8221 -0.0362
53.8000 -35.8355 -0.0337
53.8200 -35.8488 -0.0357
53.8400 -35.8621 -0.0366
53.8600 -35.8754 -0.0375
53.8800 -35.8888 -0.0337
53.9000 -35.9022 -0.0336
53.9200 -35.9155 -0.0320
53.9400 -35.9288 -0.0338
53.9600 -35.9421 -0.0330
53.9800 -35.9554 -0.0315
54.0000 -35.9687 -0.0312
54.0200 -35.9820 -0.0335
54.0400 -35.9953 -0.0317
54.0600 -36.0087 -0.0331
54.0800 -36.0221 -0.0319
54.1000 -36.0354 -0.0301
54.1200 -36.0487 -0.0317
54.1400 -36.0621 -0.0291
54.1600 -36.0755 -0.0278
54.1800 -36.0888 -0.0281
54.2000 -36.1021 -0.0297
54.2200 -36.1154 -0.0274
54.2400 -36.1288 -0.0287
54.2600 -36.1421 -0.0272
54.2800 -36.1554 -0.0274
54.3000 -36.1687 -0.0264
54.3200 -36.1821 -0.0265
54.3400 -36.1954 -0.0244
54.3600 -36.2087 -0.0256
54.3800 -36.2220 -0.0243
54.4000 -36.2353 -0.0237
54.4200 -36.2487 -0.0233
54.4400 -36.2621 -0.0220
54.4600 -36.2754 -0.0204
54.4800 -36.2887 -0.0206
54.5000 -36.3021 -0.0220
54.5200 -36.3154 -0.0227
54.5400 -36.3288 -0.0228
54.5600 -36.3421 -0.0202
54.5800 -36.3554 -0.0181
54.6000 -36.3688 -0.0202
54.6200 -36.3821 -0.0191
54.6400 -36.3954 -0.0201
54.6600 -36.4088 -0.0190
54.6800 -36.4221 -0.0184
54.7000 -36.4355 -0.0153
54.7200 -36.4487 -0.0166
54.7400 -36.4620 -0.0148
54.7600 -36.4754 -0.0151
54.7800 -36.4887 -0.0136
54.8000 -36.5021 -0.0144
54.8200 -36.5154 -0.0129
54.8400 -36.5287 -0.0111
54.8600 -36.5421 -0.0101
54.8800 -36.5555 -0.0083
54.9000 -36.5688 -0.0112
54.9200 -36.5821 -0.0096
54.9400 -36.5954 -0.0093
54.9600 -36.6087 -0.0060
54.9800 -36.6221 -0.0075
55.0000 -36.6354 -0.0068
55.0200 -36.6487 -0.0078
55.0400 -36.6621 -0.0071
55.0600 -36.6754 -0.0050
55.0800 -36.6887 -0.0033
55.1000 -36.7020 -0.0039
55.1200 -36.7154 -0.0044
55.1400 -36.7287 -0.0019
55.1600 -36.7421 -0.0015
55.1800 -36.7554 0.0004
55.2000 -36.7688 -0.0026
55.2200 -36.7821 0.0013
55.2400 -36.7955 -0.0022
55.2600 -36.8088 0.0029
55.2800 -36.8221 -0.0013
55.3000 -36.8354 0.0025
55.3200 -36.8488 -0.0009
55.3400 -36.8621 -0.0008
55.3600 -36.8754 -0.0008
55.3800 -36.8887 0.0025
55.4000 -36.9021 0.0017
55.4200 -36.9154 0.0046
55.4400 -36.9287 0.0020
55.4600 -36.9420 0.0049
55.4800 -36.9554 0.0057
55.5000 -36.9687 0.0056
55.5200 -36.9821 0.0064
55.5400 -36.9954 0.0057
55.5600 -37.0087 0.0064
55.5800 -37.0221 0.0071
55.6000 -37.0355 0.0070
55.6200 -37.0488 0.0079
55.6400 -37.0621 0.0092
55.6600 -37.0754 0.0107
55.6800 -37.0887 0.0124
55.7000 -37.1021 0.0124
55.7200 -37.1154 0.0138
55.7400 -37.1288 0.0132
55.7600 -37.1421 0.0136
55.7800 -37.1555 0.0126
55.8000 -37.1688 0.0153
55.8200 -37.1821 0.0157
55.8400 -37.1954 0.0171
55.8600 -37.2087 0.0175
55.8800 -37.2220 0.0179
55.9000 -37.2353 0.0178
55.9200 -37.2486 0.0188
55.9400 -37.2620 0.0198
55.9600 -37.2754 0.0207
55.9800 -37.2888 0.0198
56.0000 -37.3021 0.0215
56.0200 -37.3154 0.0200
56.0400 -37.3288 0.0219
56.0600 -37.3422 0.0200
56.0800 -37.3555 0.0222
56.1000 -37.3688 0.0226
56.1200 -37.3821 0.0253
56.1400 -37.3954 0.0232
56.1600 -37.4087 0.0269
56.1800 -37.4220 0.0242
56.2000 -37.4353 0.0255
56.2200 -37.4487 0.0250
56.2400 -37.4621 0.0265
56.2600 -37.4754 0.0252
56.2800 -37.4888 0.0263
56.3000 -37.5021 0.0260
56.3200 -37.5155 0.0298
56.3400 -37.5288 0.0289
56.3600 -37.5421 0.0289
56.3800 -37.5554 0.0294
56.4000 -37.5688 0.0323
56.4200 -37.5821 0.0319
56.4400 -37.5955 0.0331
56.4600 -37.6088 0.0351
56.4800 -37.6221 0.0351
56.5000 -37.6354 0.0379
56.5200 -37.6488 0.0364
56.5400 -37.6620 0.0369
56.5600 -37.6753 0.0362
56.5800 -37.6887 0.0371
56.6000 -37.7021 0.0369
56.6200 -37.7154 0.0390
56.6400 -37.7287 0.0388
56.6600 -37.7421 0.0392
56.6800 -37.7554 0.0391
56.7000 -37.7688 0.0395
56.7200 -37.7821 0.0406
56.7400 -37.7954 0.0422
56.7600 -37.8088 0.0439
56.7800 -37.8222 0.0445
56.8000 -37.8355 0.0449
56.8200 -37.8488 0.0433
56.8400 -37.8621 0.0439
56.8600 -37.8754 0.0445
56.8800 -37.8888 0.0446
56.9000 -37.9020 0.0456
56.9200 -37.9153 0.0451
56.9400 -37.9287 0.0466
56.9600 -37.9421 0.0473
56.9800 -37.9554 0.0488
57.0000 -37.9687 0.0473
57.0200 -37.9821 0.0472
57.0400 -37.9954 0.0493
57.0600 -38.0088 0.0491
57.0800 -38.0221 0.0501
57.1000 -38.0355 0.0510
57.1200 -38.0488 0.0512
57.1400 -38.0621 0.0522
57.1600 -38.0755 0.0522
57.1800 -38.0888 0.0521
57.2000 -38.1021 0.0526
57.2200 -38.1154 0.0551
57.2400 -38.1288 0.0547
57.2600 -38.1421 0.0549
57.2800 -38.1554 0.0554
57.3000 -38.1687 0.0568
57.3200 -38.1821 0.0564
57.3400 -38.1954 0.0563
57.3600 -38.2087 0.0575
57.3800 -38.2220 0.0596
57.4000 -38.2354 0.0591
57.4200 -38.2488 0.0594
57.4400 -38.2621 0.0605
57.4600 -38.2754 0.0600
57.4800 -38.2888 0.0629
57.5000 -38.3021 0.0619
57.5200 -38.3155 0.0627
57.5400 -38.3288 0.0636
57.5600 -38.3421 0.0643
57.5800 -38.3555 0.0652
57.6000 -38.3688 0.0651
57.6200 -38.3821 0.0673
57.6400 -38.3954 0.0635
57.6600 -38.4087 0.0673
57.6800 -38.4221 0.0661
57.7000 -38.4354 0.0661
57.7200 -38.4487 0.0670
57.7400 -38.4620 0.0692
57.7600 -38.4754 0.0681
57.7800 -38.4888 0.0716
57.8000 -38.5021 0.0705
57.8200 -38.5154 0.0707
57.8400 -38.5288 0.0704
57.8600 -38.5422 0.0707
57.8800 -38.5555 0.0704
57.9000 -38.5688 0.0727
57.9200 -38.5821 0.0732
57.9400 -38.5954 0.0734
57.9600 -38.6088 0.0761
57.9800 -38.6221 0.0760
58.0000 -38.6353 0.0749
58.0200 -38.6487 0.0773
58.0400 -38.6621 0.0774
58.0600 -38.6754 0.0782
58.0800 -38.6887 0.0793
58.1000 -38.7020 0.0809
58.1200 -38.7154 0.0791
58.1400 -38.7288 0.0814
58.1600 -38.7422 0.0805
58.1800 -38.7555 0.0781
58.2000 -38.7688 0.0810
58.2200 -38.7822 0.0809
58.2400 -38.7955 0.0818
58.2600 -38.8088 0.0812
58.2800 -38.8220 0.0809
58.3000 -38.8353 0.0801
58.3200 -38.8487 0.0856
58.3400 -38.8620 0.0838
58.3600 -38.8753 0.0839
58.3800 -38.8887 0.0842
58.4000 -38.9020 0.0865
58.4200 -38.9154 0.0855
58.4400 -38.9287 0.0851
58.4600 -38.9421 0.0864
58.4800 -38.9554 0.0869
58.5000 -38.9688 0.0871
58.5200 -38.9821 0.0882
58.5400 -38.9954 0.0890
58.5600 -39.0088 0.0908
58.5800 -39.0221 0.0906
58.6000 -39.0355 0.0909
58.6200 -39.0488 0.0911
58.6400 -39.0621 0.0926
58.6600 -39.0754 0.0935
58.6800 -39.0888 0.0970
58.7000 -39.1021 0.0973
58.7200 -39.1154 0.0978
58.7400 -39.1287 0.0985
58.7600 -39.1421 0.0988
58.7800 -39.1554 0.0973
58.8000 -39.1687 0.1004
58.8200 -39.1821 0.1014
58.8400 -39.1954 0.0992
58.8600 -39.2088 0.1032
58.8800 -39.2221 0.1033
58.9000 -39.2354 0.1025
58.9200 -39.2487 0.1041
58.9400 -39.2621 0.1041
58.9600 -39.2755 0.1057
58.9800 -39.2888 0.1060
59.0000 -39.3021 0.1056
59.0200 -39.3154 0.1044
59.0400 -39.3288 0.1048
59.0600 -39.3421 0.1079
59.0800 -39.3554 0.1059
59.1000 -39.3687 0.1079
59.1200 -39.3821 0.1072
59.1400 -39.3954 0.1081
59.1600 -39.4087 0.1103
59.1800 -39.4221 0.1111
59.2000 -39.4354 0.1096
59.2200 -39.4488 0.1110
59.2400 -39.4621 0.1130
59.2600 -39.4754 0.1117
59.2800 -39.4888 0.1143
59.3000 -39.5021 0.1137
59.3200 -39.5154 0.1165
59.3400 -39.5288 0.1176
59.3600 -39.5421 0.1191
59.3800 -39.5554 0.1165
59.4000 -39.5687 0.1197
59.4200 -39.5820 0.1174
59.4400 -39.5953 0.1163
59.4600 -39.6087 0.1175
59.4800 -39.6221 0.1194
59.5000 -39.6354 0.1192
59.5200 -39.6488 0.1200
59.5400 -39.6621 0.1204
59.5600 -39.6754 0.1205
59.5800 -39.6888 0.1232
59.6000 -39.7021 0.1224
59.6200 -39.7154 0.1211
59.6400 -39.7287 0.1249
59.6600 -39.7421 0.1255
59.6800 -39.7555 0.1257
59.7000 -39.7688 0.1271
59.7200 -39.7821 0.1293
59.7400 -39.7954 0.1294
59.7600 -39.8088 0.1292
59.7800 -39.8221 0.1307
59.8000 -39.8353 0.1302
59.8200 -39.8487 0.1329
59.8400 -39.8620 0.1331
59.8600 -39.8754 0.1317
59.8800 -39.8887 0.1320
59.9000 -39.9020 0.1341
59.9200 -39.9154 0.1327
59.9400 -39.9288 0.1372
59.9600 -39.9422 0.1380
59.9800 -39.9555 0.1377
60.0000 -39.9688 0.1391
60.0200 -39.9821 0.1403
60.0400 -39.9955 0.1390
60.0470 -40.0000 0.1431
