Raw Data
Time Displacement Force
(s) (mm) (N)
0.0000 0.0000 -0.6770
0.0200 -0.0001 -0.6798
0.0400 -0.0019 -0.6937
0.0600 -0.0092 -0.6886
0.0800 -0.0210 -0.6792
0.1000 -0.0336 -0.6798
0.1200 -0.0463 -0.6775
0.1400 -0.0597 -0.6798
0.1600 -0.0737 -0.6775
0.1800 -0.0878 -0.6774
0.2000 -0.1017 -0.6755
0.2200 -0.1152 -0.6754
0.2400 -0.1286 -0.6751
0.2600 -0.1420 -0.6734
0.2800 -0.1552 -0.6743
0.3000 -0.1685 -0.6716
0.3200 -0.1819 -0.6721
0.3400 -0.1953 -0.6674
0.3600 -0.2086 -0.6708
0.3800 -0.2219 -0.6673
0.4000 -0.2352 -0.6685
0.4200 -0.2486 -0.6666
0.4400 -0.2620 -0.6646
0.4600 -0.2753 -0.6622
0.4800 -0.2886 -0.6624
0.5000 -0.3020 -0.6598
0.5200 -0.3153 -0.6591
0.5400 -0.3287 -0.6565
0.5600 -0.3420 -0.6561
0.5800 -0.3553 -0.6546
0.6000 -0.3687 -0.6532
0.6200 -0.3820 -0.6516
0.6400 -0.3953 -0.6498
0.6600 -0.4086 -0.6455
0.6800 -0.4220 -0.6460
0.7000 -0.4353 -0.6438
0.7200 -0.4486 -0.6435
0.7400 -0.4619 -0.6420
0.7600 -0.4752 -0.6411
0.7800 -0.4886 -0.6389
0.8000 -0.5020 -0.6366
0.8200 -0.5153 -0.6365
0.8400 -0.5286 -0.6347
0.8600 -0.5420 -0.6344
0.8800 -0.5554 -0.6340
0.9000 -0.5687 -0.6313
0.9200 -0.5820 -0.6302
0.9400 -0.5953 -0.6293
0.9600 -0.6087 -0.6256
0.9800 -0.6220 -0.6242
1.0000 -0.6353 -0.6247
1.0200 -0.6486 -0.6220
1.0400 -0.6619 -0.6195
1.0600 -0.6753 -0.6194
1.0800 -0.6886 -0.6172
1.1000 -0.7019 -0.6186
1.1200 -0.7152 -0.6176
1.1400 -0.7286 -0.6150
1.1600 -0.7419 -0.6146
1.1800 -0.7553 -0.6127
1.2000 -0.7686 -0.6092
1.2200 -0.7820 -0.6106
1.2400 -0.7954 -0.6061
1.2600 -0.8087 -0.6054
1.2800 -0.8221 -0.6037
1.3000 -0.8354 -0.6037
1.3200 -0.8487 -0.6011
1.3400 -0.8620 -0.6007
1.3600 -0.8753 -0.5991
1.3800 -0.8886 -0.5980
1.4000 -0.9020 -0.5972
1.4200 -0.9153 -0.5971
1.4400 -0.9286 -0.5925
1.4600 -0.9419 -0.5919
1.4800 -0.9552 -0.5919
1.5000 -0.9686 -0.5912
1.5200 -0.9819 -0.5888
1.5400 -0.9952 -0.5870
1.5600 -1.0086 -0.5861
1.5800 -1.0220 -0.5843
1.6000 -1.0354 -0.5852
1.6200 -1.0487 -0.5831
1.6400 -1.0620 -0.5817
1.6600 -1.0753 -0.5808
1.6800 -1.0887 -0.5778
1.7000 -1.1020 -0.5764
1.7200 -1.1153 -0.5759
1.7400 -1.1286 -0.5727
1.7600 -1.1420 -0.5708
1.7800 -1.1553 -0.5705
1.8000 -1.1686 -0.5692
1.8200 -1.1819 -0.5695
1.8400 -1.1952 -0.5676
1.8600 -1.2086 -0.5665
1.8800 -1.2220 -0.5647
1.9000 -1.2353 -0.5656
1.9200 -1.2486 -0.5608
1.9400 -1.2620 -0.5617
1.9600 -1.2754 -0.5615
1.9800 -1.2887 -0.5596
2.0000 -1.3020 -0.5587
2.0200 -1.3153 -0.5568
2.0400 -1.3286 -0.5543
2.0600 -1.3420 -0.5537
2.0800 -1.3553 -0.5537
2.1000 -1.3687 -0.5507
2.1200 -1.3820 -0.5487
2.1400 -1.3953 -0.5486
2.1600 -1.4087 -0.5482
2.1800 -1.4220 -0.5476
2.2000 -1.4353 -0.5461
2.2200 -1.4486 -0.5438
2.2400 -1.4619 -0.5428
2.2600 -1.4752 -0.5433
2.2800 -1.4886 -0.5424
2.3000 -1.5020 -0.5411
2.3200 -1.5154 -0.5382
2.3400 -1.5288 -0.5377
2.3600 -1.5421 -0.5356
2.3800 -1.5554 -0.5339
2.4000 -1.5687 -0.5325
2.4200 -1.5821 -0.5315
2.4400 -1.5954 -0.5320
2.4600 -1.6087 -0.5288
2.4800 -1.6220 -0.5282
2.5000 -1.6353 -0.5281
2.5200 -1.6486 -0.5255
2.5400 -1.6619 -0.5251
2.5600 -1.6752 -0.5249
2.5800 -1.6886 -0.5220
2.6000 -1.7019 -0.5214
2.6200 -1.7153 -0.5192
2.6400 -1.7286 -0.5185
2.6600 -1.7420 -0.5153
2.6800 -1.7553 -0.5169
2.7000 -1.7687 -0.5153
2.7200 -1.7820 -0.5150
2.7400 -1.7953 -0.5132
2.7600 -1.8087 -0.5104
2.7800 -1.8220 -0.5094
2.8000 -1.8353 -0.5120
2.8200 -1.8486 -0.5075
2.8400 -1.8620 -0.5072
2.8600 -1.8753 -0.5052
2.8800 -1.8886 -0.5042
2.9000 -1.9019 -0.5003
2.9200 -1.9152 -0.5015
2.9400 -1.9286 -0.4995
2.9600 -1.9420 -0.5007
2.9800 -1.9553 -0.4984
3.0000 -1.9686 -0.4960
3.0200 -1.9819 -0.4955
3.0400 -1.9953 -0.4970
3.0600 -2.0087 -0.4936
3.0800 -2.0220 -0.4938
3.1000 -2.0353 -0.4943
3.1200 -2.0486 -0.4917
3.1400 -2.0620 -0.4890
3.1600 -2.0754 -0.4875
3.1800 -2.0887 -0.4870
3.2000 -2.1020 -0.4840
3.2200 -2.1153 -0.4846
3.2400 -2.1287 -0.4838
3.2600 -2.1420 -0.4825
3.2800 -2.1553 -0.4813
3.3000 -2.1686 -0.4800
3.3200 -2.1820 -0.4788
3.3400 -2.1953 -0.4793
3.3600 -2.2086 -0.4769
3.3800 -2.2220 -0.4762
3.4000 -2.2353 -0.4728
3.4200 -2.2487 -0.4727
3.4400 -2.2620 -0.4704
3.4600 -2.2753 -0.4715
3.4800 -2.2886 -0.4688
3.5000 -2.3020 -0.4688
3.5200 -2.3153 -0.4675
3.5400 -2.3286 -0.4648
3.5600 -2.3420 -0.4635
3.5800 -2.3553 -0.4646
3.6000 -2.3686 -0.4622
3.6200 -2.3819 -0.4617
3.6400 -2.3952 -0.4577
3.6600 -2.4086 -0.4594
3.6800 -2.4220 -0.4580
3.7000 -2.4353 -0.4593
3.7200 -2.4486 -0.4564
3.7400 -2.4620 -0.4554
3.7600 -2.4753 -0.4536
3.7800 -2.4887 -0.4526
3.8000 -2.5020 -0.4513
3.8200 -2.5153 -0.4502
3.8400 -2.5286 -0.4490
3.8600 -2.5420 -0.4494
3.8800 -2.5553 -0.4492
3.9000 -2.5686 -0.4493
3.9200 -2.5820 -0.4468
3.9400 -2.5953 -0.4463
3.9600 -2.6086 -0.4460
3.9800 -2.6219 -0.4447
4.0000 -2.6352 -0.4450
4.0200 -2.6486 -0.4425
4.0400 -2.6620 -0.4425
4.0600 -2.6753 -0.4401
4.0800 -2.6886 -0.4413
4.1000 -2.7020 -0.4385
4.1200 -2.7153 -0.4396
4.1400 -2.7287 -0.4355
4.1600 -2.7420 -0.4367
4.1800 -2.7553 -0.4373
4.2000 -2.7686 -0.4365
4.2200 -2.7820 -0.4330
4.2400 -2.7953 -0.4321
4.2600 -2.8087 -0.4322
4.2800 -2.8220 -0.4293
4.3000 -2.8354 -0.4305
4.3200 -2.8487 -0.4317
4.3400 -2.8620 -0.4295
4.3600 -2.8753 -0.4298
4.3800 -2.8886 -0.4265
4.4000 -2.9019 -0.4246
4.4200 -2.9152 -0.4251
4.4400 -2.9286 -0.4257
4.4600 -2.9419 -0.4227
4.4800 -2.9553 -0.4230
4.5000 -2.9687 -0.4233
4.5200 -2.9820 -0.4209
4.5400 -2.9953 -0.4204
4.5600 -3.0087 -0.4181
4.5800 -3.0220 -0.4158
4.6000 -3.0354 -0.4165
4.6200 -3.0487 -0.4176
4.6400 -3.0620 -0.4168
4.6600 -3.0753 -0.4159
4.6800 -3.0886 -0.4133
4.7000 -3.1019 -0.4131
4.7200 -3.1153 -0.4138
4.7400 -3.1286 -0.4125
4.7600 -3.1420 -0.4096
4.7800 -3.1553 -0.4102
4.8000 -3.1686 -0.4118
4.8200 -3.1820 -0.4075
4.8400 -3.1953 -0.4094
4.8600 -3.2087 -0.4088
4.8800 -3.2220 -0.4071
4.9000 -3.2353 -0.4079
4.9200 -3.2486 -0.4085
4.9400 -3.2620 -0.4049
4.9600 -3.2753 -0.4045
4.9800 -3.2887 -0.4044
5.0000 -3.3020 -0.4022
5.0200 -3.3153 -0.4022
5.0400 -3.3287 -0.4020
5.0600 -3.3420 -0.3986
5.0800 -3.3553 -0.3975
5.1000 -3.3686 -0.3965
5.1200 -3.3819 -0.3953
5.1400 -3.3953 -0.3964
5.1600 -3.4086 -0.3958
5.1800 -3.4220 -0.3912
5.2000 -3.4353 -0.3929
5.2200 -3.4487 -0.3918
5.2400 -3.4620 -0.3905
5.2600 -3.4753 -0.3902
5.2800 -3.4887 -0.3905
5.3000 -3.5020 -0.3868
5.3200 -3.5154 -0.3878
5.3400 -3.5287 -0.3863
5.3600 -3.5420 -0.3834
5.3800 -3.5553 -0.3848
5.4000 -3.5686 -0.3839
5.4200 -3.5819 -0.3805
5.4400 -3.5952 -0.3829
5.4600 -3.6085 -0.3801
5.4800 -3.6219 -0.3786
5.5000 -3.6353 -0.3777
5.5200 -3.6486 -0.3752
5.5400 -3.6619 -0.3757
5.5600 -3.6753 -0.3753
5.5800 -3.6887 -0.3744
5.6000 -3.7020 -0.3707
5.6200 -3.7153 -0.3705
5.6400 -3.7287 -0.3682
5.6600 -3.7420 -0.3660
5.6800 -3.7554 -0.3667
5.7000 -3.7687 -0.3680
5.7200 -3.7820 -0.3640
5.7400 -3.7953 -0.3644
5.7600 -3.8087 -0.3607
5.7800 -3.8220 -0.3592
5.8000 -3.8353 -0.3593
5.8200 -3.8486 -0.3603
5.8400 -3.8619 -0.3554
5.8600 -3.8753 -0.3565
5.8800 -3.8886 -0.3530
5.9000 -3.9019 -0.3520
5.9200 -3.9153 -0.3523
5.9400 -3.9287 -0.3542
5.9600 -3.9420 -0.3482
5.9800 -3.9553 -0.3493
6.0000 -3.9686 -0.3482
6.0200 -3.9820 -0.3464
6.0400 -3.9954 -0.3460
6.0600 -4.0087 -0.3460
6.0800 -4.0220 -0.3446
6.1000 -4.0354 -0.3444
6.1200 -4.0487 -0.3433
6.1400 -4.0620 -0.3412
6.1600 -4.0753 -0.3405
6.1800 -4.0886 -0.3417
6.2000 -4.1019 -0.3388
6.2200 -4.1153 -0.3403
6.2400 -4.1286 -0.3406
6.2600 -4.1419 -0.3379
6.2800 -4.1553 -0.3400
6.3000 -4.1687 -0.3374
6.3200 -4.1820 -0.3368
6.3400 -4.1953 -0.3358
6.3600 -4.2086 -0.3366
6.3800 -4.2220 -0.3346
6.4000 -4.2354 -0.3339
6.4200 -4.2487 -0.3354
6.4400 -4.2620 -0.3306
6.4600 -4.2753 -0.3305
6.4800 -4.2887 -0.3305
6.5000 -4.3020 -0.3281
6.5200 -4.3153 -0.3287
6.5400 -4.3286 -0.3275
6.5600 -4.3419 -0.3267
6.5800 -4.3553 -0.3243
6.6000 -4.3686 -0.3253
6.6200 -4.3819 -0.3223
6.6400 -4.3953 -0.3229
6.6600 -4.4087 -0.3225
6.6800 -4.4220 -0.3198
6.7000 -4.4353 -0.3211
6.7200 -4.4487 -0.3209
6.7400 -4.4620 -0.3157
6.7600 -4.4754 -0.3178
6.7800 -4.4887 -0.3185
6.8000 -4.5020 -0.3162
6.8200 -4.5153 -0.3158
6.8400 -4.5286 -0.3149
6.8600 -4.5419 -0.3119
6.8800 -4.5552 -0.3125
6.9000 -4.5685 -0.3128
6.9200 -4.5819 -0.3098
6.9400 -4.5953 -0.3108
6.9600 -4.6086 -0.3087
6.9800 -4.6219 -0.3087
7.0000 -4.6353 -0.3083
7.0200 -4.6487 -0.3085
7.0400 -4.6620 -0.3048
7.0600 -4.6753 -0.3076
7.0800 -4.6886 -0.3057
7.1000 -4.7019 -0.3044
7.1200 -4.7153 -0.3026
7.1400 -4.7287 -0.3005
7.1600 -4.7420 -0.2996
7.1800 -4.7553 -0.3011
7.2000 -4.7687 -0.3011
7.2200 -4.7820 -0.2970
7.2400 -4.7953 -0.2980
7.2600 -4.8086 -0.2985
7.2800 -4.8219 -0.2954
7.3000 -4.8353 -0.2933
7.3200 -4.8486 -0.2952
7.3400 -4.8619 -0.2926
7.3600 -4.8753 -0.2944
7.3800 -4.8887 -0.2925
7.4000 -4.9020 -0.2891
7.4200 -4.9153 -0.2889
7.4400 -4.9286 -0.2904
7.4600 -4.9420 -0.2873
7.4800 -4.9554 -0.2876
7.5000 -4.9687 -0.2880
7.5200 -4.9820 -0.2857
7.5400 -4.9953 -0.2859
7.5600 -5.0086 -0.2862
7.5800 -5.0220 -0.2825
7.6000 -5.0353 -0.2829
7.6200 -5.0486 -0.2805
7.6400 -5.0619 -0.2797
7.6600 -5.0753 -0.2794
7.6800 -5.0887 -0.2791
7.7000 -5.1020 -0.2760
7.7200 -5.1153 -0.2751
7.7400 -5.1287 -0.2764
7.7600 -5.1420 -0.2758
7.7800 -5.1554 -0.2750
7.8000 -5.1687 -0.2770
7.8200 -5.1820 -0.2730
7.8400 -5.1953 -0.2723
7.8600 -5.2086 -0.2735
7.8800 -5.2219 -0.2709
7.9000 -5.2353 -0.2683
7.9200 -5.2486 -0.2683
7.9400 -5.2619 -0.2676
7.9600 -5.2752 -0.2679
7.9800 -5.2886 -0.2681
8.0000 -5.3019 -0.2636
8.0200 -5.3153 -0.2650
8.0400 -5.3287 -0.2658
8.0600 -5.3420 -0.2647
8.0800 -5.3553 -0.2633
8.1000 -5.3687 -0.2658
8.1200 -5.3820 -0.2632
8.1400 -5.3953 -0.2637
8.1600 -5.4086 -0.2615
8.1800 -5.4220 -0.2610
8.2000 -5.4354 -0.2582
8.2200 -5.4487 -0.2585
8.2400 -5.4620 -0.2553
8.2600 -5.4753 -0.2566
8.2800 -5.4886 -0.2548
8.3000 -5.5020 -0.2547
8.3200 -5.5153 -0.2516
8.3400 -5.5285 -0.2542
8.3600 -5.5419 -0.2500
8.3800 -5.5553 -0.2524
8.4000 -5.5686 -0.2508
8.4200 -5.5819 -0.2503
8.4400 -5.5953 -0.2498
8.4600 -5.6087 -0.2510
8.4800 -5.6220 -0.2463
8.5000 -5.6354 -0.2456
8.5200 -5.6487 -0.2447
8.5400 -5.6620 -0.2432
8.5600 -5.6754 -0.2428
8.5800 -5.6887 -0.2431
8.6000 -5.7020 -0.2417
8.6200 -5.7153 -0.2401
8.6400 -5.7286 -0.2426
8.6600 -5.7420 -0.2366
8.6800 -5.7552 -0.2375
8.7000 -5.7685 -0.2371
8.7200 -5.7819 -0.2364
8.7400 -5.7953 -0.2365
8.7600 -5.8086 -0.2380
8.7800 -5.8219 -0.2343
8.8000 -5.8353 -0.2344
8.8200 -5.8486 -0.2351
8.8400 -5.8620 -0.2318
8.8600 -5.8753 -0.2301
8.8800 -5.8887 -0.2333
8.9000 -5.9020 -0.2319
8.9200 -5.9154 -0.2291
8.9400 -5.9287 -0.2293
8.9600 -5.9420 -0.2263
8.9800 -5.9553 -0.2264
9.0000 -5.9686 -0.2258
9.0200 -5.9820 -0.2255
9.0400 -5.9953 -0.2253
9.0600 -6.0086 -0.2268
9.0800 -6.0219 -0.2243
9.1000 -6.0353 -0.2243
9.1200 -6.0486 -0.2239
9.1400 -6.0620 -0.2211
9.1600 -6.0753 -0.2196
9.1800 -6.0887 -0.2194
9.2000 -6.1020 -0.2173
9.2200 -6.1153 -0.2172
9.2400 -6.1286 -0.2190
9.2600 -6.1419 -0.2157
9.2800 -6.1553 -0.2150
9.3000 -6.1687 -0.2159
9.3200 -6.1820 -0.2146
9.3400 -6.1953 -0.2126
9.3600 -6.2087 -0.2118
9.3800 -6.2220 -0.2100
9.4000 -6.2353 -0.2099
9.4200 -6.2486 -0.2125
9.4400 -6.2619 -0.2098
9.4600 -6.2753 -0.2093
9.4800 -6.2886 -0.2088
9.5000 -6.3019 -0.2068
9.5200 -6.3153 -0.2062
9.5400 -6.3286 -0.2059
9.5600 -6.3420 -0.2053
9.5800 -6.3554 -0.2026
9.6000 -6.3687 -0.2053
9.6200 -6.3820 -0.2037
9.6400 -6.3954 -0.2024
9.6600 -6.4087 -0.2037
9.6800 -6.4220 -0.2037
9.7000 -6.4353 -0.1979
9.7200 -6.4486 -0.2009
9.7400 -6.4620 -0.1959
9.7600 -6.4753 -0.1957
9.7800 -6.4886 -0.1968
9.8000 -6.5019 -0.1972
9.8200 -6.5153 -0.1938
9.8400 -6.5286 -0.1934
9.8600 -6.5420 -0.1921
9.8800 -6.5553 -0.1898
9.9000 -6.5686 -0.1934
9.9200 -6.5820 -0.1919
9.9400 -6.5953 -0.1916
9.9600 -6.6087 -0.1907
9.9800 -6.6220 -0.1900
10.0000 -6.6353 -0.1873
10.0200 -6.6487 -0.1863
10.0400 -6.6620 -0.1868
10.0600 -6.6753 -0.1851
10.0800 -6.6886 -0.1857
10.1000 -6.7020 -0.1824
10.1200 -6.7153 -0.1828
10.1400 -6.7286 -0.1860
10.1600 -6.7419 -0.1850
10.1800 -6.7553 -0.1817
10.2000 -6.7686 -0.1837
10.2200 -6.7819 -0.1783
10.2400 -6.7953 -0.1792
10.2600 -6.8086 -0.1792
10.2800 -6.8220 -0.1805
10.3000 -6.8354 -0.1768
10.3200 -6.8487 -0.1783
10.3400 -6.8620 -0.1753
10.3600 -6.8753 -0.1740
10.3800 -6.8887 -0.1747
10.4000 -6.9020 -0.1751
10.4200 -6.9153 -0.1709
10.4400 -6.9287 -0.1730
10.4600 -6.9420 -0.1720
10.4800 -6.9553 -0.1701
10.5000 -6.9686 -0.1723
10.5200 -6.9819 -0.1685
10.5400 -6.9953 -0.1688
10.5600 -7.0086 -0.1689
10.5800 -7.0220 -0.1689
10.6000 -7.0353 -0.1665
10.6200 -7.0487 -0.1667
10.6400 -7.0620 -0.1633
10.6600 -7.0754 -0.1639
10.6800 -7.0887 -0.1644
10.7000 -7.1020 -0.1645
10.7200 -7.1153 -0.1609
10.7400 -7.1287 -0.1619
10.7600 -7.1420 -0.1610
10.7800 -7.1553 -0.1611
10.8000 -7.1686 -0.1598
10.8200 -7.1820 -0.1596
10.8400 -7.1953 -0.1550
10.8600 -7.2086 -0.1600
10.8800 -7.2219 -0.1556
10.9000 -7.2353 -0.1549
10.9200 -7.2487 -0.1536
10.9400 -7.2620 -0.1555
10.9600 -7.2753 -0.1535
10.9800 -7.2886 -0.1539
11.0000 -7.3020 -0.1557
11.0200 -7.3154 -0.1500
11.0400 -7.3287 -0.1528
11.0600 -7.3420 -0.1500
11.0800 -7.3553 -0.1486
11.1000 -7.3687 -0.1473
11.1200 -7.3820 -0.1476
11.1400 -7.3953 -0.1448
11.1600 -7.4086 -0.1466
11.1800 -7.4219 -0.1455
11.2000 -7.4353 -0.1432
11.2200 -7.4486 -0.1443
11.2400 -7.4619 -0.1452
11.2600 -7.4753 -0.1413
11.2800 -7.4887 -0.1421
11.3000 -7.5020 -0.1415
11.3200 -7.5153 -0.1385
11.3400 -7.5286 -0.1390
11.3600 -7.5420 -0.1361
11.3800 -7.5554 -0.1364
11.4000 -7.5687 -0.1357
11.4200 -7.5820 -0.1355
11.4400 -7.5953 -0.1326
11.4600 -7.6087 -0.1345
11.4800 -7.6220 -0.1339
11.5000 -7.6353 -0.1318
11.5200 -7.6487 -0.1312
11.5400 -7.6620 -0.1328
11.5600 -7.6753 -0.1296
11.5800 -7.6886 -0.1320
11.6000 -7.7019 -0.1292
11.6200 -7.7152 -0.1284
11.6400 -7.7286 -0.1275
11.6600 -7.7419 -0.1275
11.6800 -7.7552 -0.1260
11.7000 -7.7686 -0.1282
11.7200 -7.7820 -0.1241
11.7400 -7.7954 -0.1224
11.7600 -7.8087 -0.1222
11.7800 -7.8220 -0.1244
11.8000 -7.8354 -0.1210
11.8200 -7.8487 -0.1217
11.8400 -7.8621 -0.1221
11.8600 -7.8753 -0.1189
11.8800 -7.8886 -0.1188
11.9000 -7.9019 -0.1193
11.9200 -7.9153 -0.1177
11.9400 -7.9286 -0.1167
11.9600 -7.9419 -0.1158
11.9800 -7.9553 -0.1156
12.0000 -7.9686 -0.1167
12.0200 -7.9820 -0.1172
12.0400 -7.9953 -0.1141
12.0600 -8.0086 -0.1139
12.0800 -8.0220 -0.1151
12.1000 -8.0354 -0.1120
12.1200 -8.0487 -0.1128
12.1400 -8.0620 -0.1128
12.1600 -8.0753 -0.1117
12.1800 -8.0887 -0.1103
12.2000 -8.1020 -0.1096
12.2200 -8.1153 -0.1073
12.2400 -8.1286 -0.1088
12.2600 -8.1420 -0.1083
12.2800 -8.1553 -0.1063
12.3000 -8.1686 -0.1052
12.3200 -8.1819 -0.1062
12.3400 -8.1953 -0.1021
12.3600 -8.2086 -0.1034
12.3800 -8.2220 -0.1027
12.4000 -8.2353 -0.1010
12.4200 -8.2486 -0.1010
12.4400 -8.2620 -0.1026
12.4600 -8.2753 -0.0966
12.4800 -8.2887 -0.0990
12.5000 -8.3020 -0.0970
12.5200 -8.3153 -0.0953
12.5400 -8.3287 -0.0949
12.5600 -8.3420 -0.0972
12.5800 -8.3553 -0.0919
12.6000 -8.3686 -0.0929
12.6200 -8.3820 -0.0915
12.6400 -8.3953 -0.0907
12.6600 -8.4086 -0.0910
12.6800 -8.4219 -0.0897
12.7000 -8.4352 -0.0896
12.7200 -8.4486 -0.0875
12.7400 -8.4619 -0.0878
12.7600 -8.4753 -0.0856
12.7800 -8.4886 -0.0851
12.8000 -8.5020 -0.0860
12.8200 -8.5153 -0.0860
12.8400 -8.5287 -0.0843
12.8600 -8.5420 -0.0854
12.8800 -8.5553 -0.0827
12.9000 -8.5687 -0.0858
12.9200 -8.5820 -0.0836
12.9400 -8.5953 -0.0824
12.9600 -8.6086 -0.0820
12.9800 -8.6220 -0.0831
13.0000 -8.6353 -0.0795
13.0200 -8.6486 -0.0821
13.0400 -8.6619 -0.0817
13.0600 -8.6753 -0.0776
13.0800 -8.6886 -0.0777
13.1000 -8.7020 -0.0767
13.1200 -8.7153 -0.0758
13.1400 -8.7286 -0.0783
13.1600 -8.7420 -0.0774
13.1800 -8.7553 -0.0760
13.2000 -8.7687 -0.0746
13.2200 -8.7820 -0.0772
13.2400 -8.7953 -0.0740
13.2600 -8.8087 -0.0737
13.2800 -8.8221 -0.0729
13.3000 -8.8354 -0.0719
13.3200 -8.8487 -0.0711
13.3400 -8.8620 -0.0712
13.3600 -8.8753 -0.0714
13.3800 -8.8886 -0.0699
13.4000 -8.9019 -0.0724
13.4200 -8.9153 -0.0672
13.4400 -8.9286 -0.0701
13.4600 -8.9420 -0.0658
13.4800 -8.9553 -0.0638
13.5000 -8.9686 -0.0668
13.5200 -8.9820 -0.0661
13.5400 -8.9953 -0.0616
13.5600 -9.0087 -0.0642
13.5800 -9.0220 -0.0619
13.6000 -9.0353 -0.0616
13.6200 -9.0487 -0.0600
13.6400 -9.0620 -0.0585
13.6600 -9.0754 -0.0561
13.6800 -9.0887 -0.0573
13.7000 -9.1020 -0.0587
13.7200 -9.1153 -0.0563
13.7400 -9.1286 -0.0583
13.7600 -9.1419 -0.0530
13.7800 -9.1552 -0.0524
13.8000 -9.1686 -0.0510
13.8200 -9.1819 -0.0543
13.8400 -9.1953 -0.0498
13.8600 -9.2086 -0.0505
13.8800 -9.2220 -0.0507
13.9000 -9.2354 -0.0480
13.9200 -9.2487 -0.0460
13.9400 -9.2620 -0.0483
13.9600 -9.2753 -0.0453
13.9800 -9.2887 -0.0465
14.0000 -9.3021 -0.0446
14.0200 -9.3154 -0.0436
14.0400 -9.3286 -0.0411
14.0600 -9.3419 -0.0433
14.0800 -9.3553 -0.0410
14.1000 -9.3686 -0.0422
14.1200 -9.3819 -0.0403
14.1400 -9.3952 -0.0394
14.1600 -9.4086 -0.0391
14.1800 -9.4220 -0.0384
14.2000 -9.4353 -0.0376
14.2200 -9.4486 -0.0356
14.2400 -9.4620 -0.0365
14.2600 -9.4754 -0.0342
14.2800 -9.4887 -0.0349
14.3000 -9.5020 -0.0337
14.3200 -9.5153 -0.0300
14.3400 -9.5287 -0.0327
14.3600 -9.5420 -0.0316
14.3800 -9.5554 -0.0309
14.4000 -9.5687 -0.0302
14.4200 -9.5820 -0.0306
14.4400 -9.5954 -0.0303
14.4600 -9.6087 -0.0277
14.4800 -9.6219 -0.0298
14.5000 -9.6353 -0.0268
14.5200 -9.6486 -0.0283
14.5400 -9.6620 -0.0268
14.5600 -9.6753 -0.0245
14.5800 -9.6886 -0.0242
14.6000 -9.7020 -0.0263
14.6200 -9.7153 -0.0231
14.6400 -9.7287 -0.0233
14.6600 -9.7420 -0.0207
14.6800 -9.7553 -0.0192
14.7000 -9.7687 -0.0178
14.7200 -9.7820 -0.0207
14.7400 -9.7953 -0.0174
14.7600 -9.8086 -0.0191
14.7800 -9.8220 -0.0173
14.8000 -9.8353 -0.0159
14.8200 -9.8486 -0.0143
14.8400 -9.8619 -0.0145
14.8600 -9.8752 -0.0130
14.8800 -9.8886 -0.0141
14.9000 -9.9020 -0.0130
14.9200 -9.9153 -0.0123
14.9400 -9.9286 -0.0121
14.9600 -9.9420 -0.0107
14.9800 -9.9554 -0.0095
15.0000 -9.9687 -0.0073
15.0200 -9.9820 -0.0097
15.0400 -9.9953 -0.0061
15.0600 -10.0086 -0.0061
15.0800 -10.0220 -0.0050
15.1000 -10.0353 -0.0038
15.1200 -10.0486 -0.0022
15.1400 -10.0619 -0.0025
15.1600 -10.0753 0.0000
15.1800 -10.0886 -0.0012
15.2000 -10.1019 -0.0003
15.2200 -10.1152 0.0015
15.2400 -10.1286 0.0013
15.2600 -10.1420 0.0031
15.2800 -10.1553 0.0059
15.3000 -10.1686 0.0046
15.3200 -10.1820 0.0038
15.3400 -10.1954 0.0064
15.3600 -10.2087 0.0063
15.3800 -10.2220 0.0054
15.4000 -10.2353 0.0056
15.4200 -10.2487 0.0076
15.4400 -10.2620 0.0080
15.4600 -10.2754 0.0091
15.4800 -10.2887 0.0108
15.5000 -10.3020 0.0104
15.5200 -10.3153 0.0112
15.5400 -10.3286 0.0142
15.5600 -10.3419 0.0122
15.5800 -10.3552 0.0141
15.6000 -10.3686 0.0127
15.6200 -10.3820 0.0117
15.6400 -10.3953 0.0134
15.6600 -10.4086 0.0139
15.6800 -10.4220 0.0134
15.7000 -10.4354 0.0164
15.7200 -10.4487 0.0181
15.7400 -10.4620 0.0164
15.7600 -10.4753 0.0191
15.7800 -10.4887 0.0192
15.8000 -10.5020 0.0200
15.8200 -10.5154 0.0205
15.8400 -10.5287 0.0212
15.8600 -10.5420 0.0207
15.8800 -10.5553 0.0226
15.9000 -10.5686 0.0222
15.9200 -10.5819 0.0224
15.9400 -10.5952 0.0234
15.9600 -10.6086 0.0256
15.9800 -10.6219 0.0259
16.0000 -10.6353 0.0280
16.0200 -10.6486 0.0271
16.0400 -10.6620 0.0268
16.0600 -10.6753 0.0268
16.0800 -10.6887 0.0306
16.1000 -10.7020 0.0289
16.1200 -10.7153 0.0316
16.1400 -10.7287 0.0299
16.1600 -10.7420 0.0317
16.1800 -10.7553 0.0317
16.2000 -10.7686 0.0347
16.2200 -10.7820 0.0337
16.2400 -10.7953 0.0341
16.2600 -10.8086 0.0345
16.2800 -10.8219 0.0375
16.3000 -10.8352 0.0368
16.3200 -10.8486 0.0383
16.3400 -10.8620 0.0376
16.3600 -10.8753 0.0388
16.3800 -10.8886 0.0400
16.4000 -10.9020 0.0407
16.4200 -10.9153 0.0433
16.4400 -10.9287 0.0411
16.4600 -10.9420 0.0416
16.4800 -10.9553 0.0442
16.5000 -10.9686 0.0446
16.5200 -10.9820 0.0449
16.5400 -10.9953 0.0463
16.5600 -11.0087 0.0465
16.5800 -11.0220 0.0477
16.6000 -11.0353 0.0486
16.6200 -11.0487 0.0492
16.6400 -11.0620 0.0483
16.6600 -11.0753 0.0491
16.6800 -11.0886 0.0498
16.7000 -11.1020 0.0498
16.7200 -11.1153 0.0517
16.7400 -11.1286 0.0538
16.7600 -11.1420 0.0554
16.7800 -11.1554 0.0571
16.8000 -11.1687 0.0553
16.8200 -11.1821 0.0569
16.8400 -11.1954 0.0549
16.8600 -11.2087 0.0563
16.8800 -11.2221 0.0558
16.9000 -11.2354 0.0604
16.9200 -11.2487 0.0592
16.9400 -11.2620 0.0628
16.9600 -11.2753 0.0618
16.9800 -11.2886 0.0634
17.0000 -11.3019 0.0617
17.0200 -11.3152 0.0644
17.0400 -11.3286 0.0638
17.0600 -11.3419 0.0668
17.0800 -11.3553 0.0666
17.1000 -11.3686 0.0663
17.1200 -11.3820 0.0693
17.1400 -11.3953 0.0697
17.1600 -11.4087 0.0706
17.1800 -11.4220 0.0676
17.2000 -11.4353 0.0709
17.2200 -11.4487 0.0707
17.2400 -11.4620 0.0711
17.2600 -11.4754 0.0736
17.2800 -11.4887 0.0755
17.3000 -11.5020 0.0724
17.3200 -11.5153 0.0730
17.3400 -11.5287 0.0737
17.3600 -11.5419 0.0764
17.3800 -11.5552 0.0743
17.4000 -11.5686 0.0750
17.4200 -11.5820 0.0729
17.4400 -11.5953 0.0761
17.4600 -11.6086 0.0759
17.4800 -11.6219 0.0757
17.5000 -11.6353 0.0785
17.5200 -11.6487 0.0793
17.5400 -11.6620 0.0805
17.5600 -11.6753 0.0794
17.5800 -11.6886 0.0822
17.6000 -11.7020 0.0819
17.6200 -11.7153 0.0821
17.6400 -11.7287 0.0827
17.6600 -11.7420 0.0853
17.6800 -11.7554 0.0853
17.7000 -11.7687 0.0866
17.7200 -11.7820 0.0851
17.7400 -11.7953 0.0871
17.7600 -11.8086 0.0878
17.7800 -11.8220 0.0904
17.8000 -11.8353 0.0898
17.8200 -11.8486 0.0907
17.8400 -11.8620 0.0914
17.8600 -11.8753 0.0909
17.8800 -11.8887 0.0926
17.9000 -11.9020 0.0943
17.9200 -11.9153 0.0940
17.9400 -11.9286 0.0954
17.9600 -11.9420 0.0979
17.9800 -11.9553 0.0960
18.0000 -11.9686 0.0985
18.0200 -11.9820 0.0994
18.0400 -11.9953 0.1004
18.0600 -12.0086 0.1006
18.0800 -12.0219 0.1013
18.1000 -12.0353 0.0997
18.1200 -12.0486 0.1018
18.1400 -12.0620 0.1029
18.1600 -12.0753 0.1035
18.1800 -12.0886 0.1044
18.2000 -12.1020 0.1051
18.2200 -12.1153 0.1065
18.2400 -12.1287 0.1081
18.2600 -12.1420 0.1056
18.2800 -12.1553 0.1078
18.3000 -12.1686 0.1083
18.3200 -12.1820 0.1094
18.3400 -12.1954 0.1090
18.3600 -12.2087 0.1105
18.3800 -12.2220 0.1099
18.4000 -12.2353 0.1121
18.4200 -12.2486 0.1131
18.4400 -12.2619 0.1159
18.4600 -12.2752 0.1133
18.4800 -12.2886 0.1145
18.5000 -12.3020 0.1141
18.5200 -12.3153 0.1164
18.5400 -12.3286 0.1151
18.5600 -12.3420 0.1151
18.5800 -12.3553 0.1142
18.6000 -12.3687 0.1188
18.6200 -12.3820 0.1192
18.6400 -12.3953 0.1202
18.6600 -12.4086 0.1191
18.6800 -12.4220 0.1201
18.7000 -12.4353 0.1209
18.7200 -12.4487 0.1213
18.7400 -12.4620 0.1229
18.7600 -12.4753 0.1249
18.7800 -12.4887 0.1271
18.8000 -12.5020 0.1267
18.8200 -12.5153 0.1269
18.8400 -12.5286 0.1256
18.8600 -12.5419 0.1276
18.8800 -12.5552 0.1268
18.9000 -12.5686 0.1291
18.9200 -12.5819 0.1287
18.9400 -12.5953 0.1310
18.9600 -12.6087 0.1310
18.9800 -12.6220 0.1347
19.0000 -12.6353 0.1319
19.0200 -12.6487 0.1333
19.0400 -12.6620 0.1332
19.0600 -12.6754 0.1347
19.0800 -12.6887 0.1333
19.1000 -12.7020 0.1356
19.1200 -12.7153 0.1357
19.1400 -12.7286 0.1382
19.1600 -12.7420 0.1380
19.1800 -12.7553 0.1402
19.2000 -12.7686 0.1392
19.2200 -12.7820 0.1395
19.2400 -12.7953 0.1407
19.2600 -12.8086 0.1417
19.2800 -12.8220 0.1419
19.3000 -12.8353 0.1404
19.3200 -12.8487 0.1418
19.3400 -12.8620 0.1428
19.3600 -12.8753 0.1442
19.3800 -12.8886 0.1447
19.4000 -12.9020 0.1447
19.4200 -12.9153 0.1455
19.4400 -12.9287 0.1460
19.4600 -12.9420 0.1503
19.4800 -12.9553 0.1508
19.5000 -12.9687 0.1506
19.5200 -12.9820 0.1502
19.5400 -12.9953 0.1490
19.5600 -13.0086 0.1514
19.5800 -13.0219 0.1505
19.6000 -13.0353 0.1529
19.6200 -13.0486 0.1540
19.6400 -13.0619 0.1521
19.6600 -13.0753 0.1544
19.6800 -13.0887 0.1558
19.7000 -13.1020 0.1555
19.7200 -13.1153 0.1568
19.7400 -13.1287 0.1572
19.7600 -13.1420 0.1589
19.7800 -13.1554 0.1592
19.8000 -13.1687 0.1599
19.8200 -13.1820 0.1641
19.8400 -13.1953 0.1649
19.8600 -13.2087 0.1629
19.8800 -13.2220 0.1629
19.9000 -13.2352 0.1615
19.9200 -13.2485 0.1644
19.9400 -13.2619 0.1663
19.9600 -13.2753 0.1692
19.9800 -13.2886 0.1689
20.0000 -13.3019 0.1704
20.0200 -13.3153 0.1697
20.0400 -13.3287 0.1695
20.0600 -13.3420 0.1728
20.0800 -13.3554 0.1721
20.1000 -13.3687 0.1729
20.1200 -13.3820 0.1721
20.1400 -13.3954 0.1731
20.1600 -13.4087 0.1730
20.1800 -13.4220 0.1730
20.2000 -13.4353 0.1751
20.2200 -13.4487 0.1766
20.2400 -13.4620 0.1799
20.2600 -13.4753 0.1796
20.2800 -13.4886 0.1782
20.3000 -13.5019 0.1801
20.3200 -13.5153 0.1813
20.3400 -13.5286 0.1799
20.3600 -13.5419 0.1806
20.3800 -13.5553 0.1827
20.4000 -13.5686 0.1852
20.4200 -13.5820 0.1844
20.4400 -13.5953 0.1864
20.4600 -13.6086 0.1837
20.4800 -13.6220 0.1879
20.5000 -13.6354 0.1868
20.5200 -13.6487 0.1872
20.5400 -13.6620 0.1874
20.5600 -13.6753 0.1904
20.5800 -13.6886 0.1879
20.6000 -13.7020 0.1927
20.6200 -13.7153 0.1917
20.6400 -13.7286 0.1939
20.6600 -13.7419 0.1950
20.6800 -13.7553 0.1970
20.7000 -13.7686 0.1962
20.7200 -13.7819 0.1961
20.7400 -13.7953 0.1971
20.7600 -13.8087 0.1987
20.7800 -13.8220 0.1994
20.8000 -13.8353 0.2020
20.8200 -13.8486 0.2001
20.8400 -13.8620 0.2025
20.8600 -13.8754 0.2025
20.8800 -13.8887 0.2031
20.9000 -13.9020 0.2071
20.9200 -13.9153 0.2068
20.9400 -13.9287 0.2066
20.9600 -13.9420 0.2069
20.9800 -13.9553 0.2075
21.0000 -13.9686 0.2072
21.0200 -13.9819 0.2095
21.0400 -13.9953 0.2096
21.0600 -14.0086 0.2095
21.0800 -14.0219 0.2093
21.1000 -14.0353 0.2098
21.1200 -14.0487 0.2075
21.1400 -14.0620 0.2115
21.1600 -14.0754 0.2103
21.1800 -14.0887 0.2131
21.2000 -14.1020 0.2138
21.2200 -14.1154 0.2118
21.2400 -14.1287 0.2120
21.2600 -14.1420 0.2134
21.2800 -14.1553 0.2151
21.3000 -14.1686 0.2150
21.3200 -14.1819 0.2163
21.3400 -14.1952 0.2178
21.3600 -14.2085 0.2171
21.3800 -14.2219 0.2179
21.4000 -14.2353 0.2177
21.4200 -14.2486 0.2176
21.4400 -14.2620 0.2180
21.4600 -14.2753 0.2199
21.4800 -14.2887 0.2214
21.5000 -14.3020 0.2223
21.5200 -14.3153 0.2244
21.5400 -14.3286 0.2215
21.5600 -14.3420 0.2230
21.5800 -14.3553 0.2249
21.6000 -14.3687 0.2276
21.6200 -14.3820 0.2279
21.6400 -14.3953 0.2280
21.6600 -14.4087 0.2277
21.6800 -14.4220 0.2288
21.7000 -14.4353 0.2307
21.7200 -14.4486 0.2304
21.7400 -14.4619 0.2305
21.7600 -14.4753 0.2350
21.7800 -14.4886 0.2348
21.8000 -14.5019 0.2344
21.8200 -14.5153 0.2343
21.8400 -14.5287 0.2354
21.8600 -14.5420 0.2355
21.8800 -14.5553 0.2381
21.9000 -14.5686 0.2384
21.9200 -14.5820 0.2393
21.9400 -14.5953 0.2390
21.9600 -14.6087 0.2390
21.9800 -14.6220 0.2413
22.0000 -14.6353 0.2431
22.0200 -14.6486 0.2438
22.0400 -14.6620 0.2437
22.0600 -14.6753 0.2444
22.0800 -14.6886 0.2446
22.1000 -14.7019 0.2471
22.1200 -14.7153 0.2457
22.1400 -14.7287 0.2479
22.1600 -14.7420 0.2481
22.1800 -14.7553 0.2502
22.2000 -14.7686 0.2515
22.2200 -14.7820 0.2537
22.2400 -14.7954 0.2539
22.2600 -14.8087 0.2558
22.2800 -14.8220 0.2549
22.3000 -14.8353 0.2585
22.3200 -14.8487 0.2592
22.3400 -14.8620 0.2580
22.3600 -14.8753 0.2613
22.3800 -14.8886 0.2610
22.4000 -14.9020 0.2619
22.4200 -14.9153 0.2637
22.4400 -14.9286 0.2648
22.4600 -14.9419 0.2659
22.4800 -14.9553 0.2671
22.5000 -14.9687 0.2670
22.5200 -14.9820 0.2679
22.5400 -14.9953 0.2701
22.5600 -15.0087 0.2681
22.5800 -15.0220 0.2704
22.6000 -15.0353 0.2721
22.6200 -15.0486 0.2735
22.6400 -15.0620 0.2737
22.6600 -15.0754 0.2741
22.6800 -15.0887 0.2736
22.7000 -15.1020 0.2737
22.7200 -15.1153 0.2776
22.7400 -15.1286 0.2760
22.7600 -15.1420 0.2774
22.7800 -15.1553 0.2758
22.8000 -15.1685 0.2758
22.8200 -15.1819 0.2759
22.8400 -15.1953 0.2784
22.8600 -15.2086 0.2784
22.8800 -15.2219 0.2786
22.9000 -15.2353 0.2765
22.9200 -15.2486 0.2779
22.9400 -15.2620 0.2783
22.9600 -15.2754 0.2802
22.9800 -15.2887 0.2789
23.0000 -15.3020 0.2785
23.0200 -15.3154 0.2792
23.0400 -15.3287 0.2814
23.0600 -15.3420 0.2828
23.0800 -15.3553 0.2857
23.1000 -15.3686 0.2831
23.1200 -15.3820 0.2847
23.1400 -15.3953 0.2837
23.1600 -15.4086 0.2862
23.1800 -15.4219 0.2844
23.2000 -15.4352 0.2896
23.2200 -15.4486 0.2865
23.2400 -15.4619 0.2864
23.2600 -15.4753 0.2891
23.2800 -15.4886 0.2900
23.3000 -15.5020 0.2902
23.3200 -15.5154 0.2917
23.3400 -15.5287 0.2906
23.3600 -15.5420 0.2884
23.3800 -15.5553 0.2922
23.4000 -15.5687 0.2917
23.4200 -15.5820 0.2936
23.4400 -15.5953 0.2939
23.4600 -15.6086 0.2956
23.4800 -15.6220 0.2961
23.5000 -15.6353 0.2981
23.5200 -15.6486 0.2975
23.5400 -15.6619 0.2994
23.5600 -15.6753 0.3013
23.5800 -15.6887 0.2993
23.6000 -15.7020 0.3008
23.6200 -15.7153 0.3014
23.6400 -15.7287 0.3033
23.6600 -15.7420 0.3006
23.6800 -15.7553 0.3037
23.7000 -15.7686 0.3048
23.7200 -15.7819 0.3045
23.7400 -15.7953 0.3052
23.7600 -15.8087 0.3077
23.7800 -15.8220 0.3085
23.8000 -15.8353 0.3109
23.8200 -15.8486 0.3093
23.8400 -15.8620 0.3114
23.8600 -15.8753 0.3116
23.8800 -15.8886 0.3102
23.9000 -15.9019 0.3115
23.9200 -15.9153 0.3143
23.9400 -15.9286 0.3136
23.9600 -15.9419 0.3125
23.9800 -15.9553 0.3158
24.0000 -15.9687 0.3167
24.0200 -15.9820 0.3159
24.0400 -15.9954 0.3200
24.0600 -16.0087 0.3204
24.0800 -16.0220 0.3202
24.1000 -16.0354 0.3222
24.1200 -16.0487 0.3214
24.1400 -16.0620 0.3207
24.1600 -16.0753 0.3211
24.1800 -16.0886 0.3244
24.2000 -16.1020 0.3244
24.2200 -16.1153 0.3265
24.2400 -16.1286 0.3255
24.2600 -16.1419 0.3241
24.2800 -16.1552 0.3280
24.3000 -16.1686 0.3299
24.3200 -16.1820 0.3288
24.3400 -16.1953 0.3300
24.3600 -16.2086 0.3307
24.3800 -16.2220 0.3335
24.4000 -16.2353 0.3348
24.4200 -16.2486 0.3372
24.4400 -16.2620 0.3354
24.4600 -16.2753 0.3377
24.4800 -16.2887 0.3379
24.5000 -16.3020 0.3373
24.5200 -16.3153 0.3380
24.5400 -16.3286 0.3394
24.5600 -16.3420 0.3377
24.5800 -16.3553 0.3434
24.6000 -16.3686 0.3441
24.6200 -16.3819 0.3419
24.6400 -16.3952 0.3409
24.6600 -16.4086 0.3428
24.6800 -16.4220 0.3448
24.7000 -16.4353 0.3459
24.7200 -16.4486 0.3465
24.7400 -16.4620 0.3458
24.7600 -16.4753 0.3477
24.7800 -16.4887 0.3502
24.8000 -16.5020 0.3470
24.8200 -16.5153 0.3512
24.8400 -16.5287 0.3493
24.8600 -16.5420 0.3510
24.8800 -16.5553 0.3538
24.9000 -16.5687 0.3556
24.9200 -16.5820 0.3559
24.9400 -16.5953 0.3575
24.9600 -16.6086 0.3545
24.9800 -16.6219 0.3579
25.0000 -16.6353 0.3588
25.0200 -16.6486 0.3599
25.0400 -16.6620 0.3626
25.0600 -16.6753 0.3648
25.0800 -16.6887 0.3647
25.1000 -16.7020 0.3635
25.1200 -16.7154 0.3673
25.1400 -16.7287 0.3673
25.1600 -16.7420 0.3671
25.1800 -16.7553 0.3681
25.2000 -16.7687 0.3722
25.2200 -16.7820 0.3697
25.2400 -16.7953 0.3705
25.2600 -16.8086 0.3713
25.2800 -16.8220 0.3742
25.3000 -16.8353 0.3748
25.3200 -16.8486 0.3752
25.3400 -16.8619 0.3719
25.3600 -16.8753 0.3718
25.3800 -16.8887 0.3743
25.4000 -16.9020 0.3723
25.4200 -16.9153 0.3754
25.4400 -16.9286 0.3743
25.4600 -16.9420 0.3734
25.4800 -16.9554 0.3757
25.5000 -16.9687 0.3778
25.5200 -16.9820 0.3771
25.5400 -16.9953 0.3779
25.5600 -17.0086 0.3795
25.5800 -17.0219 0.3785
25.6000 -17.0352 0.3821
25.6200 -17.0486 0.3804
25.6400 -17.0619 0.3811
25.6600 -17.0753 0.3815
25.6800 -17.0886 0.3853
25.7000 -17.1019 0.3848
25.7200 -17.1153 0.3887
25.7400 -17.1286 0.3870
25.7600 -17.1420 0.3852
25.7800 -17.1553 0.3879
25.8000 -17.1686 0.3900
25.8200 -17.1820 0.3906
25.8400 -17.1954 0.3914
25.8600 -17.2087 0.3937
25.8800 -17.2220 0.3902
25.9000 -17.2353 0.3956
25.9200 -17.2487 0.3962
25.9400 -17.2620 0.3940
25.9600 -17.2753 0.3970
25.9800 -17.2887 0.3993
26.0000 -17.3020 0.3990
26.0200 -17.3153 0.3998
26.0400 -17.3286 0.4006
26.0600 -17.3419 0.3988
26.0800 -17.3552 0.4023
26.1000 -17.3686 0.4032
26.1200 -17.3819 0.4052
26.1400 -17.3952 0.4045
26.1600 -17.4086 0.4062
26.1800 -17.4220 0.4030
26.2000 -17.4354 0.4071
26.2200 -17.4487 0.4060
26.2400 -17.4620 0.4055
26.2600 -17.4753 0.4069
26.2800 -17.4887 0.4089
26.3000 -17.5021 0.4091
26.3200 -17.5154 0.4110
26.3400 -17.5287 0.4112
26.3600 -17.5420 0.4098
26.3800 -17.5553 0.4130
26.4000 -17.5686 0.4161
26.4200 -17.5819 0.4148
26.4400 -17.5953 0.4168
26.4600 -17.6086 0.4171
26.4800 -17.6220 0.4175
26.5000 -17.6353 0.4167
26.5200 -17.6486 0.4201
26.5400 -17.6620 0.4169
26.5600 -17.6754 0.4204
26.5800 -17.6887 0.4206
26.6000 -17.7020 0.4209
26.6200 -17.7153 0.4206
26.6400 -17.7287 0.4229
26.6600 -17.7420 0.4226
26.6800 -17.7553 0.4226
26.7000 -17.7686 0.4252
26.7200 -17.7820 0.4244
26.7400 -17.7953 0.4271
26.7600 -17.8086 0.4279
26.7800 -17.8219 0.4282
26.8000 -17.8352 0.4276
26.8200 -17.8486 0.4302
26.8400 -17.8620 0.4286
26.8600 -17.8753 0.4306
26.8800 -17.8886 0.4323
26.9000 -17.9020 0.4338
26.9200 -17.9153 0.4328
26.9400 -17.9287 0.4360
26.9600 -17.9420 0.4343
26.9800 -17.9553 0.4395
27.0000 -17.9687 0.4388
27.0200 -17.9820 0.4386
27.0400 -17.9953 0.4395
27.0600 -18.0086 0.4413
27.0800 -18.0220 0.4407
27.1000 -18.0353 0.4440
27.1200 -18.0486 0.4433
27.1400 -18.0619 0.4424
27.1600 -18.0752 0.4437
27.1800 -18.0886 0.4455
27.2000 -18.1019 0.4448
27.2200 -18.1153 0.4472
27.2400 -18.1286 0.4499
27.2600 -18.1420 0.4482
27.2800 -18.1554 0.4497
27.3000 -18.1687 0.4527
27.3200 -18.1820 0.4508
27.3400 -18.1953 0.4523
27.3600 -18.2087 0.4555
27.3800 -18.2220 0.4552
27.4000 -18.2353 0.4571
27.4200 -18.2486 0.4603
27.4400 -18.2620 0.4575
27.4600 -18.2753 0.4571
27.4800 -18.2886 0.4598
27.5000 -18.3019 0.4574
27.5200 -18.3153 0.4599
27.5400 -18.3286 0.4625
27.5600 -18.3420 0.4606
27.5800 -18.3553 0.4642
27.6000 -18.3686 0.4645
27.6200 -18.3819 0.4626
27.6400 -18.3953 0.4661
27.6600 -18.4087 0.4679
27.6800 -18.4220 0.4657
27.7000 -18.4353 0.4655
27.7200 -18.4487 0.4704
27.7400 -18.4620 0.4695
27.7600 -18.4754 0.4726
27.7800 -18.4887 0.4735
27.8000 -18.5020 0.4713
27.8200 -18.5154 0.4725
27.8400 -18.5286 0.4760
27.8600 -18.5419 0.4750
27.8800 -18.5552 0.4772
27.9000 -18.5686 0.4792
27.9200 -18.5820 0.4780
27.9400 -18.5953 0.4787
27.9600 -18.6086 0.4809
27.9800 -18.6220 0.4802
28.0000 -18.6353 0.4798
28.0200 -18.6487 0.4823
28.0400 -18.6620 0.4800
28.0600 -18.6753 0.4828
28.0800 -18.6887 0.4848
28.1000 -18.7020 0.4845
28.1200 -18.7154 0.4834
28.1400 -18.7287 0.4866
28.1600 -18.7420 0.4880
28.1800 -18.7553 0.4887
28.2000 -18.7686 0.4883
28.2200 -18.7819 0.4864
28.2400 -18.7952 0.4865
28.2600 -18.8086 0.4887
28.2800 -18.8220 0.4878
28.3000 -18.8353 0.4883
28.3200 -18.8486 0.4923
28.3400 -18.8619 0.4902
28.3600 -18.8753 0.4915
28.3800 -18.8887 0.4918
28.4000 -18.9020 0.4929
28.4200 -18.9153 0.4938
28.4400 -18.9287 0.4966
28.4600 -18.9420 0.4959
28.4800 -18.9554 0.4974
28.5000 -18.9686 0.4992
28.5200 -18.9819 0.4996
28.5400 -18.9953 0.4990
28.5600 -19.0086 0.5054
28.5800 -19.0219 0.4991
28.6000 -19.0352 0.5019
28.6200 -19.0486 0.5050
28.6400 -19.0620 0.5048
28.6600 -19.0753 0.5046
28.6800 -19.0886 0.5057
28.7000 -19.1020 0.5060
28.7200 -19.1154 0.5068
28.7400 -19.1287 0.5108
28.7600 -19.1420 0.5099
28.7800 -19.1553 0.5097
28.8000 -19.1687 0.5121
28.8200 -19.1820 0.5121
28.8400 -19.1954 0.5117
28.8600 -19.2087 0.5139
28.8800 -19.2220 0.5141
28.9000 -19.2354 0.5174
28.9200 -19.2487 0.5175
28.9400 -19.2619 0.5182
28.9600 -19.2752 0.5172
28.9800 -19.2886 0.5199
29.0000 -19.3020 0.5208
29.0200 -19.3153 0.5224
29.0400 -19.3286 0.5216
29.0600 -19.3419 0.5223
29.0800 -19.3553 0.5206
29.1000 -19.3687 0.5261
29.1200 -19.3820 0.5239
29.1400 -19.3953 0.5261
29.1600 -19.4087 0.5279
29.1800 -19.4220 0.5284
29.2000 -19.4354 0.5270
29.2200 -19.4486 0.5304
29.2400 -19.4620 0.5313
29.2600 -19.4753 0.5311
29.2800 -19.4886 0.5326
29.3000 -19.5019 0.5326
29.3200 -19.5152 0.5332
29.3400 -19.5286 0.5349
29.3600 -19.5420 0.5336
29.3800 -19.5553 0.5351
29.4000 -19.5686 0.5364
29.4200 -19.5820 0.5379
29.4400 -19.5953 0.5371
29.4600 -19.6087 0.5406
29.4800 -19.6220 0.5412
29.5000 -19.6353 0.5405
29.5200 -19.6487 0.5445
29.5400 -19.6620 0.5450
29.5600 -19.6753 0.5453
29.5800 -19.6886 0.5482
29.6000 -19.7019 0.5496
29.6200 -19.7153 0.5484
29.6400 -19.7286 0.5538
29.6600 -19.7419 0.5516
29.6800 -19.7552 0.5511
29.7000 -19.7686 0.5524
29.7200 -19.7820 0.5557
29.7400 -19.7953 0.5584
29.7600 -19.8086 0.5589
29.7800 -19.8220 0.5585
29.8000 -19.8353 0.5594
29.8200 -19.8487 0.5607
29.8400 -19.8620 0.5640
29.8600 -19.8753 0.5629
29.8800 -19.8887 0.5677
29.9000 -19.9020 0.5674
29.9200 -19.9154 0.5581
29.9400 -19.9287 0.5018
29.9600 -19.9420 0.4072
29.9800 -19.9553 0.3005
30.0000 -19.9686 0.2038
30.0200 -19.9819 0.1092
30.0400 -19.9952 0.0203
30.0600 -20.0085 -0.0690
30.0800 -20.0219 -0.1603
30.1000 -20.0353 -0.2519
30.1200 -20.0486 -0.3382
30.1400 -20.0620 -0.4020
30.1600 -20.0753 -0.4578
30.1800 -20.0887 -0.5208
30.2000 -20.1020 -0.5892
30.2200 -20.1153 -0.6600
30.2400 -20.1287 -0.7268
30.2600 -20.1420 -0.7926
30.2800 -20.1554 -0.8576
30.3000 -20.1687 -0.9162
30.3200 -20.1820 -0.9808
30.3400 -20.1953 -1.0538
30.3600 -20.2086 -1.1291
30.3800 -20.2219 -1.2038
30.4000 -20.2352 -1.2570
30.4200 -20.2486 -1.2708
30.4400 -20.2619 -1.2679
30.4600 -20.2753 -1.2677
30.4800 -20.2886 -1.2634
30.5000 -20.3020 -1.2643
30.5200 -20.3154 -1.2671
30.5400 -20.3287 -1.2674
30.5600 -20.3420 -1.2676
30.5800 -20.3553 -1.2693
30.6000 -20.3687 -1.2675
30.6200 -20.3820 -1.2688
30.6400 -20.3954 -1.2694
30.6600 -20.4087 -1.2685
30.6800 -20.4220 -1.2680
30.7000 -20.4353 -1.2717
30.7200 -20.4486 -1.2672
30.7400 -20.4619 -1.2698
30.7600 -20.4752 -1.2704
30.7800 -20.4886 -1.2682
30.8000 -20.5020 -1.2662
30.8200 -20.5153 -1.2675
30.8400 -20.5286 -1.2634
30.8600 -20.5420 -1.2653
30.8800 -20.5553 -1.2649
30.9000 -20.5687 -1.2626
30.9200 -20.5820 -1.2614
30.9400 -20.5953 -1.2638
30.9600 -20.6086 -1.2603
30.9800 -20.6220 -1.2576
31.0000 -20.6353 -1.2567
31.0200 -20.6486 -1.2563
31.0400 -20.6620 -1.2541
31.0600 -20.6753 -1.2535
31.0800 -20.6887 -1.2509
31.1000 -20.7020 -1.2499
31.1200 -20.7153 -1.2502
31.1400 -20.7286 -1.2467
31.1600 -20.7419 -1.2455
31.1800 -20.7553 -1.2474
31.2000 -20.7686 -1.2454
31.2200 -20.7819 -1.2430
31.2400 -20.7953 -1.2438
31.2600 -20.8087 -1.2387
31.2800 -20.8220 -1.2412
31.3000 -20.8353 -1.2409
31.3200 -20.8487 -1.2367
31.3400 -20.8621 -1.2347
31.3600 -20.8754 -1.2348
31.3800 -20.8887 -1.2313
31.4000 -20.9020 -1.2325
31.4200 -20.9153 -1.2302
31.4400 -20.9286 -1.2287
31.4600 -20.9419 -1.2250
31.4800 -20.9552 -1.2267
31.5000 -20.9686 -1.2229
31.5200 -20.9820 -1.2233
31.5400 -20.9953 -1.2233
31.5600 -21.0086 -1.2219
31.5800 -21.0219 -1.2189
31.6000 -21.0353 -1.2211
31.6200 -21.0487 -1.2181
31.6400 -21.0620 -1.2170
31.6600 -21.0753 -1.2162
31.6800 -21.0887 -1.2147
31.7000 -21.1020 -1.2135
31.7200 -21.1154 -1.2167
31.7400 -21.1287 -1.2132
31.7600 -21.1420 -1.2120
31.7800 -21.1553 -1.2116
31.8000 -21.1687 -1.2098
31.8200 -21.1820 -1.2080
31.8400 -21.1953 -1.2065
31.8600 -21.2086 -1.2050
31.8800 -21.2219 -1.2018
31.9000 -21.2353 -1.2015
31.9200 -21.2486 -1.1996
31.9400 -21.2619 -1.1993
31.9600 -21.2753 -1.2022
31.9800 -21.2887 -1.1991
32.0000 -21.3020 -1.1957
32.0200 -21.3153 -1.1966
32.0400 -21.3286 -1.1950
32.0600 -21.3420 -1.1926
32.0800 -21.3554 -1.1912
32.1000 -21.3687 -1.1875
32.1200 -21.3820 -1.1856
32.1400 -21.3953 -1.1874
32.1600 -21.4087 -1.1848
32.1800 -21.4220 -1.1832
32.2000 -21.4353 -1.1840
32.2200 -21.4486 -1.1809
32.2400 -21.4619 -1.1786
32.2600 -21.4753 -1.1791
32.2800 -21.4886 -1.1763
32.3000 -21.5020 -1.1736
32.3200 -21.5153 -1.1741
32.3400 -21.5287 -1.1721
32.3600 -21.5420 -1.1689
32.3800 -21.5553 -1.1693
32.4000 -21.5686 -1.1673
32.4200 -21.5820 -1.1642
32.4400 -21.5953 -1.1639
32.4600 -21.6086 -1.1625
32.4800 -21.6220 -1.1600
32.5000 -21.6353 -1.1611
32.5200 -21.6486 -1.1601
32.5400 -21.6620 -1.1565
32.5600 -21.6753 -1.1563
32.5800 -21.6886 -1.1538
32.6000 -21.7020 -1.1535
32.6200 -21.7153 -1.1541
32.6400 -21.7286 -1.1535
32.6600 -21.7419 -1.1529
32.6800 -21.7553 -1.1542
32.7000 -21.7687 -1.1530
32.7200 -21.7820 -1.1520
32.7400 -21.7953 -1.1529
32.7600 -21.8086 -1.1523
32.7800 -21.8220 -1.1520
32.8000 -21.8353 -1.1522
32.8200 -21.8487 -1.1538
32.8400 -21.8620 -1.1512
32.8600 -21.8753 -1.1558
32.8800 -21.8886 -1.1527
32.9000 -21.9020 -1.1524
32.9200 -21.9153 -1.1535
32.9400 -21.9286 -1.1534
32.9600 -21.9420 -1.1504
32.9800 -21.9553 -1.1515
33.0000 -21.9686 -1.1514
33.0200 -21.9819 -1.1520
33.0400 -21.9953 -1.1506
33.0600 -22.0087 -1.1505
33.0800 -22.0220 -1.1492
33.1000 -22.0353 -1.1498
33.1200 -22.0486 -1.1486
33.1400 -22.0620 -1.1471
33.1600 -22.0754 -1.1466
33.1800 -22.0887 -1.1465
33.2000 -22.1020 -1.1432
33.2200 -22.1153 -1.1442
33.2400 -22.1287 -1.1439
33.2600 -22.1420 -1.1403
33.2800 -22.1553 -1.1403
33.3000 -22.1686 -1.1399
33.3200 -22.1819 -1.1363
33.3400 -22.1952 -1.1363
33.3600 -22.2086 -1.1350
33.3800 -22.2219 -1.1340
33.4000 -22.2353 -1.1343
33.4200 -22.2487 -1.1318
33.4400 -22.2620 -1.1282
33.4600 -22.2753 -1.1296
33.4800 -22.2886 -1.1278
33.5000 -22.3020 -1.1278
33.5200 -22.3154 -1.1283
33.5400 -22.3287 -1.1274
33.5600 -22.3420 -1.1243
33.5800 -22.3553 -1.1233
33.6000 -22.3686 -1.1232
33.6200 -22.3820 -1.1194
33.6400 -22.3953 -1.1216
33.6600 -22.4086 -1.1169
33.6800 -22.4219 -1.1190
33.7000 -22.4353 -1.1172
33.7200 -22.4487 -1.1181
33.7400 -22.4620 -1.1149
33.7600 -22.4753 -1.1151
33.7800 -22.4887 -1.1102
33.8000 -22.5020 -1.1098
33.8200 -22.5153 -1.1052
33.8400 -22.5286 -1.1072
33.8600 -22.5420 -1.1045
33.8800 -22.5553 -1.1055
33.9000 -22.5687 -1.1053
33.9200 -22.5820 -1.1021
33.9400 -22.5953 -1.1019
33.9600 -22.6087 -1.1029
33.9800 -22.6220 -1.1000
34.0000 -22.6353 -1.0998
34.0200 -22.6486 -1.0989
34.0400 -22.6619 -1.0960
34.0600 -22.6753 -1.0966
34.0800 -22.6886 -1.0982
34.1000 -22.7019 -1.0981
34.1200 -22.7153 -1.0962
34.1400 -22.7287 -1.0964
34.1600 -22.7420 -1.0923
34.1800 -22.7553 -1.0935
34.2000 -22.7687 -1.0911
34.2200 -22.7820 -1.0892
34.2400 -22.7954 -1.0902
34.2600 -22.8087 -1.0911
34.2800 -22.8220 -1.0870
34.3000 -22.8353 -1.0875
34.3200 -22.8487 -1.0867
34.3400 -22.8620 -1.0843
34.3600 -22.8753 -1.0854
34.3800 -22.8886 -1.0834
34.4000 -22.9019 -1.0807
34.4200 -22.9153 -1.0803
34.4400 -22.9286 -1.0801
34.4600 -22.9419 -1.0773
34.4800 -22.9553 -1.0786
34.5000 -22.9687 -1.0749
34.5200 -22.9820 -1.0738
34.5400 -22.9954 -1.0733
34.5600 -23.0087 -1.0736
34.5800 -23.0220 -1.0725
34.6000 -23.0354 -1.0703
34.6200 -23.0487 -1.0706
34.6400 -23.0620 -1.0699
34.6600 -23.0753 -1.0700
34.6800 -23.0886 -1.0693
34.7000 -23.1020 -1.0671
34.7200 -23.1153 -1.0690
34.7400 -23.1286 -1.0691
34.7600 -23.1419 -1.0678
34.7800 -23.1553 -1.0690
34.8000 -23.1686 -1.0672
34.8200 -23.1819 -1.0659
34.8400 -23.1953 -1.0656
34.8600 -23.2086 -1.0670
34.8800 -23.2220 -1.0645
34.9000 -23.2353 -1.0654
34.9200 -23.2486 -1.0647
34.9400 -23.2620 -1.0627
34.9600 -23.2754 -1.0650
34.9800 -23.2887 -1.0633
35.0000 -23.3020 -1.0617
35.0200 -23.3153 -1.0606
35.0400 -23.3287 -1.0610
35.0600 -23.3420 -1.0590
35.0800 -23.3553 -1.0593
35.1000 -23.3686 -1.0598
35.1200 -23.3819 -1.0568
35.1400 -23.3953 -1.0569
35.1600 -23.4086 -1.0549
35.1800 -23.4219 -1.0549
35.2000 -23.4353 -1.0549
35.2200 -23.4486 -1.0550
35.2400 -23.4620 -1.0494
35.2600 -23.4753 -1.0527
35.2800 -23.4886 -1.0518
35.3000 -23.5020 -1.0493
35.3200 -23.5154 -1.0470
35.3400 -23.5287 -1.0470
35.3600 -23.5420 -1.0460
35.3800 -23.5553 -1.0459
35.4000 -23.5687 -1.0483
35.4200 -23.5820 -1.0468
35.4400 -23.5953 -1.0452
35.4600 -23.6086 -1.0447
35.4800 -23.6219 -1.0422
35.5000 -23.6353 -1.0416
35.5200 -23.6486 -1.0402
35.5400 -23.6619 -1.0379
35.5600 -23.6753 -1.0375
35.5800 -23.6886 -1.0364
35.6000 -23.7020 -1.0354
35.6200 -23.7154 -1.0375
35.6400 -23.7287 -1.0340
35.6600 -23.7420 -1.0341
35.6800 -23.7554 -1.0330
35.7000 -23.7687 -1.0333
35.7200 -23.7820 -1.0306
35.7400 -23.7953 -1.0306
35.7600 -23.8086 -1.0306
35.7800 -23.8219 -1.0306
35.8000 -23.8352 -1.0288
35.8200 -23.8485 -1.0303
35.8400 -23.8619 -1.0271
35.8600 -23.8753 -1.0270
35.8800 -23.8886 -1.0266
35.9000 -23.9020 -1.0247
35.9200 -23.9153 -1.0253
35.9400 -23.9287 -1.0238
35.9600 -23.9420 -1.0208
35.9800 -23.9553 -1.0206
36.0000 -23.9686 -1.0215
36.0200 -23.9820 -1.0190
36.0400 -23.9954 -1.0202
36.0600 -24.0087 -1.0198
36.0800 -24.0220 -1.0193
36.1000 -24.0353 -1.0168
36.1200 -24.0487 -1.0181
36.1400 -24.0620 -1.0153
36.1600 -24.0753 -1.0149
36.1800 -24.0886 -1.0119
36.2000 -24.1019 -1.0109
36.2200 -24.1153 -1.0090
36.2400 -24.1286 -1.0122
36.2600 -24.1419 -1.0098
36.2800 -24.1553 -1.0095
36.3000 -24.1686 -1.0085
36.3200 -24.1820 -1.0080
36.3400 -24.1953 -1.0074
36.3600 -24.2086 -1.0069
36.3800 -24.2220 -1.0048
36.4000 -24.2353 -1.0068
36.4200 -24.2487 -1.0052
36.4400 -24.2620 -1.0034
36.4600 -24.2753 -1.0012
36.4800 -24.2886 -1.0019
36.5000 -24.3020 -1.0010
36.5200 -24.3153 -0.9982
36.5400 -24.3286 -1.0011
36.5600 -24.3419 -0.9985
36.5800 -24.3553 -0.9997
36.6000 -24.3686 -0.9982
36.6200 -24.3820 -0.9980
36.6400 -24.3953 -0.9971
36.6600 -24.4086 -0.9974
36.6800 -24.4220 -0.9971
36.7000 -24.4354 -0.9962
36.7200 -24.4487 -0.9949
36.7400 -24.4620 -0.9941
36.7600 -24.4753 -0.9940
36.7800 -24.4887 -0.9920
36.8000 -24.5020 -0.9916
36.8200 -24.5153 -0.9882
36.8400 -24.5286 -0.9921
36.8600 -24.5420 -0.9906
36.8800 -24.5553 -0.9899
36.9000 -24.5686 -0.9917
36.9200 -24.5819 -0.9877
36.9400 -24.5953 -0.9889
36.9600 -24.6087 -0.9878
36.9800 -24.6220 -0.9881
37.0000 -24.6353 -0.9887
37.0200 -24.6487 -0.9874
37.0400 -24.6620 -0.9846
37.0600 -24.6754 -0.9849
37.0800 -24.6887 -0.9842
37.1000 -24.7020 -0.9836
37.1200 -24.7153 -0.9842
37.1400 -24.7287 -0.9849
37.1600 -24.7420 -0.9851
37.1800 -24.7553 -0.9842
37.2000 -24.7687 -0.9868
37.2200 -24.7820 -0.9830
37.2400 -24.7953 -0.9821
37.2600 -24.8086 -0.9837
37.2800 -24.8219 -0.9827
37.3000 -24.8353 -0.9803
37.3200 -24.8486 -0.9820
37.3400 -24.8619 -0.9802
37.3600 -24.8753 -0.9787
37.3800 -24.8886 -0.9794
37.4000 -24.9020 -0.9783
37.4200 -24.9154 -0.9759
37.4400 -24.9287 -0.9766
37.4600 -24.9420 -0.9757
37.4800 -24.9553 -0.9738
37.5000 -24.9687 -0.9739
37.5200 -24.9820 -0.9731
37.5400 -24.9953 -0.9717
37.5600 -25.0086 -0.9725
37.5800 -25.0220 -0.9701
37.6000 -25.0353 -0.9698
37.6200 -25.0486 -0.9692
37.6400 -25.0619 -0.9678
37.6600 -25.0752 -0.9631
37.6800 -25.0886 -0.9654
37.7000 -25.1019 -0.9635
37.7200 -25.1153 -0.9651
37.7400 -25.1286 -0.9638
37.7600 -25.1420 -0.9620
37.7800 -25.1554 -0.9602
37.8000 -25.1687 -0.9580
37.8200 -25.1820 -0.9594
37.8400 -25.1953 -0.9558
37.8600 -25.2087 -0.9561
37.8800 -25.2220 -0.9559
37.9000 -25.2353 -0.9569
37.9200 -25.2486 -0.9546
37.9400 -25.2620 -0.9527
37.9600 -25.2753 -0.9494
37.9800 -25.2886 -0.9528
38.0000 -25.3019 -0.9490
38.0200 -25.3153 -0.9492
38.0400 -25.3286 -0.9482
38.0600 -25.3420 -0.9477
38.0800 -25.3553 -0.9486
38.1000 -25.3687 -0.9480
38.1200 -25.3820 -0.9475
38.1400 -25.3954 -0.9442
38.1600 -25.4086 -0.9468
38.1800 -25.4219 -0.9454
38.2000 -25.4353 -0.9434
38.2200 -25.4487 -0.9435
38.2400 -25.4620 -0.9434
38.2600 -25.4753 -0.9426
38.2800 -25.4886 -0.9401
38.3000 -25.5020 -0.9390
38.3200 -25.5153 -0.9380
38.3400 -25.5286 -0.9405
38.3600 -25.5419 -0.9400
38.3800 -25.5553 -0.9377
38.4000 -25.5686 -0.9376
38.4200 -25.5819 -0.9381
38.4400 -25.5953 -0.9357
38.4600 -25.6086 -0.9368
38.4800 -25.6220 -0.9359
38.5000 -25.6354 -0.9355
38.5200 -25.6487 -0.9361
38.5400 -25.6620 -0.9334
38.5600 -25.6754 -0.9342
38.5800 -25.6887 -0.9315
38.6000 -25.7020 -0.9313
38.6200 -25.7153 -0.9304
38.6400 -25.7286 -0.9321
38.6600 -25.7420 -0.9304
38.6800 -25.7553 -0.9314
38.7000 -25.7686 -0.9292
38.7200 -25.7819 -0.9283
38.7400 -25.7952 -0.9275
38.7600 -25.8086 -0.9285
38.7800 -25.8220 -0.9276
38.8000 -25.8353 -0.9268
38.8200 -25.8486 -0.9261
38.8400 -25.8620 -0.9263
38.8600 -25.8754 -0.9258
38.8800 -25.8887 -0.9268
38.9000 -25.9020 -0.9277
38.9200 -25.9153 -0.9268
38.9400 -25.9287 -0.9267
38.9600 -25.9420 -0.9266
38.9800 -25.9553 -0.9251
39.0000 -25.9686 -0.9267
39.0200 -25.9820 -0.9252
39.0400 -25.9953 -0.9222
39.0600 -26.0086 -0.9245
39.0800 -26.0219 -0.9250
39.1000 -26.0353 -0.9221
39.1200 -26.0486 -0.9205
39.1400 -26.0620 -0.9198
39.1600 -26.0752 -0.9215
39.1800 -26.0886 -0.9201
39.2000 -26.1020 -0.9235
39.2200 -26.1153 -0.9197
39.2400 -26.1287 -0.9217
39.2600 -26.1420 -0.9194
39.2800 -26.1553 -0.9185
39.3000 -26.1687 -0.9200
39.3200 -26.1820 -0.9170
39.3400 -26.1953 -0.9164
39.3600 -26.2087 -0.9143
39.3800 -26.2220 -0.9148
39.4000 -26.2354 -0.9134
39.4200 -26.2486 -0.9133
39.4400 -26.2619 -0.9122
39.4600 -26.2753 -0.9113
39.4800 -26.2886 -0.9120
39.5000 -26.3020 -0.9119
39.5200 -26.3153 -0.9087
39.5400 -26.3286 -0.9083
39.5600 -26.3420 -0.9071
39.5800 -26.3554 -0.9062
39.6000 -26.3687 -0.9069
39.6200 -26.3820 -0.9047
39.6400 -26.3953 -0.9043
39.6600 -26.4087 -0.9014
39.6800 -26.4220 -0.9015
39.7000 -26.4353 -0.9009
39.7200 -26.4486 -0.9009
39.7400 -26.4620 -0.8999
39.7600 -26.4753 -0.9010
39.7800 -26.4886 -0.8995
39.8000 -26.5019 -0.8996
39.8200 -26.5153 -0.8964
39.8400 -26.5287 -0.8956
39.8600 -26.5420 -0.8922
39.8800 -26.5553 -0.8940
39.9000 -26.5686 -0.8928
39.9200 -26.5820 -0.8937
39.9400 -26.5954 -0.8910
39.9600 -26.6087 -0.8897
39.9800 -26.6220 -0.8898
40.0000 -26.6353 -0.8873
40.0200 -26.6487 -0.8883
40.0400 -26.6620 -0.8852
40.0600 -26.6753 -0.8854
40.0800 -26.6886 -0.8852
40.1000 -26.7020 -0.8861
40.1200 -26.7153 -0.8845
40.1400 -26.7286 -0.8855
40.1600 -26.7419 -0.8826
40.1800 -26.7553 -0.8843
40.2000 -26.7686 -0.8815
40.2200 -26.7820 -0.8822
40.2400 -26.7953 -0.8816
40.2600 -26.8086 -0.8802
40.2800 -26.8220 -0.8810
40.3000 -26.8353 -0.8815
40.3200 -26.8487 -0.8785
40.3400 -26.8620 -0.8808
40.3600 -26.8753 -0.8782
40.3800 -26.8886 -0.8782
40.4000 -26.9020 -0.8759
40.4200 -26.9153 -0.8783
40.4400 -26.9287 -0.8776
40.4600 -26.9420 -0.8774
40.4800 -26.9553 -0.8746
40.5000 -26.9686 -0.8722
40.5200 -26.9819 -0.8728
40.5400 -26.9953 -0.8740
40.5600 -27.0086 -0.8704
40.5800 -27.0219 -0.8710
40.6000 -27.0352 -0.8717
40.6200 -27.0486 -0.8697
40.6400 -27.0620 -0.8696
40.6600 -27.0754 -0.8686
40.6800 -27.0887 -0.8680
40.7000 -27.1020 -0.8658
40.7200 -27.1153 -0.8669
40.7400 -27.1287 -0.8623
40.7600 -27.1421 -0.8633
40.7800 -27.1554 -0.8618
40.8000 -27.1686 -0.8636
40.8200 -27.1820 -0.8614
40.8400 -27.1953 -0.8613
40.8600 -27.2086 -0.8582
40.8800 -27.2219 -0.8582
40.9000 -27.2353 -0.8583
40.9200 -27.2486 -0.8556
40.9400 -27.2620 -0.8553
40.9600 -27.2753 -0.8561
40.9800 -27.2886 -0.8542
41.0000 -27.3020 -0.8542
41.0200 -27.3154 -0.8552
41.0400 -27.3287 -0.8529
41.0600 -27.3420 -0.8544
41.0800 -27.3553 -0.8528
41.1000 -27.3687 -0.8518
41.1200 -27.3820 -0.8509
41.1400 -27.3953 -0.8532
41.1600 -27.4086 -0.8514
41.1800 -27.4220 -0.8522
41.2000 -27.4353 -0.8512
41.2200 -27.4486 -0.8514
41.2400 -27.4619 -0.8528
41.2600 -27.4752 -0.8522
41.2800 -27.4886 -0.8514
41.3000 -27.5020 -0.8504
41.3200 -27.5153 -0.8512
41.3400 -27.5286 -0.8505
41.3600 -27.5420 -0.8503
41.3800 -27.5553 -0.8479
41.4000 -27.5687 -0.8476
41.4200 -27.5820 -0.8484
41.4400 -27.5953 -0.8505
41.4600 -27.6087 -0.8495
41.4800 -27.6220 -0.8472
41.5000 -27.6353 -0.8475
41.5200 -27.6487 -0.8472
41.5400 -27.6620 -0.8474
41.5600 -27.6753 -0.8499
41.5800 -27.6886 -0.8454
41.6000 -27.7019 -0.8450
41.6200 -27.7152 -0.8465
41.6400 -27.7286 -0.8435
41.6600 -27.7419 -0.8432
41.6800 -27.7553 -0.8440
41.7000 -27.7686 -0.8439
41.7200 -27.7820 -0.8429
41.7400 -27.7954 -0.8435
41.7600 -27.8087 -0.8418
41.7800 -27.8220 -0.8409
41.8000 -27.8353 -0.8411
41.8200 -27.8487 -0.8388
41.8400 -27.8620 -0.8375
41.8600 -27.8754 -0.8372
41.8800 -27.8887 -0.8370
41.9000 -27.9020 -0.8364
41.9200 -27.9153 -0.8377
41.9400 -27.9287 -0.8342
41.9600 -27.9419 -0.8365
41.9800 -27.9553 -0.8353
42.0000 -27.9686 -0.8346
42.0200 -27.9820 -0.8312
42.0400 -27.9953 -0.8322
42.0600 -28.0086 -0.8307
42.0800 -28.0219 -0.8312
42.1000 -28.0353 -0.8299
42.1200 -28.0487 -0.8275
42.1400 -28.0620 -0.8275
42.1600 -28.0753 -0.8289
42.1800 -28.0887 -0.8267
42.2000 -28.1020 -0.8256
42.2200 -28.1154 -0.8253
42.2400 -28.1287 -0.8221
42.2600 -28.1420 -0.8226
42.2800 -28.1553 -0.8225
42.3000 -28.1686 -0.8220
42.3200 -28.1819 -0.8197
42.3400 -28.1952 -0.8208
42.3600 -28.2086 -0.8184
42.3800 -28.2220 -0.8186
42.4000 -28.2353 -0.8180
42.4200 -28.2486 -0.8191
42.4400 -28.2620 -0.8173
42.4600 -28.2754 -0.8185
42.4800 -28.2887 -0.8156
42.5000 -28.3020 -0.8156
42.5200 -28.3153 -0.8149
42.5400 -28.3286 -0.8133
42.5600 -28.3420 -0.8095
42.5800 -28.3554 -0.8120
42.6000 -28.3687 -0.8082
42.6200 -28.3820 -0.8073
42.6400 -28.3953 -0.8064
42.6600 -28.4087 -0.8060
42.6800 -28.4219 -0.8056
42.7000 -28.4352 -0.8062
42.7200 -28.4486 -0.8014
42.7400 -28.4620 -0.8024
42.7600 -28.4753 -0.8016
42.7800 -28.4886 -0.8018
42.8000 -28.5019 -0.7991
42.8200 -28.5153 -0.7998
42.8400 -28.5287 -0.7966
42.8600 -28.5420 -0.7956
42.8800 -28.5553 -0.7966
42.9000 -28.5687 -0.7945
42.9200 -28.5820 -0.7919
42.9400 -28.5954 -0.7933
42.9600 -28.6086 -0.7904
42.9800 -28.6219 -0.7899
43.0000 -28.6353 -0.7892
43.0200 -28.6486 -0.7867
43.0400 -28.6619 -0.7869
43.0600 -28.6752 -0.7869
43.0800 -28.6886 -0.7860
43.1000 -28.7020 -0.7844
43.1200 -28.7153 -0.7863
43.1400 -28.7286 -0.7820
43.1600 -28.7420 -0.7829
43.1800 -28.7553 -0.7821
43.2000 -28.7687 -0.7807
43.2200 -28.7820 -0.7791
43.2400 -28.7953 -0.7825
43.2600 -28.8087 -0.7804
43.2800 -28.8220 -0.7812
43.3000 -28.8354 -0.7783
43.3200 -28.8487 -0.7787
43.3400 -28.8620 -0.7759
43.3600 -28.8753 -0.7780
43.3800 -28.8887 -0.7762
43.4000 -28.9020 -0.7773
43.4200 -28.9153 -0.7764
43.4400 -28.9286 -0.7762
43.4600 -28.9420 -0.7749
43.4800 -28.9553 -0.7761
43.5000 -28.9686 -0.7746
43.5200 -28.9819 -0.7734
43.5400 -28.9953 -0.7756
43.5600 -29.0087 -0.7754
43.5800 -29.0220 -0.7744
43.6000 -29.0353 -0.7771
43.6200 -29.0487 -0.7762
43.6400 -29.0620 -0.7742
43.6600 -29.0754 -0.7760
43.6800 -29.0887 -0.7755
43.7000 -29.1020 -0.7723
43.7200 -29.1153 -0.7759
43.7400 -29.1286 -0.7761
43.7600 -29.1419 -0.7765
43.7800 -29.1552 -0.7754
43.8000 -29.1686 -0.7738
43.8200 -29.1820 -0.7732
43.8400 -29.1953 -0.7756
43.8600 -29.2086 -0.7746
43.8800 -29.2220 -0.7731
43.9000 -29.2353 -0.7741
43.9200 -29.2487 -0.7716
43.9400 -29.2620 -0.7722
43.9600 -29.2753 -0.7718
43.9800 -29.2886 -0.7728
44.0000 -29.3020 -0.7681
44.0200 -29.3153 -0.7697
44.0400 -29.3286 -0.7689
44.0600 -29.3420 -0.7701
44.0800 -29.3553 -0.7711
44.1000 -29.3686 -0.7711
44.1200 -29.3819 -0.7691
44.1400 -29.3952 -0.7684
44.1600 -29.4086 -0.7678
44.1800 -29.4220 -0.7660
44.2000 -29.4353 -0.7657
44.2200 -29.4486 -0.7663
44.2400 -29.4620 -0.7643
44.2600 -29.4753 -0.7658
44.2800 -29.4887 -0.7630
44.3000 -29.5020 -0.7621
44.3200 -29.5153 -0.7633
44.3400 -29.5287 -0.7625
44.3600 -29.5420 -0.7608
44.3800 -29.5554 -0.7624
44.4000 -29.5687 -0.7621
44.4200 -29.5820 -0.7593
44.4400 -29.5953 -0.7589
44.4600 -29.6086 -0.7577
44.4800 -29.6219 -0.7567
44.5000 -29.6352 -0.7573
44.5200 -29.6485 -0.7562
44.5400 -29.6619 -0.7546
44.5600 -29.6753 -0.7569
44.5800 -29.6886 -0.7552
44.6000 -29.7019 -0.7545
44.6200 -29.7153 -0.7533
44.6400 -29.7287 -0.7506
44.6600 -29.7420 -0.7494
44.6800 -29.7553 -0.7509
44.7000 -29.7687 -0.7509
44.7200 -29.7820 -0.7481
44.7400 -29.7954 -0.7488
44.7600 -29.8087 -0.7473
44.7800 -29.8220 -0.7449
44.8000 -29.8353 -0.7453
44.8200 -29.8486 -0.7431
44.8400 -29.8619 -0.7417
44.8600 -29.8752 -0.7420
44.8800 -29.8885 -0.7384
44.9000 -29.9019 -0.7384
44.9200 -29.9153 -0.7385
44.9400 -29.9286 -0.7404
44.9600 -29.9419 -0.7383
44.9800 -29.9553 -0.7372
45.0000 -29.9687 -0.7352
45.0200 -29.9820 -0.7344
45.0400 -29.9953 -0.7313
45.0600 -30.0087 -0.7337
45.0800 -30.0220 -0.7305
45.1000 -30.0354 -0.7306
45.1200 -30.0487 -0.7288
45.1400 -30.0620 -0.7279
45.1600 -30.0753 -0.7275
45.1800 -30.0886 -0.7271
45.2000 -30.1019 -0.7251
45.2200 -30.1152 -0.7251
45.2400 -30.1286 -0.7269
45.2600 -30.1419 -0.7246
45.2800 -30.1553 -0.7246
45.3000 -30.1686 -0.7239
45.3200 -30.1820 -0.7220
45.3400 -30.1953 -0.7230
45.3600 -30.2087 -0.7214
45.3800 -30.2220 -0.7218
45.4000 -30.2353 -0.7230
45.4200 -30.2486 -0.7200
45.4400 -30.2620 -0.7181
45.4600 -30.2753 -0.7179
45.4800 -30.2887 -0.7206
45.5000 -30.3020 -0.7175
45.5200 -30.3153 -0.7196
45.5400 -30.3287 -0.7193
45.5600 -30.3420 -0.7174
45.5800 -30.3553 -0.7177
45.6000 -30.3686 -0.7197
45.6200 -30.3819 -0.7160
45.6400 -30.3953 -0.7168
45.6600 -30.4086 -0.7170
45.6800 -30.4219 -0.7176
45.7000 -30.4353 -0.7170
45.7200 -30.4487 -0.7155
45.7400 -30.4620 -0.7138
45.7600 -30.4753 -0.7156
45.7800 -30.4887 -0.7164
45.8000 -30.5020 -0.7124
45.8200 -30.5154 -0.7126
45.8400 -30.5287 -0.7127
45.8600 -30.5420 -0.7115
45.8800 -30.5553 -0.7115
45.9000 -30.5686 -0.7110
45.9200 -30.5819 -0.7091
45.9400 -30.5952 -0.7076
45.9600 -30.6086 -0.7072
45.9800 -30.6219 -0.7053
46.0000 -30.6353 -0.7061
46.0200 -30.6486 -0.7056
46.0400 -30.6619 -0.7042
46.0600 -30.6753 -0.7030
46.0800 -30.6887 -0.7043
46.1000 -30.7020 -0.7009
46.1200 -30.7153 -0.7004
46.1400 -30.7286 -0.7006
46.1600 -30.7420 -0.6987
46.1800 -30.7553 -0.6984
46.2000 -30.7687 -0.6976
46.2200 -30.7820 -0.6978
46.2400 -30.7953 -0.6947
46.2600 -30.8087 -0.6968
46.2800 -30.8220 -0.6942
46.3000 -30.8353 -0.6944
46.3200 -30.8486 -0.6953
46.3400 -30.8619 -0.6923
46.3600 -30.8753 -0.6913
46.3800 -30.8886 -0.6941
46.4000 -30.9019 -0.6903
46.4200 -30.9153 -0.6899
46.4400 -30.9287 -0.6893
46.4600 -30.9420 -0.6868
46.4800 -30.9553 -0.6891
46.5000 -30.9686 -0.6897
46.5200 -30.9820 -0.6887
46.5400 -30.9953 -0.6885
46.5600 -31.0087 -0.6885
46.5800 -31.0220 -0.6831
46.6000 -31.0353 -0.6843
46.6200 -31.0487 -0.6858
46.6400 -31.0620 -0.6845
46.6600 -31.0753 -0.6840
46.6800 -31.0886 -0.6849
46.7000 -31.1019 -0.6815
46.7200 -31.1153 -0.6818
46.7400 -31.1286 -0.6815
46.7600 -31.1420 -0.6800
46.7800 -31.1553 -0.6768
46.8000 -31.1687 -0.6781
46.8200 -31.1820 -0.6745
46.8400 -31.1953 -0.6772
46.8600 -31.2086 -0.6767
46.8800 -31.2220 -0.6743
46.9000 -31.2353 -0.6723
46.9200 -31.2486 -0.6748
46.9400 -31.2620 -0.6700
46.9600 -31.2753 -0.6713
46.9800 -31.2886 -0.6723
47.0000 -31.3020 -0.6699
47.0200 -31.3152 -0.6710
47.0400 -31.3286 -0.6721
47.0600 -31.3419 -0.6690
47.0800 -31.3553 -0.6682
47.1000 -31.3687 -0.6693
47.1200 -31.3820 -0.6672
47.1400 -31.3953 -0.6666
47.1600 -31.4087 -0.6662
47.1800 -31.4220 -0.6648
47.2000 -31.4353 -0.6651
47.2200 -31.4486 -0.6665
47.2400 -31.4620 -0.6628
47.2600 -31.4753 -0.6618
47.2800 -31.4887 -0.6631
47.3000 -31.5020 -0.6618
47.3200 -31.5153 -0.6604
47.3400 -31.5286 -0.6626
47.3600 -31.5419 -0.6585
47.3800 -31.5552 -0.6606
47.4000 -31.5686 -0.6596
47.4200 -31.5819 -0.6591
47.4400 -31.5953 -0.6576
47.4600 -31.6086 -0.6594
47.4800 -31.6219 -0.6555
47.5000 -31.6353 -0.6570
47.5200 -31.6487 -0.6542
47.5400 -31.6620 -0.6553
47.5600 -31.6753 -0.6535
47.5800 -31.6886 -0.6536
47.6000 -31.7020 -0.6497
47.6200 -31.7153 -0.6496
47.6400 -31.7287 -0.6499
47.6600 -31.7420 -0.6483
47.6800 -31.7553 -0.6460
47.7000 -31.7687 -0.6479
47.7200 -31.7820 -0.6416
47.7400 -31.7953 -0.6425
47.7600 -31.8086 -0.6440
47.7800 -31.8219 -0.6426
47.8000 -31.8352 -0.6425
47.8200 -31.8486 -0.6427
47.8400 -31.8619 -0.6400
47.8600 -31.8753 -0.6384
47.8800 -31.8887 -0.6401
47.9000 -31.9020 -0.6377
47.9200 -31.9153 -0.6370
47.9400 -31.9287 -0.6383
47.9600 -31.9420 -0.6361
47.9800 -31.9554 -0.6338
48.0000 -31.9687 -0.6370
48.0200 -31.9820 -0.6336
48.0400 -31.9953 -0.6344
48.0600 -32.0086 -0.6325
48.0800 -32.0220 -0.6314
48.1000 -32.0353 -0.6297
48.1200 -32.0486 -0.6301
48.1400 -32.0619 -0.6275
48.1600 -32.0753 -0.6262
48.1800 -32.0886 -0.6265
48.2000 -32.1020 -0.6253
48.2200 -32.1153 -0.6227
48.2400 -32.1287 -0.6226
48.2600 -32.1421 -0.6219
48.2800 -32.1554 -0.6204
48.3000 -32.1686 -0.6219
48.3200 -32.1820 -0.6189
48.3400 -32.1953 -0.6165
48.3600 -32.2087 -0.6176
48.3800 -32.2220 -0.6151
48.4000 -32.2353 -0.6133
48.4200 -32.2486 -0.6136
48.4400 -32.2620 -0.6108
48.4600 -32.2753 -0.6107
48.4800 -32.2886 -0.6103
48.5000 -32.3019 -0.6087
48.5200 -32.3153 -0.6078
48.5400 -32.3286 -0.6103
48.5600 -32.3420 -0.6072
48.5800 -32.3553 -0.6056
48.6000 -32.3686 -0.6064
48.6200 -32.3820 -0.6052
48.6400 -32.3953 -0.6040
48.6600 -32.4086 -0.6057
48.6800 -32.4220 -0.6021
48.7000 -32.4354 -0.6016
48.7200 -32.4487 -0.6018
48.7400 -32.4620 -0.6022
48.7600 -32.4753 -0.5985
48.7800 -32.4887 -0.5989
48.8000 -32.5020 -0.5968
48.8200 -32.5153 -0.5947
48.8400 -32.5286 -0.5951
48.8600 -32.5419 -0.5928
48.8800 -32.5553 -0.5927
48.9000 -32.5686 -0.5925
48.9200 -32.5819 -0.5938
48.9400 -32.5953 -0.5882
48.9600 -32.6087 -0.5903
48.9800 -32.6220 -0.5894
49.0000 -32.6354 -0.5887
49.0200 -32.6487 -0.5872
49.0400 -32.6620 -0.5875
49.0600 -32.6754 -0.5849
49.0800 -32.6887 -0.5873
49.1000 -32.7020 -0.5857
49.1200 -32.7153 -0.5841
49.1400 -32.7287 -0.5856
49.1600 -32.7420 -0.5843
49.1800 -32.7553 -0.5842
49.2000 -32.7686 -0.5844
49.2200 -32.7819 -0.5836
49.2400 -32.7953 -0.5847
49.2600 -32.8086 -0.5874
49.2800 -32.8219 -0.5880
49.3000 -32.8353 -0.5867
49.3200 -32.8486 -0.5883
49.3400 -32.8620 -0.5861
49.3600 -32.8753 -0.5870
49.3800 -32.8886 -0.5871
49.4000 -32.9020 -0.5870
49.4200 -32.9153 -0.5858
49.4400 -32.9287 -0.5878
49.4600 -32.9420 -0.5869
49.4800 -32.9553 -0.5888
49.5000 -32.9687 -0.5879
49.5200 -32.9820 -0.5894
49.5400 -32.9953 -0.5886
49.5600 -33.0086 -0.5902
49.5800 -33.0219 -0.5897
49.6000 -33.0353 -0.5881
49.6200 -33.0486 -0.5911
49.6400 -33.0619 -0.5884
49.6600 -33.0753 -0.5885
49.6800 -33.0886 -0.5878
49.7000 -33.1020 -0.5875
49.7200 -33.1153 -0.5837
49.7400 -33.1286 -0.5874
49.7600 -33.1419 -0.5838
49.7800 -33.1553 -0.5836
49.8000 -33.1687 -0.5833
49.8200 -33.1820 -0.5843
49.8400 -33.1953 -0.5798
49.8600 -33.2087 -0.5819
49.8800 -33.2220 -0.5801
49.9000 -33.2353 -0.5785
49.9200 -33.2486 -0.5780
49.9400 -33.2619 -0.5781
49.9600 -33.2753 -0.5735
49.9800 -33.2886 -0.5753
50.0000 -33.3019 -0.5736
50.0200 -33.3153 -0.5707
50.0400 -33.3286 -0.5701
50.0600 -33.3420 -0.5707
50.0800 -33.3553 -0.5666
50.1000 -33.3687 -0.5676
50.1200 -33.3820 -0.5669
50.1400 -33.3954 -0.5621
50.1600 -33.4087 -0.5626
50.1800 -33.4220 -0.5607
50.2000 -33.4353 -0.5586
50.2200 -33.4486 -0.5586
50.2400 -33.4619 -0.5564
50.2600 -33.4752 -0.5540
50.2800 -33.4885 -0.5516
50.3000 -33.5019 -0.5520
50.3200 -33.5153 -0.5471
50.3400 -33.5286 -0.5471
50.3600 -33.5420 -0.5469
50.3800 -33.5553 -0.5428
50.4000 -33.5687 -0.5429
50.4200 -33.5821 -0.5392
50.4400 -33.5954 -0.5369
50.4600 -33.6087 -0.5383
50.4800 -33.6220 -0.5389
50.5000 -33.6353 -0.5346
50.5200 -33.6487 -0.5356
50.5400 -33.6620 -0.5341
50.5600 -33.6753 -0.5304
50.5800 -33.6887 -0.5293
50.6000 -33.7020 -0.5294
50.6200 -33.7153 -0.5257
50.6400 -33.7286 -0.5261
50.6600 -33.7419 -0.5264
50.6800 -33.7553 -0.5233
50.7000 -33.7686 -0.5273
50.7200 -33.7820 -0.5270
50.7400 -33.7953 -0.5244
50.7600 -33.8086 -0.5236
50.7800 -33.8220 -0.5234
50.8000 -33.8354 -0.5209
50.8200 -33.8487 -0.5220
50.8400 -33.8620 -0.5204
50.8600 -33.8753 -0.5185
50.8800 -33.8887 -0.5209
50.9000 -33.9020 -0.5217
50.9200 -33.9153 -0.5183
50.9400 -33.9286 -0.5182
50.9600 -33.9420 -0.5191
50.9800 -33.9553 -0.5158
51.0000 -33.9685 -0.5185
51.0200 -33.9818 -0.5171
51.0400 -33.9952 -0.5155
51.0600 -34.0086 -0.5162
51.0800 -34.0219 -0.5176
51.1000 -34.0353 -0.5161
51.1200 -34.0486 -0.5160
51.1400 -34.0620 -0.5179
51.1600 -34.0754 -0.5135
51.1800 -34.0887 -0.5172
51.2000 -34.1020 -0.5169
51.2200 -34.1153 -0.5146
51.2400 -34.1287 -0.5171
51.2600 -34.1420 -0.5160
51.2800 -34.1553 -0.5148
51.3000 -34.1686 -0.5170
51.3200 -34.1820 -0.5185
51.3400 -34.1953 -0.5142
51.3600 -34.2086 -0.5156
51.3800 -34.2219 -0.5146
51.4000 -34.2353 -0.5148
51.4200 -34.2486 -0.5134
51.4400 -34.2620 -0.5161
51.4600 -34.2753 -0.5097
51.4800 -34.2886 -0.5129
51.5000 -34.3020 -0.5107
51.5200 -34.3154 -0.5112
51.5400 -34.3287 -0.5116
51.5600 -34.3420 -0.5123
51.5800 -34.3554 -0.5082
51.6000 -34.3687 -0.5089
51.6200 -34.3821 -0.5062
51.6400 -34.3953 -0.5049
51.6600 -34.4086 -0.5030
51.6800 -34.4220 -0.5032
51.7000 -34.4353 -0.4981
51.7200 -34.4486 -0.5008
51.7400 -34.4619 -0.4982
51.7600 -34.4752 -0.4969
51.7800 -34.4886 -0.4943
51.8000 -34.5020 -0.4945
51.8200 -34.5153 -0.4893
51.8400 -34.5286 -0.4897
51.8600 -34.5420 -0.4913
51.8800 -34.5554 -0.4862
51.9000 -34.5687 -0.4859
51.9200 -34.5820 -0.4836
51.9400 -34.5954 -0.4820
51.9600 -34.6087 -0.4786
51.9800 -34.6220 -0.4812
52.0000 -34.6353 -0.4749
52.0200 -34.6486 -0.4774
52.0400 -34.6620 -0.4748
52.0600 -34.6753 -0.4705
52.0800 -34.6886 -0.4703
52.1000 -34.7019 -0.4719
52.1200 -34.7152 -0.4695
52.1400 -34.7286 -0.4705
52.1600 -34.7419 -0.4685
52.1800 -34.7553 -0.4648
52.2000 -34.7686 -0.4643
52.2200 -34.7820 -0.4643
52.2400 -34.7954 -0.4593
52.2600 -34.8087 -0.4603
52.2800 -34.8220 -0.4615
52.3000 -34.8353 -0.4594
52.3200 -34.8487 -0.4588
52.3400 -34.8620 -0.4576
52.3600 -34.8753 -0.4548
52.3800 -34.8886 -0.4546
52.4000 -34.9020 -0.4545
52.4200 -34.9153 -0.4526
52.4400 -34.9286 -0.4500
52.4600 -34.9419 -0.4527
52.4800 -34.9552 -0.4480
52.5000 -34.9686 -0.4492
52.5200 -34.9820 -0.4475
52.5400 -34.9953 -0.4444
52.5600 -35.0086 -0.4440
52.5800 -35.0220 -0.4456
52.6000 -35.0354 -0.4432
52.6200 -35.0486 -0.4426
52.6400 -35.0619 -0.4423
52.6600 -35.0753 -0.4393
52.6800 -35.0886 -0.4391
52.7000 -35.1020 -0.4367
52.7200 -35.1153 -0.4348
52.7400 -35.1286 -0.4351
52.7600 -35.1420 -0.4371
52.7800 -35.1553 -0.4335
52.8000 -35.1686 -0.4346
52.8200 -35.1819 -0.4350
52.8400 -35.1953 -0.4329
52.8600 -35.2086 -0.4306
52.8800 -35.2219 -0.4311
52.9000 -35.2353 -0.4280
52.9200 -35.2486 -0.4278
52.9400 -35.2620 -0.4286
52.9600 -35.2754 -0.4287
52.9800 -35.2887 -0.4279
53.0000 -35.3020 -0.4285
53.0200 -35.3153 -0.4270
53.0400 -35.3287 -0.4266
53.0600 -35.3420 -0.4276
53.0800 -35.3553 -0.4244
53.1000 -35.3687 -0.4256
53.1200 -35.3820 -0.4264
53.1400 -35.3953 -0.4233
53.1600 -35.4086 -0.4229
53.1800 -35.4219 -0.4240
53.2000 -35.4352 -0.4211
53.2200 -35.4486 -0.4205
53.2400 -35.4620 -0.4200
53.2600 -35.4753 -0.4173
53.2800 -35.4886 -0.4173
53.3000 -35.5020 -0.4186
53.3200 -35.5154 -0.4148
53.3400 -35.5287 -0.4137
53.3600 -35.5420 -0.4142
53.3800 -35.5553 -0.4108
53.4000 -35.5687 -0.4113
53.4200 -35.5820 -0.4105
53.4400 -35.5953 -0.4113
53.4600 -35.6086 -0.4093
53.4800 -35.6220 -0.4092
53.5000 -35.6353 -0.4069
53.5200 -35.6486 -0.4085
53.5400 -35.6619 -0.4100
53.5600 -35.6753 -0.4064
53.5800 -35.6886 -0.4063
53.6000 -35.7020 -0.4050
53.6200 -35.7153 -0.4037
53.6400 -35.7286 -0.4027
53.6600 -35.7419 -0.4014
53.6800 -35.7553 -0.4009
53.7000 -35.7687 -0.4014
53.7200 -35.7820 -0.4032
53.7400 -35.7953 -0.4009
53.7600 -35.8087 -0.4008
53.7800 -35.8220 -0.3982
53.8000 -35.8353 -0.3975
53.8200 -35.8486 -0.3938
53.8400 -35.8620 -0.3972
53.8600 -35.8754 -0.3935
53.8800 -35.8886 -0.3941
53.9000 -35.9019 -0.3930
53.9200 -35.9153 -0.3901
53.9400 -35.9286 -0.3894
53.9600 -35.9420 -0.3915
53.9800 -35.9553 -0.3910
54.0000 -35.9686 -0.3888
54.0200 -35.9820 -0.3868
54.0400 -35.9954 -0.3859
54.0600 -36.0087 -0.3847
54.0800 -36.0220 -0.3846
54.1000 -36.0353 -0.3836
54.1200 -36.0486 -0.3816
54.1400 -36.0620 -0.3801
54.1600 -36.0753 -0.3785
54.1800 -36.0886 -0.3768
54.2000 -36.1020 -0.3762
54.2200 -36.1153 -0.3729
54.2400 -36.1286 -0.3729
54.2600 -36.1419 -0.3708
54.2800 -36.1553 -0.3688
54.3000 -36.1686 -0.3650
54.3200 -36.1820 -0.3642
54.3400 -36.1953 -0.3625
54.3600 -36.2086 -0.3615
54.3800 -36.2220 -0.3603
54.4000 -36.2354 -0.3554
54.4200 -36.2487 -0.3580
54.4400 -36.2620 -0.3580
54.4600 -36.2753 -0.3557
54.4800 -36.2887 -0.3522
54.5000 -36.3020 -0.3506
54.5200 -36.3153 -0.3483
54.5400 -36.3286 -0.3494
54.5600 -36.3419 -0.3452
54.5800 -36.3553 -0.3455
54.6000 -36.3686 -0.3425
54.6200 -36.3819 -0.3440
54.6400 -36.3953 -0.3422
54.6600 -36.4086 -0.3414
54.6800 -36.4220 -0.3399
54.7000 -36.4353 -0.3384
54.7200 -36.4486 -0.3357
54.7400 -36.4620 -0.3371
54.7600 -36.4754 -0.3358
54.7800 -36.4887 -0.3346
54.8000 -36.5020 -0.3345
54.8200 -36.5153 -0.3310
54.8400 -36.5286 -0.3308
54.8600 -36.5420 -0.3301
54.8800 -36.5553 -0.3285
54.9000 -36.5686 -0.3265
54.9200 -36.5820 -0.3269
54.9400 -36.5954 -0.3228
54.9600 -36.6087 -0.3222
54.9800 -36.6220 -0.3234
55.0000 -36.6353 -0.3202
55.0200 -36.6486 -0.3202
55.0400 -36.6619 -0.3178
55.0600 -36.6752 -0.3173
55.0800 -36.6886 -0.3147
55.1000 -36.7019 -0.3143
55.1200 -36.7153 -0.3134
55.1400 -36.7287 -0.3126
55.1600 -36.7420 -0.3134
55.1800 -36.7553 -0.3092
55.2000 -36.7687 -0.3061
55.2200 -36.7821 -0.3047
55.2400 -36.7954 -0.3059
55.2600 -36.8086 -0.3027
55.2800 -36.8220 -0.3044
55.3000 -36.8353 -0.3024
55.3200 -36.8486 -0.3011
55.3400 -36.8619 -0.2989
55.3600 -36.8752 -0.2981
55.3800 -36.8886 -0.2969
55.4000 -36.9020 -0.2973
55.4200 -36.9153 -0.2939
55.4400 -36.9286 -0.2913
55.4600 -36.9420 -0.2929
55.4800 -36.9553 -0.2888
55.5000 -36.9687 -0.2882
55.5200 -36.9820 -0.2879
55.5400 -36.9953 -0.2871
55.5600 -37.0086 -0.2863
55.5800 -37.0220 -0.2852
55.6000 -37.0353 -0.2824
55.6200 -37.0486 -0.2799
55.6400 -37.0620 -0.2806
55.6600 -37.0753 -0.2819
55.6800 -37.0886 -0.2778
55.7000 -37.1019 -0.2771
55.7200 -37.1152 -0.2755
55.7400 -37.1286 -0.2739
55.7600 -37.1420 -0.2735
55.7800 -37.1553 -0.2740
55.8000 -37.1686 -0.2703
55.8200 -37.1820 -0.2718
55.8400 -37.1953 -0.2701
55.8600 -37.2087 -0.2695
55.8800 -37.2220 -0.2681
55.9000 -37.2353 -0.2673
55.9200 -37.2487 -0.2619
55.9400 -37.2620 -0.2625
55.9600 -37.2754 -0.2607
55.9800 -37.2887 -0.2595
56.0000 -37.3020 -0.2592
56.0200 -37.3153 -0.2586
56.0400 -37.3286 -0.2549
56.0600 -37.3419 -0.2542
56.0800 -37.3552 -0.2521
56.1000 -37.3686 -0.2489
56.1200 -37.3820 -0.2491
56.1400 -37.3953 -0.2468
56.1600 -37.4086 -0.2464
56.1800 -37.4220 -0.2442
56.2000 -37.4354 -0.2439
56.2200 -37.4487 -0.2407
56.2400 -37.4620 -0.2424
56.2600 -37.4753 -0.2384
56.2800 -37.4887 -0.2363
56.3000 -37.5020 -0.2341
56.3200 -37.5154 -0.2330
56.3400 -37.5287 -0.2304
56.3600 -37.5420 -0.2309
56.3800 -37.5553 -0.2291
56.4000 -37.5687 -0.2276
56.4200 -37.5819 -0.2276
56.4400 -37.5952 -0.2265
56.4600 -37.6086 -0.2225
56.4800 -37.6220 -0.2226
56.5000 -37.6353 -0.2217
56.5200 -37.6486 -0.2205
56.5400 -37.6619 -0.2218
56.5600 -37.6753 -0.2196
56.5800 -37.6887 -0.2175
56.6000 -37.7020 -0.2172
56.6200 -37.7153 -0.2134
56.6400 -37.7287 -0.2116
56.6600 -37.7420 -0.2105
56.6800 -37.7554 -0.2113
56.7000 -37.7687 -0.2113
56.7200 -37.7820 -0.2092
56.7400 -37.7953 -0.2100
56.7600 -37.8087 -0.2055
56.7800 -37.8220 -0.2058
56.8000 -37.8353 -0.2049
56.8200 -37.8486 -0.2034
56.8400 -37.8619 -0.2020
56.8600 -37.8753 -0.2038
56.8800 -37.8886 -0.1997
56.9000 -37.9019 -0.2021
56.9200 -37.9153 -0.1978
56.9400 -37.9287 -0.1981
56.9600 -37.9420 -0.1946
56.9800 -37.9553 -0.1963
57.0000 -37.9686 -0.1912
57.0200 -37.9820 -0.1928
57.0400 -37.9954 -0.1898
57.0600 -38.0087 -0.1889
57.0800 -38.0220 -0.1871
57.1000 -38.0353 -0.1863
57.1200 -38.0487 -0.1832
57.1400 -38.0619 -0.1825
57.1600 -38.0752 -0.1815
57.1800 -38.0886 -0.1796
57.2000 -38.1020 -0.1777
57.2200 -38.1153 -0.1759
57.2400 -38.1286 -0.1745
57.2600 -38.1419 -0.1703
57.2800 -38.1553 -0.1700
57.3000 -38.1687 -0.1682
57.3200 -38.1820 -0.1681
57.3400 -38.1953 -0.1656
57.3600 -38.2087 -0.1647
57.3800 -38.2220 -0.1627
57.4000 -38.2354 -0.1607
57.4200 -38.2487 -0.1573
57.4400 -38.2619 -0.1567
57.4600 -38.2753 -0.1569
57.4800 -38.2886 -0.1553
57.5000 -38.3019 -0.1527
57.5200 -38.3152 -0.1519
57.5400 -38.3286 -0.1496
57.5600 -38.3420 -0.1480
57.5800 -38.3553 -0.1439
57.6000 -38.3686 -0.1427
57.6200 -38.3820 -0.1417
57.6400 -38.3953 -0.1427
57.6600 -38.4087 -0.1396
57.6800 -38.4220 -0.1402
57.7000 -38.4353 -0.1377
57.7200 -38.4487 -0.1384
57.7400 -38.4620 -0.1338
57.7600 -38.4754 -0.1330
57.7800 -38.4887 -0.1318
57.8000 -38.5020 -0.1293
57.8200 -38.5153 -0.1297
57.8400 -38.5287 -0.1272
57.8600 -38.5420 -0.1269
57.8800 -38.5553 -0.1254
57.9000 -38.5686 -0.1232
57.9200 -38.5820 -0.1211
57.9400 -38.5953 -0.1198
57.9600 -38.6086 -0.1168
57.9800 -38.6219 -0.1176
58.0000 -38.6353 -0.1146
58.0200 -38.6487 -0.1103
58.0400 -38.6620 -0.1086
58.0600 -38.6753 -0.1065
58.0800 -38.6886 -0.1044
58.1000 -38.7020 -0.1011
58.1200 -38.7153 -0.1033
58.1400 -38.7286 -0.1006
58.1600 -38.7420 -0.0978
58.1800 -38.7553 -0.0952
58.2000 -38.7687 -0.0929
58.2200 -38.7820 -0.0922
58.2400 -38.7953 -0.0909
58.2600 -38.8086 -0.0897
58.2800 -38.8219 -0.0879
58.3000 -38.8353 -0.0862
58.3200 -38.8486 -0.0856
58.3400 -38.8620 -0.0844
58.3600 -38.8753 -0.0827
58.3800 -38.8887 -0.0798
58.4000 -38.9020 -0.0769
58.4200 -38.9153 -0.0763
58.4400 -38.9286 -0.0745
58.4600 -38.9420 -0.0728
58.4800 -38.9553 -0.0720
58.5000 -38.9686 -0.0726
58.5200 -38.9820 -0.0716
58.5400 -38.9953 -0.0691
58.5600 -39.0086 -0.0679
58.5800 -39.0219 -0.0637
58.6000 -39.0352 -0.0635
58.6200 -39.0486 -0.0581
58.6400 -39.0620 -0.0566
58.6600 -39.0753 -0.0541
58.6800 -39.0886 -0.0539
58.7000 -39.1020 -0.0493
58.7200 -39.1153 -0.0518
58.7400 -39.1287 -0.0466
58.7600 -39.1420 -0.0467
58.7800 -39.1553 -0.0443
58.8000 -39.1686 -0.0440
58.8200 -39.1820 -0.0421
58.8400 -39.1954 -0.0404
58.8600 -39.2087 -0.0398
58.8800 -39.2220 -0.0379
58.9000 -39.2353 -0.0377
58.9200 -39.2486 -0.0326
58.9400 -39.2619 -0.0327
58.9600 -39.2752 -0.0314
58.9800 -39.2885 -0.0292
59.0000 -39.3019 -0.0281
59.0200 -39.3153 -0.0283
59.0400 -39.3286 -0.0248
59.0600 -39.3419 -0.0229
59.0800 -39.3553 -0.0223
59.1000 -39.3687 -0.0207
59.1200 -39.3820 -0.0173
59.1400 -39.3953 -0.0154
59.1600 -39.4087 -0.0126
59.1800 -39.4220 -0.0120
59.2000 -39.4354 -0.0074
59.2200 -39.4487 -0.0072
59.2400 -39.4620 -0.0039
59.2600 -39.4753 -0.0027
59.2800 -39.4886 0.0019
59.3000 -39.5019 0.0017
59.3200 -39.5152 0.0066
59.3400 -39.5285 0.0077
59.3600 -39.5419 0.0107
59.3800 -39.5553 0.0103
59.4000 -39.5686 0.0135
59.4200 -39.5819 0.0122
59.4400 -39.5953 0.0144
59.4600 -39.6087 0.0161
59.4800 -39.6220 0.0194
59.5000 -39.6353 0.0227
59.5200 -39.6487 0.0244
59.5400 -39.6620 0.0266
59.5600 -39.6754 0.0265
59.5800 -39.6887 0.0269
59.6000 -39.7020 0.0296
59.6200 -39.7153 0.0324
59.6400 -39.7286 0.0348
59.6600 -39.7420 0.0386
59.6800 -39.7552 0.0402
59.7000 -39.7686 0.0411
59.7200 -39.7819 0.0444
59.7400 -39.7953 0.0461
59.7600 -39.8086 0.0464
59.7800 -39.8220 0.0489
59.8000 -39.8353 0.0520
59.8200 -39.8487 0.0545
59.8400 -39.8620 0.0580
59.8600 -39.8753 0.0602
59.8800 -39.8886 0.0629
59.9000 -39.9020 0.0639
59.9200 -39.9153 0.0666
59.9400 -39.9287 0.0683
59.9600 -39.9420 0.0693
59.9800 -39.9553 0.0700
60.0000 -39.9687 0.0706
60.0200 -39.9820 0.0733
60.0400 -39.9953 0.0741
60.0480 -40.0005 0.0787
