Raw Data
Time Displacement Force
(s) (mm) (N)
0.0000 -0.0001 -0.3359
0.0200 -0.0002 -0.3383
0.0400 -0.0021 -0.3532
0.0600 -0.0097 -0.3522
0.0800 -0.0216 -0.3368
0.1000 -0.0343 -0.3389
0.1200 -0.0470 -0.3380
0.1400 -0.0604 -0.3411
0.1600 -0.0744 -0.3371
0.1800 -0.0885 -0.3423
0.2000 -0.1023 -0.3354
0.2200 -0.1159 -0.3390
0.2400 -0.1292 -0.3377
0.2600 -0.1426 -0.3391
0.2800 -0.1558 -0.3369
0.3000 -0.1692 -0.3391
0.3200 -0.1825 -0.3365
0.3400 -0.1959 -0.3336
0.3600 -0.2092 -0.3376
0.3800 -0.2225 -0.3332
0.4000 -0.2358 -0.3344
0.4200 -0.2492 -0.3322
0.4400 -0.2626 -0.3343
0.4600 -0.2759 -0.3296
0.4800 -0.2892 -0.3354
0.5000 -0.3026 -0.3303
0.5200 -0.3160 -0.3317
0.5400 -0.3293 -0.3331
0.5600 -0.3426 -0.3305
0.5800 -0.3559 -0.3290
0.6000 -0.3693 -0.3295
0.6200 -0.3827 -0.3278
0.6400 -0.3960 -0.3256
0.6600 -0.4093 -0.3275
0.6800 -0.4226 -0.3241
0.7000 -0.4359 -0.3244
0.7200 -0.4492 -0.3275
0.7400 -0.4625 -0.3251
0.7600 -0.4758 -0.3227
0.7800 -0.4892 -0.3243
0.8000 -0.5026 -0.3238
0.8200 -0.5159 -0.3211
0.8400 -0.5292 -0.3229
0.8600 -0.5426 -0.3194
0.8800 -0.5560 -0.3184
0.9000 -0.5693 -0.3187
0.9200 -0.5826 -0.3185
0.9400 -0.5959 -0.3162
0.9600 -0.6093 -0.3187
0.9800 -0.6226 -0.3146
1.0000 -0.6360 -0.3142
1.0200 -0.6493 -0.3159
1.0400 -0.6626 -0.3128
1.0600 -0.6759 -0.3121
1.0800 -0.6892 -0.3114
1.1000 -0.7025 -0.3114
1.1200 -0.7158 -0.3091
1.1400 -0.7292 -0.3101
1.1600 -0.7426 -0.3091
1.1800 -0.7559 -0.3072
1.2000 -0.7692 -0.3088
1.2200 -0.7826 -0.3090
1.2400 -0.7960 -0.3072
1.2600 -0.8093 -0.3077
1.2800 -0.8226 -0.3060
1.3000 -0.8360 -0.3044
1.3200 -0.8493 -0.3030
1.3400 -0.8627 -0.3019
1.3600 -0.8760 -0.3025
1.3800 -0.8893 -0.3034
1.4000 -0.9026 -0.3028
1.4200 -0.9159 -0.2994
1.4400 -0.9292 -0.3008
1.4600 -0.9425 -0.2984
1.4800 -0.9558 -0.2969
1.5000 -0.9692 -0.2996
1.5200 -0.9825 -0.2980
1.5400 -0.9959 -0.2967
1.5600 -1.0092 -0.2968
1.5800 -1.0226 -0.2951
1.6000 -1.0360 -0.2933
1.6200 -1.0494 -0.2947
1.6400 -1.0627 -0.2939
1.6600 -1.0760 -0.2930
1.6800 -1.0893 -0.2928
1.7000 -1.1027 -0.2907
1.7200 -1.1160 -0.2893
1.7400 -1.1293 -0.2910
1.7600 -1.1426 -0.2900
1.7800 -1.1559 -0.2886
1.8000 -1.1692 -0.2902
1.8200 -1.1825 -0.2859
1.8400 -1.1959 -0.2862
1.8600 -1.2092 -0.2858
1.8800 -1.2226 -0.2862
1.9000 -1.2359 -0.2847
1.9200 -1.2493 -0.2852
1.9400 -1.2626 -0.2845
1.9600 -1.2760 -0.2834
1.9800 -1.2893 -0.2830
2.0000 -1.3026 -0.2832
2.0200 -1.3159 -0.2813
2.0400 -1.3292 -0.2812
2.0600 -1.3426 -0.2814
2.0800 -1.3560 -0.2809
2.1000 -1.3693 -0.2820
2.1200 -1.3826 -0.2805
2.1400 -1.3960 -0.2780
2.1600 -1.4093 -0.2803
2.1800 -1.4226 -0.2804
2.2000 -1.4359 -0.2767
2.2200 -1.4492 -0.2775
2.2400 -1.4626 -0.2762
2.2600 -1.4759 -0.2742
2.2800 -1.4892 -0.2770
2.3000 -1.5026 -0.2748
2.3200 -1.5160 -0.2742
2.3400 -1.5294 -0.2755
2.3600 -1.5427 -0.2760
2.3800 -1.5560 -0.2732
2.4000 -1.5693 -0.2723
2.4200 -1.5827 -0.2721
2.4400 -1.5960 -0.2690
2.4600 -1.6093 -0.2720
2.4800 -1.6226 -0.2689
2.5000 -1.6359 -0.2688
2.5200 -1.6493 -0.2691
2.5400 -1.6625 -0.2697
2.5600 -1.6759 -0.2670
2.5800 -1.6892 -0.2696
2.6000 -1.7026 -0.2669
2.6200 -1.7159 -0.2649
2.6400 -1.7292 -0.2658
2.6600 -1.7426 -0.2648
2.6800 -1.7560 -0.2629
2.7000 -1.7693 -0.2661
2.7200 -1.7826 -0.2670
2.7400 -1.7959 -0.2612
2.7600 -1.8093 -0.2629
2.7800 -1.8226 -0.2615
2.8000 -1.8360 -0.2607
2.8200 -1.8493 -0.2604
2.8400 -1.8626 -0.2609
2.8600 -1.8759 -0.2598
2.8800 -1.8893 -0.2568
2.9000 -1.9026 -0.2561
2.9200 -1.9158 -0.2557
2.9400 -1.9292 -0.2573
2.9600 -1.9426 -0.2571
2.9800 -1.9559 -0.2554
3.0000 -1.9693 -0.2552
3.0200 -1.9826 -0.2551
3.0400 -1.9959 -0.2533
3.0600 -2.0093 -0.2545
3.0800 -2.0226 -0.2535
3.1000 -2.0359 -0.2511
3.1200 -2.0493 -0.2539
3.1400 -2.0626 -0.2524
3.1600 -2.0760 -0.2512
3.1800 -2.0893 -0.2513
3.2000 -2.1026 -0.2515
3.2200 -2.1160 -0.2474
3.2400 -2.1293 -0.2494
3.2600 -2.1426 -0.2490
3.2800 -2.1559 -0.2484
3.3000 -2.1692 -0.2485
3.3200 -2.1826 -0.2489
3.3400 -2.1959 -0.2454
3.3600 -2.2092 -0.2472
3.3800 -2.2226 -0.2469
3.4000 -2.2360 -0.2439
3.4200 -2.2493 -0.2454
3.4400 -2.2626 -0.2420
3.4600 -2.2759 -0.2415
3.4800 -2.2893 -0.2407
3.5000 -2.3026 -0.2441
3.5200 -2.3160 -0.2379
3.5400 -2.3293 -0.2418
3.5600 -2.3426 -0.2396
3.5800 -2.3559 -0.2387
3.6000 -2.3693 -0.2380
3.6200 -2.3826 -0.2394
3.6400 -2.3959 -0.2358
3.6600 -2.4092 -0.2342
3.6800 -2.4226 -0.2328
3.7000 -2.4359 -0.2298
3.7200 -2.4493 -0.2290
3.7400 -2.4626 -0.2271
3.7600 -2.4760 -0.2225
3.7800 -2.4893 -0.2214
3.8000 -2.5027 -0.2230
3.8200 -2.5159 -0.2210
3.8400 -2.5293 -0.2232
3.8600 -2.5426 -0.2233
3.8800 -2.5560 -0.2212
3.9000 -2.5693 -0.2224
3.9200 -2.5826 -0.2235
3.9400 -2.5959 -0.2226
3.9600 -2.6093 -0.2211
3.9800 -2.6226 -0.2206
4.0000 -2.6359 -0.2209
4.0200 -2.6492 -0.2205
4.0400 -2.6626 -0.2239
4.0600 -2.6760 -0.2210
4.0800 -2.6893 -0.2205
4.1000 -2.7026 -0.2237
4.1200 -2.7159 -0.2202
4.1400 -2.7293 -0.2199
4.1600 -2.7426 -0.2211
4.1800 -2.7559 -0.2175
4.2000 -2.7693 -0.2188
4.2200 -2.7826 -0.2197
4.2400 -2.7960 -0.2176
4.2600 -2.8093 -0.2176
4.2800 -2.8226 -0.2187
4.3000 -2.8360 -0.2149
4.3200 -2.8493 -0.2161
4.3400 -2.8626 -0.2161
4.3600 -2.8759 -0.2163
4.3800 -2.8892 -0.2161
4.4000 -2.9025 -0.2161
4.4200 -2.9159 -0.2129
4.4400 -2.9292 -0.2150
4.4600 -2.9425 -0.2156
4.4800 -2.9559 -0.2125
4.5000 -2.9693 -0.2103
4.5200 -2.9826 -0.2115
4.5400 -2.9960 -0.2111
4.5600 -3.0093 -0.2114
4.5800 -3.0227 -0.2124
4.6000 -3.0360 -0.2108
4.6200 -3.0493 -0.2098
4.6400 -3.0626 -0.2089
4.6600 -3.0759 -0.2077
4.6800 -3.0893 -0.2089
4.7000 -3.1026 -0.2106
4.7200 -3.1159 -0.2069
4.7400 -3.1292 -0.2081
4.7600 -3.1426 -0.2046
4.7800 -3.1560 -0.2047
4.8000 -3.1693 -0.2067
4.8200 -3.1826 -0.2069
4.8400 -3.1960 -0.2051
4.8600 -3.2093 -0.2050
4.8800 -3.2227 -0.2057
4.9000 -3.2359 -0.2054
4.9200 -3.2493 -0.2058
4.9400 -3.2626 -0.2059
4.9600 -3.2760 -0.2021
4.9800 -3.2893 -0.2031
5.0000 -3.3026 -0.2051
5.0200 -3.3159 -0.2013
5.0400 -3.3293 -0.2015
5.0600 -3.3426 -0.2012
5.0800 -3.3559 -0.2021
5.1000 -3.3692 -0.2011
5.1200 -3.3826 -0.2021
5.1400 -3.3959 -0.1992
5.1600 -3.4092 -0.2001
5.1800 -3.4226 -0.2007
5.2000 -3.4359 -0.1979
5.2200 -3.4493 -0.1981
5.2400 -3.4626 -0.1988
5.2600 -3.4760 -0.1969
5.2800 -3.4893 -0.1976
5.3000 -3.5027 -0.1973
5.3200 -3.5160 -0.1954
5.3400 -3.5293 -0.1957
5.3600 -3.5426 -0.1973
5.3800 -3.5559 -0.1935
5.4000 -3.5693 -0.1919
5.4200 -3.5826 -0.1938
5.4400 -3.5959 -0.1930
5.4600 -3.6092 -0.1927
5.4800 -3.6225 -0.1919
5.5000 -3.6359 -0.1900
5.5200 -3.6492 -0.1887
5.5400 -3.6625 -0.1898
5.5600 -3.6759 -0.1877
5.5800 -3.6893 -0.1893
5.6000 -3.7027 -0.1885
5.6200 -3.7160 -0.1898
5.6400 -3.7293 -0.1867
5.6600 -3.7427 -0.1903
5.6800 -3.7560 -0.1851
5.7000 -3.7693 -0.1856
5.7200 -3.7826 -0.1867
5.7400 -3.7959 -0.1858
5.7600 -3.8093 -0.1860
5.7800 -3.8226 -0.1865
5.8000 -3.8359 -0.1825
5.8200 -3.8492 -0.1837
5.8400 -3.8626 -0.1854
5.8600 -3.8759 -0.1844
5.8800 -3.8892 -0.1812
5.9000 -3.9026 -0.1837
5.9200 -3.9159 -0.1789
5.9400 -3.9293 -0.1819
5.9600 -3.9426 -0.1794
5.9800 -3.9560 -0.1790
6.0000 -3.9693 -0.1774
6.0200 -3.9826 -0.1802
6.0400 -3.9960 -0.1781
6.0600 -4.0093 -0.1793
6.0800 -4.0226 -0.1785
6.1000 -4.0360 -0.1772
6.1200 -4.0493 -0.1757
6.1400 -4.0626 -0.1747
6.1600 -4.0759 -0.1776
6.1800 -4.0892 -0.1739
6.2000 -4.1026 -0.1741
6.2200 -4.1159 -0.1739
6.2400 -4.1292 -0.1745
6.2600 -4.1425 -0.1725
6.2800 -4.1559 -0.1732
6.3000 -4.1693 -0.1735
6.3200 -4.1826 -0.1736
6.3400 -4.1959 -0.1713
6.3600 -4.2093 -0.1730
6.3800 -4.2226 -0.1721
6.4000 -4.2360 -0.1703
6.4200 -4.2493 -0.1686
6.4400 -4.2626 -0.1695
6.4600 -4.2760 -0.1707
6.4800 -4.2893 -0.1701
6.5000 -4.3026 -0.1709
6.5200 -4.3159 -0.1689
6.5400 -4.3292 -0.1682
6.5600 -4.3425 -0.1686
6.5800 -4.3559 -0.1665
6.6000 -4.3692 -0.1656
6.6200 -4.3826 -0.1665
6.6400 -4.3959 -0.1663
6.6600 -4.4093 -0.1637
6.6800 -4.4227 -0.1647
6.7000 -4.4360 -0.1646
6.7200 -4.4493 -0.1637
6.7400 -4.4626 -0.1628
6.7600 -4.4760 -0.1637
6.7800 -4.4893 -0.1613
6.8000 -4.5026 -0.1628
6.8200 -4.5159 -0.1621
6.8400 -4.5292 -0.1620
6.8600 -4.5426 -0.1604
6.8800 -4.5558 -0.1600
6.9000 -4.5692 -0.1604
6.9200 -4.5825 -0.1573
6.9400 -4.5959 -0.1591
6.9600 -4.6093 -0.1570
6.9800 -4.6226 -0.1572
7.0000 -4.6359 -0.1569
7.0200 -4.6493 -0.1573
7.0400 -4.6627 -0.1568
7.0600 -4.6760 -0.1561
7.0800 -4.6893 -0.1530
7.1000 -4.7026 -0.1546
7.1200 -4.7160 -0.1545
7.1400 -4.7293 -0.1544
7.1600 -4.7426 -0.1552
7.1800 -4.7560 -0.1538
7.2000 -4.7693 -0.1531
7.2200 -4.7826 -0.1528
7.2400 -4.7959 -0.1551
7.2600 -4.8092 -0.1519
7.2800 -4.8226 -0.1545
7.3000 -4.8359 -0.1519
7.3200 -4.8492 -0.1531
7.3400 -4.8626 -0.1521
7.3600 -4.8759 -0.1523
7.3800 -4.8893 -0.1511
7.4000 -4.9027 -0.1517
7.4200 -4.9160 -0.1500
7.4400 -4.9293 -0.1507
7.4600 -4.9426 -0.1475
7.4800 -4.9560 -0.1467
7.5000 -4.9693 -0.1473
7.5200 -4.9826 -0.1500
7.5400 -4.9959 -0.1491
7.5600 -5.0093 -0.1481
7.5800 -5.0226 -0.1483
7.6000 -5.0359 -0.1453
7.6200 -5.0492 -0.1460
7.6400 -5.0625 -0.1467
7.6600 -5.0759 -0.1462
7.6800 -5.0893 -0.1448
7.7000 -5.1026 -0.1458
7.7200 -5.1159 -0.1424
7.7400 -5.1293 -0.1437
7.7600 -5.1427 -0.1433
7.7800 -5.1560 -0.1455
7.8000 -5.1693 -0.1413
7.8200 -5.1826 -0.1435
7.8400 -5.1960 -0.1417
7.8600 -5.2093 -0.1405
7.8800 -5.2226 -0.1396
7.9000 -5.2359 -0.1403
7.9200 -5.2493 -0.1376
7.9400 -5.2626 -0.1385
7.9600 -5.2759 -0.1390
7.9800 -5.2892 -0.1387
8.0000 -5.3026 -0.1351
8.0200 -5.3159 -0.1380
8.0400 -5.3293 -0.1351
8.0600 -5.3426 -0.1377
8.0800 -5.3559 -0.1359
8.1000 -5.3693 -0.1357
8.1200 -5.3827 -0.1341
8.1400 -5.3960 -0.1333
8.1600 -5.4093 -0.1318
8.1800 -5.4226 -0.1349
8.2000 -5.4360 -0.1333
8.2200 -5.4493 -0.1336
8.2400 -5.4626 -0.1325
8.2600 -5.4759 -0.1326
8.2800 -5.4893 -0.1304
8.3000 -5.5026 -0.1300
8.3200 -5.5159 -0.1315
8.3400 -5.5292 -0.1304
8.3600 -5.5425 -0.1291
8.3800 -5.5559 -0.1290
8.4000 -5.5693 -0.1290
8.4200 -5.5826 -0.1263
8.4400 -5.5959 -0.1300
8.4600 -5.6093 -0.1274
8.4800 -5.6227 -0.1273
8.5000 -5.6360 -0.1259
8.5200 -5.6493 -0.1257
8.5400 -5.6626 -0.1252
8.5600 -5.6760 -0.1262
8.5800 -5.6893 -0.1256
8.6000 -5.7026 -0.1259
8.6200 -5.7159 -0.1253
8.6400 -5.7293 -0.1264
8.6600 -5.7426 -0.1253
8.6800 -5.7559 -0.1224
8.7000 -5.7691 -0.1246
8.7200 -5.7825 -0.1239
8.7400 -5.7959 -0.1234
8.7600 -5.8093 -0.1222
8.7800 -5.8226 -0.1244
8.8000 -5.8359 -0.1251
8.8200 -5.8493 -0.1247
8.8400 -5.8627 -0.1221
8.8600 -5.8760 -0.1233
8.8800 -5.8893 -0.1238
8.9000 -5.9026 -0.1217
8.9200 -5.9160 -0.1221
8.9400 -5.9293 -0.1185
8.9600 -5.9426 -0.1214
8.9800 -5.9559 -0.1191
9.0000 -5.9693 -0.1183
9.0200 -5.9826 -0.1185
9.0400 -5.9959 -0.1183
9.0600 -6.0092 -0.1174
9.0800 -6.0225 -0.1176
9.1000 -6.0359 -0.1194
9.1200 -6.0493 -0.1178
9.1400 -6.0626 -0.1175
9.1600 -6.0759 -0.1168
9.1800 -6.0893 -0.1164
9.2000 -6.1027 -0.1143
9.2200 -6.1160 -0.1162
9.2400 -6.1292 -0.1140
9.2600 -6.1426 -0.1140
9.2800 -6.1559 -0.1128
9.3000 -6.1693 -0.1117
9.3200 -6.1826 -0.1126
9.3400 -6.1959 -0.1127
9.3600 -6.2093 -0.1110
9.3800 -6.2226 -0.1093
9.4000 -6.2359 -0.1106
9.4200 -6.2492 -0.1098
9.4400 -6.2625 -0.1111
9.4600 -6.2759 -0.1102
9.4800 -6.2892 -0.1090
9.5000 -6.3026 -0.1083
9.5200 -6.3159 -0.1098
9.5400 -6.3293 -0.1073
9.5600 -6.3427 -0.1096
9.5800 -6.3560 -0.1065
9.6000 -6.3693 -0.1095
9.6200 -6.3826 -0.1064
9.6400 -6.3960 -0.1091
9.6600 -6.4093 -0.1056
9.6800 -6.4226 -0.1061
9.7000 -6.4359 -0.1043
9.7200 -6.4493 -0.1031
9.7400 -6.4626 -0.1039
9.7600 -6.4759 -0.1045
9.7800 -6.4892 -0.1033
9.8000 -6.5025 -0.1026
9.8200 -6.5159 -0.1037
9.8400 -6.5293 -0.1030
9.8600 -6.5426 -0.1045
9.8800 -6.5559 -0.1012
9.9000 -6.5693 -0.1005
9.9200 -6.5826 -0.0991
9.9400 -6.5960 -0.1011
9.9600 -6.6093 -0.1015
9.9800 -6.6226 -0.0997
10.0000 -6.6360 -0.0986
10.0200 -6.6493 -0.0991
10.0400 -6.6626 -0.0985
10.0600 -6.6759 -0.0995
10.0800 -6.6893 -0.0970
10.1000 -6.7026 -0.0973
10.1200 -6.7160 -0.0969
10.1400 -6.7292 -0.0980
10.1600 -6.7425 -0.0974
10.1800 -6.7559 -0.0967
10.2000 -6.7693 -0.0941
10.2200 -6.7826 -0.0939
10.2400 -6.7959 -0.0936
10.2600 -6.8092 -0.0949
10.2800 -6.8226 -0.0943
10.3000 -6.8360 -0.0945
10.3200 -6.8493 -0.0932
10.3400 -6.8626 -0.0921
10.3600 -6.8759 -0.0907
10.3800 -6.8893 -0.0912
10.4000 -6.9026 -0.0912
10.4200 -6.9160 -0.0900
10.4400 -6.9293 -0.0920
10.4600 -6.9427 -0.0895
10.4800 -6.9560 -0.0899
10.5000 -6.9692 -0.0883
10.5200 -6.9825 -0.0871
10.5400 -6.9959 -0.0885
10.5600 -7.0093 -0.0882
10.5800 -7.0226 -0.0878
10.6000 -7.0359 -0.0877
10.6200 -7.0493 -0.0864
10.6400 -7.0627 -0.0854
10.6600 -7.0760 -0.0836
10.6800 -7.0893 -0.0843
10.7000 -7.1026 -0.0828
10.7200 -7.1159 -0.0831
10.7400 -7.1293 -0.0826
10.7600 -7.1426 -0.0817
10.7800 -7.1559 -0.0803
10.8000 -7.1693 -0.0796
10.8200 -7.1826 -0.0782
10.8400 -7.1959 -0.0791
10.8600 -7.2092 -0.0797
10.8800 -7.2225 -0.0788
10.9000 -7.2359 -0.0777
10.9200 -7.2493 -0.0774
10.9400 -7.2626 -0.0785
10.9600 -7.2759 -0.0769
10.9800 -7.2893 -0.0786
11.0000 -7.3026 -0.0795
11.0200 -7.3160 -0.0771
11.0400 -7.3293 -0.0778
11.0600 -7.3426 -0.0776
11.0800 -7.3559 -0.0775
11.1000 -7.3693 -0.0758
11.1200 -7.3826 -0.0753
11.1400 -7.3959 -0.0761
11.1600 -7.4092 -0.0765
11.1800 -7.4226 -0.0761
11.2000 -7.4359 -0.0747
11.2200 -7.4492 -0.0767
11.2400 -7.4625 -0.0732
11.2600 -7.4759 -0.0738
11.2800 -7.4893 -0.0742
11.3000 -7.5026 -0.0748
11.3200 -7.5159 -0.0743
11.3400 -7.5293 -0.0752
11.3600 -7.5426 -0.0728
11.3800 -7.5560 -0.0726
11.4000 -7.5693 -0.0737
11.4200 -7.5826 -0.0727
11.4400 -7.5959 -0.0730
11.4600 -7.6093 -0.0730
11.4800 -7.6227 -0.0731
11.5000 -7.6360 -0.0729
11.5200 -7.6493 -0.0734
11.5400 -7.6627 -0.0707
11.5600 -7.6760 -0.0707
11.5800 -7.6893 -0.0705
11.6000 -7.7026 -0.0705
11.6200 -7.7159 -0.0703
11.6400 -7.7292 -0.0687
11.6600 -7.7425 -0.0681
11.6800 -7.7559 -0.0681
11.7000 -7.7692 -0.0682
11.7200 -7.7826 -0.0686
11.7400 -7.7960 -0.0655
11.7600 -7.8093 -0.0682
11.7800 -7.8226 -0.0653
11.8000 -7.8360 -0.0655
11.8200 -7.8494 -0.0658
11.8400 -7.8627 -0.0661
11.8600 -7.8760 -0.0661
11.8800 -7.8893 -0.0650
11.9000 -7.9026 -0.0612
11.9200 -7.9159 -0.0606
11.9400 -7.9292 -0.0624
11.9600 -7.9425 -0.0633
11.9800 -7.9559 -0.0611
12.0000 -7.9693 -0.0626
12.0200 -7.9826 -0.0621
12.0400 -7.9959 -0.0617
12.0600 -8.0093 -0.0617
12.0800 -8.0226 -0.0609
12.1000 -8.0360 -0.0580
12.1200 -8.0493 -0.0594
12.1400 -8.0626 -0.0588
12.1600 -8.0759 -0.0567
12.1800 -8.0893 -0.0571
12.2000 -8.1026 -0.0553
12.2200 -8.1159 -0.0567
12.2400 -8.1293 -0.0556
12.2600 -8.1426 -0.0569
12.2800 -8.1560 -0.0563
12.3000 -8.1692 -0.0567
12.3200 -8.1826 -0.0548
12.3400 -8.1959 -0.0547
12.3600 -8.2093 -0.0558
12.3800 -8.2226 -0.0569
12.4000 -8.2359 -0.0527
12.4200 -8.2492 -0.0554
12.4400 -8.2626 -0.0535
12.4600 -8.2760 -0.0525
12.4800 -8.2893 -0.0515
12.5000 -8.3026 -0.0514
12.5200 -8.3160 -0.0506
12.5400 -8.3293 -0.0505
12.5600 -8.3427 -0.0495
12.5800 -8.3560 -0.0489
12.6000 -8.3693 -0.0514
12.6200 -8.3826 -0.0472
12.6400 -8.3959 -0.0490
12.6600 -8.4092 -0.0502
12.6800 -8.4225 -0.0494
12.7000 -8.4359 -0.0483
12.7200 -8.4492 -0.0492
12.7400 -8.4626 -0.0489
12.7600 -8.4759 -0.0501
12.7800 -8.4892 -0.0505
12.8000 -8.5026 -0.0498
12.8200 -8.5160 -0.0465
12.8400 -8.5293 -0.0503
12.8600 -8.5426 -0.0485
12.8800 -8.5559 -0.0466
12.9000 -8.5693 -0.0466
12.9200 -8.5827 -0.0457
12.9400 -8.5960 -0.0465
12.9600 -8.6093 -0.0477
12.9800 -8.6226 -0.0453
13.0000 -8.6360 -0.0420
13.0200 -8.6493 -0.0435
13.0400 -8.6626 -0.0445
13.0600 -8.6759 -0.0448
13.0800 -8.6893 -0.0440
13.1000 -8.7026 -0.0422
13.1200 -8.7159 -0.0420
13.1400 -8.7292 -0.0440
13.1600 -8.7426 -0.0412
13.1800 -8.7560 -0.0419
13.2000 -8.7693 -0.0408
13.2200 -8.7826 -0.0422
13.2400 -8.7960 -0.0399
13.2600 -8.8093 -0.0416
13.2800 -8.8227 -0.0396
13.3000 -8.8360 -0.0394
13.3200 -8.8493 -0.0394
13.3400 -8.8627 -0.0399
13.3600 -8.8760 -0.0363
13.3800 -8.8893 -0.0394
13.4000 -8.9026 -0.0375
13.4200 -8.9159 -0.0357
13.4400 -8.9293 -0.0375
13.4600 -8.9426 -0.0349
13.4800 -8.9559 -0.0355
13.5000 -8.9692 -0.0355
13.5200 -8.9826 -0.0363
13.5400 -8.9960 -0.0353
13.5600 -9.0093 -0.0357
13.5800 -9.0226 -0.0348
13.6000 -9.0359 -0.0349
13.6200 -9.0493 -0.0343
13.6400 -9.0627 -0.0344
13.6600 -9.0760 -0.0337
13.6800 -9.0893 -0.0355
13.7000 -9.1026 -0.0348
13.7200 -9.1160 -0.0345
13.7400 -9.1293 -0.0347
13.7600 -9.1426 -0.0347
13.7800 -9.1559 -0.0337
13.8000 -9.1692 -0.0325
13.8200 -9.1826 -0.0310
13.8400 -9.1959 -0.0310
13.8600 -9.2092 -0.0314
13.8800 -9.2226 -0.0311
13.9000 -9.2360 -0.0276
13.9200 -9.2493 -0.0297
13.9400 -9.2626 -0.0294
13.9600 -9.2760 -0.0292
13.9800 -9.2893 -0.0295
14.0000 -9.3027 -0.0288
14.0200 -9.3160 -0.0267
14.0400 -9.3293 -0.0288
14.0600 -9.3426 -0.0278
14.0800 -9.3559 -0.0273
14.1000 -9.3692 -0.0258
14.1200 -9.3825 -0.0264
14.1400 -9.3959 -0.0233
14.1600 -9.4092 -0.0243
14.1800 -9.4226 -0.0235
14.2000 -9.4359 -0.0215
14.2200 -9.4492 -0.0239
14.2400 -9.4626 -0.0216
14.2600 -9.4760 -0.0202
14.2800 -9.4893 -0.0202
14.3000 -9.5026 -0.0216
14.3200 -9.5159 -0.0208
14.3400 -9.5293 -0.0226
14.3600 -9.5427 -0.0221
14.3800 -9.5560 -0.0219
14.4000 -9.5693 -0.0189
14.4200 -9.5826 -0.0204
14.4400 -9.5960 -0.0183
14.4600 -9.6093 -0.0184
14.4800 -9.6226 -0.0176
14.5000 -9.6359 -0.0165
14.5200 -9.6492 -0.0166
14.5400 -9.6626 -0.0167
14.5600 -9.6759 -0.0139
14.5800 -9.6892 -0.0150
14.6000 -9.7026 -0.0138
14.6200 -9.7160 -0.0133
14.6400 -9.7293 -0.0131
14.6600 -9.7426 -0.0139
14.6800 -9.7559 -0.0123
14.7000 -9.7693 -0.0130
14.7200 -9.7826 -0.0123
14.7400 -9.7960 -0.0112
14.7600 -9.8093 -0.0114
14.7800 -9.8226 -0.0105
14.8000 -9.8359 -0.0096
14.8200 -9.8493 -0.0102
14.8400 -9.8625 -0.0089
14.8600 -9.8759 -0.0077
14.8800 -9.8892 -0.0087
14.9000 -9.9026 -0.0074
14.9200 -9.9159 -0.0082
14.9400 -9.9293 -0.0077
14.9600 -9.9426 -0.0082
14.9800 -9.9560 -0.0062
15.0000 -9.9693 -0.0066
15.0200 -9.9826 -0.0087
15.0400 -9.9959 -0.0075
15.0600 -10.0093 -0.0075
15.0800 -10.0226 -0.0046
15.1000 -10.0360 -0.0036
15.1200 -10.0493 -0.0045
15.1400 -10.0626 -0.0048
15.1600 -10.0759 -0.0046
15.1800 -10.0892 -0.0051
15.2000 -10.1025 -0.0072
15.2200 -10.1159 -0.0060
15.2400 -10.1292 -0.0067
15.2600 -10.1426 -0.0058
15.2800 -10.1560 -0.0028
15.3000 -10.1693 -0.0012
15.3200 -10.1826 -0.0021
15.3400 -10.1960 -0.0006
15.3600 -10.2093 -0.0024
15.3800 -10.2226 -0.0041
15.4000 -10.2360 -0.0014
15.4200 -10.2493 -0.0029
15.4400 -10.2627 -0.0012
15.4600 -10.2760 0.0006
15.4800 -10.2893 0.0009
15.5000 -10.3026 -0.0022
15.5200 -10.3159 0.0013
15.5400 -10.3293 0.0010
15.5600 -10.3425 0.0007
15.5800 -10.3558 0.0016
15.6000 -10.3692 0.0015
15.6200 -10.3826 0.0005
15.6400 -10.3959 0.0025
15.6600 -10.4092 0.0020
15.6800 -10.4226 0.0028
15.7000 -10.4360 0.0057
15.7200 -10.4494 0.0068
15.7400 -10.4627 0.0034
15.7600 -10.4760 0.0046
15.7800 -10.4893 0.0071
15.8000 -10.5027 0.0048
15.8200 -10.5160 0.0072
15.8400 -10.5293 0.0063
15.8600 -10.5426 0.0090
15.8800 -10.5559 0.0096
15.9000 -10.5693 0.0098
15.9200 -10.5825 0.0077
15.9400 -10.5959 0.0105
15.9600 -10.6092 0.0097
15.9800 -10.6226 0.0100
16.0000 -10.6359 0.0116
16.0200 -10.6492 0.0128
16.0400 -10.6626 0.0087
16.0600 -10.6760 0.0125
16.0800 -10.6893 0.0118
16.1000 -10.7026 0.0120
16.1200 -10.7159 0.0142
16.1400 -10.7293 0.0141
16.1600 -10.7427 0.0124
16.1800 -10.7560 0.0125
16.2000 -10.7693 0.0146
16.2200 -10.7826 0.0127
16.2400 -10.7959 0.0148
16.2600 -10.8092 0.0146
16.2800 -10.8225 0.0123
16.3000 -10.8358 0.0146
16.3200 -10.8492 0.0170
16.3400 -10.8626 0.0157
16.3600 -10.8759 0.0172
16.3800 -10.8893 0.0177
16.4000 -10.9026 0.0165
16.4200 -10.9160 0.0189
16.4400 -10.9293 0.0179
16.4600 -10.9426 0.0156
16.4800 -10.9559 0.0178
16.5000 -10.9692 0.0183
16.5200 -10.9826 0.0186
16.5400 -10.9960 0.0200
16.5600 -11.0093 0.0208
16.5800 -11.0226 0.0207
16.6000 -11.0360 0.0216
16.6200 -11.0493 0.0214
16.6400 -11.0626 0.0221
16.6600 -11.0759 0.0234
16.6800 -11.0892 0.0242
16.7000 -11.1026 0.0234
16.7200 -11.1159 0.0249
16.7400 -11.1293 0.0264
16.7600 -11.1426 0.0240
16.7800 -11.1560 0.0259
16.8000 -11.1694 0.0255
16.8200 -11.1827 0.0243
16.8400 -11.1960 0.0260
16.8600 -11.2093 0.0281
16.8800 -11.2227 0.0265
16.9000 -11.2360 0.0279
16.9200 -11.2493 0.0290
16.9400 -11.2626 0.0276
16.9600 -11.2759 0.0279
16.9800 -11.2893 0.0292
17.0000 -11.3026 0.0307
17.0200 -11.3159 0.0324
17.0400 -11.3292 0.0317
17.0600 -11.3426 0.0306
17.0800 -11.3559 0.0335
17.1000 -11.3692 0.0359
17.1200 -11.3826 0.0320
17.1400 -11.3960 0.0350
17.1600 -11.4093 0.0363
17.1800 -11.4226 0.0347
17.2000 -11.4359 0.0348
17.2200 -11.4493 0.0368
17.2400 -11.4627 0.0345
17.2600 -11.4760 0.0352
17.2800 -11.4893 0.0378
17.3000 -11.5026 0.0364
17.3200 -11.5159 0.0373
17.3400 -11.5293 0.0379
17.3600 -11.5426 0.0365
17.3800 -11.5559 0.0361
17.4000 -11.5692 0.0385
17.4200 -11.5826 0.0349
17.4400 -11.5959 0.0406
17.4600 -11.6092 0.0386
17.4800 -11.6226 0.0380
17.5000 -11.6359 0.0384
17.5200 -11.6493 0.0406
17.5400 -11.6626 0.0393
17.5600 -11.6759 0.0385
17.5800 -11.6893 0.0388
17.6000 -11.7026 0.0367
17.6200 -11.7160 0.0400
17.6400 -11.7293 0.0428
17.6600 -11.7426 0.0392
17.6800 -11.7560 0.0417
17.7000 -11.7693 0.0423
17.7200 -11.7826 0.0416
17.7400 -11.7959 0.0425
17.7600 -11.8092 0.0434
17.7800 -11.8226 0.0413
17.8000 -11.8359 0.0450
17.8200 -11.8493 0.0452
17.8400 -11.8626 0.0454
17.8600 -11.8759 0.0453
17.8800 -11.8893 0.0474
17.9000 -11.9026 0.0450
17.9200 -11.9159 0.0464
17.9400 -11.9293 0.0476
17.9600 -11.9426 0.0488
17.9800 -11.9559 0.0485
18.0000 -11.9693 0.0486
18.0200 -11.9826 0.0491
18.0400 -11.9959 0.0503
18.0600 -12.0093 0.0505
18.0800 -12.0226 0.0500
18.1000 -12.0359 0.0518
18.1200 -12.0492 0.0524
18.1400 -12.0626 0.0513
18.1600 -12.0760 0.0540
18.1800 -12.0893 0.0551
18.2000 -12.1026 0.0541
18.2200 -12.1160 0.0537
18.2400 -12.1293 0.0559
18.2600 -12.1426 0.0547
18.2800 -12.1559 0.0568
18.3000 -12.1693 0.0573
18.3200 -12.1826 0.0551
18.3400 -12.1960 0.0566
18.3600 -12.2093 0.0602
18.3800 -12.2226 0.0607
18.4000 -12.2359 0.0612
18.4200 -12.2493 0.0618
18.4400 -12.2626 0.0592
18.4600 -12.2759 0.0603
18.4800 -12.2892 0.0596
18.5000 -12.3026 0.0594
18.5200 -12.3159 0.0620
18.5400 -12.3293 0.0623
18.5600 -12.3426 0.0628
18.5800 -12.3560 0.0616
18.6000 -12.3693 0.0641
18.6200 -12.3827 0.0613
18.6400 -12.3959 0.0630
18.6600 -12.4093 0.0628
18.6800 -12.4226 0.0618
18.7000 -12.4360 0.0622
18.7200 -12.4493 0.0651
18.7400 -12.4626 0.0625
18.7600 -12.4760 0.0640
18.7800 -12.4893 0.0653
18.8000 -12.5026 0.0637
18.8200 -12.5159 0.0651
18.8400 -12.5292 0.0675
18.8600 -12.5426 0.0668
18.8800 -12.5559 0.0647
18.9000 -12.5692 0.0648
18.9200 -12.5825 0.0631
18.9400 -12.5959 0.0640
18.9600 -12.6093 0.0670
18.9800 -12.6227 0.0668
19.0000 -12.6360 0.0684
19.0200 -12.6493 0.0694
19.0400 -12.6627 0.0669
19.0600 -12.6760 0.0673
19.0800 -12.6893 0.0665
19.1000 -12.7026 0.0693
19.1200 -12.7159 0.0679
19.1400 -12.7293 0.0702
19.1600 -12.7426 0.0677
19.1800 -12.7559 0.0679
19.2000 -12.7692 0.0692
19.2200 -12.7826 0.0680
19.2400 -12.7960 0.0678
19.2600 -12.8093 0.0715
19.2800 -12.8226 0.0698
19.3000 -12.8359 0.0724
19.3200 -12.8493 0.0741
19.3400 -12.8627 0.0727
19.3600 -12.8760 0.0733
19.3800 -12.8893 0.0754
19.4000 -12.9026 0.0727
19.4200 -12.9160 0.0734
19.4400 -12.9293 0.0747
19.4600 -12.9426 0.0744
19.4800 -12.9559 0.0748
19.5000 -12.9693 0.0782
19.5200 -12.9826 0.0768
19.5400 -12.9959 0.0763
19.5600 -13.0092 0.0778
19.5800 -13.0226 0.0791
19.6000 -13.0359 0.0786
19.6200 -13.0492 0.0811
19.6400 -13.0626 0.0795
19.6600 -13.0759 0.0812
19.6800 -13.0893 0.0836
19.7000 -13.1026 0.0831
19.7200 -13.1160 0.0822
19.7400 -13.1293 0.0851
19.7600 -13.1427 0.0845
19.7800 -13.1560 0.0843
19.8000 -13.1693 0.0866
19.8200 -13.1826 0.0835
19.8400 -13.1959 0.0846
19.8600 -13.2093 0.0867
19.8800 -13.2226 0.0862
19.9000 -13.2358 0.0872
19.9200 -13.2492 0.0899
19.9400 -13.2625 0.0884
19.9600 -13.2759 0.0899
19.9800 -13.2892 0.0874
20.0000 -13.3026 0.0879
20.0200 -13.3159 0.0861
20.0400 -13.3293 0.0929
20.0600 -13.3427 0.0914
20.0800 -13.3560 0.0904
20.1000 -13.3693 0.0923
20.1200 -13.3826 0.0948
20.1400 -13.3960 0.0936
20.1600 -13.4093 0.0952
20.1800 -13.4226 0.0929
20.2000 -13.4359 0.0948
20.2200 -13.4493 0.0986
20.2400 -13.4626 0.0968
20.2600 -13.4759 0.0957
20.2800 -13.4892 0.0982
20.3000 -13.5026 0.0982
20.3200 -13.5159 0.0975
20.3400 -13.5292 0.1017
20.3600 -13.5426 0.0989
20.3800 -13.5559 0.0986
20.4000 -13.5693 0.1001
20.4200 -13.5826 0.0980
20.4400 -13.5959 0.0993
20.4600 -13.6093 0.1015
20.4800 -13.6226 0.1003
20.5000 -13.6360 0.0998
20.5200 -13.6493 0.1004
20.5400 -13.6626 0.1020
20.5600 -13.6759 0.0995
20.5800 -13.6893 0.1020
20.6000 -13.7026 0.1015
20.6200 -13.7159 0.1008
20.6400 -13.7292 0.1040
20.6600 -13.7426 0.1030
20.6800 -13.7559 0.1030
20.7000 -13.7692 0.1044
20.7200 -13.7826 0.1043
20.7400 -13.7959 0.1024
20.7600 -13.8093 0.1050
20.7800 -13.8226 0.1051
20.8000 -13.8359 0.1055
20.8200 -13.8492 0.1066
20.8400 -13.8626 0.1067
20.8600 -13.8760 0.1050
20.8800 -13.8893 0.1073
20.9000 -13.9026 0.1054
20.9200 -13.9160 0.1059
20.9400 -13.9293 0.1076
20.9600 -13.9426 0.1083
20.9800 -13.9559 0.1055
21.0000 -13.9692 0.1096
21.0200 -13.9826 0.1076
21.0400 -13.9959 0.1075
21.0600 -14.0092 0.1084
21.0800 -14.0226 0.1086
21.1000 -14.0359 0.1076
21.1200 -14.0493 0.1090
21.1400 -14.0627 0.1089
21.1600 -14.0760 0.1095
21.1800 -14.0893 0.1124
21.2000 -14.1026 0.1117
21.2200 -14.1160 0.1108
21.2400 -14.1293 0.1148
21.2600 -14.1426 0.1135
21.2800 -14.1559 0.1115
21.3000 -14.1692 0.1155
21.3200 -14.1826 0.1151
21.3400 -14.1959 0.1158
21.3600 -14.2092 0.1175
21.3800 -14.2225 0.1179
21.4000 -14.2359 0.1170
21.4200 -14.2493 0.1204
21.4400 -14.2626 0.1198
21.4600 -14.2759 0.1220
21.4800 -14.2893 0.1199
21.5000 -14.3027 0.1201
21.5200 -14.3160 0.1186
21.5400 -14.3293 0.1232
21.5600 -14.3426 0.1226
21.5800 -14.3560 0.1215
21.6000 -14.3693 0.1244
21.6200 -14.3826 0.1246
21.6400 -14.3959 0.1220
21.6600 -14.4093 0.1271
21.6800 -14.4226 0.1264
21.7000 -14.4359 0.1242
21.7200 -14.4492 0.1249
21.7400 -14.4626 0.1260
21.7600 -14.4759 0.1260
21.7800 -14.4893 0.1295
21.8000 -14.5026 0.1294
21.8200 -14.5159 0.1296
21.8400 -14.5293 0.1323
21.8600 -14.5427 0.1297
21.8800 -14.5560 0.1296
21.9000 -14.5693 0.1316
21.9200 -14.5826 0.1333
21.9400 -14.5960 0.1317
21.9600 -14.6093 0.1344
21.9800 -14.6226 0.1341
22.0000 -14.6359 0.1346
22.0200 -14.6493 0.1372
22.0400 -14.6626 0.1360
22.0600 -14.6759 0.1348
22.0800 -14.6892 0.1374
22.1000 -14.7025 0.1376
22.1200 -14.7159 0.1356
22.1400 -14.7293 0.1373
22.1600 -14.7426 0.1362
22.1800 -14.7559 0.1350
22.2000 -14.7693 0.1382
22.2200 -14.7827 0.1386
22.2400 -14.7960 0.1383
22.2600 -14.8093 0.1403
22.2800 -14.8226 0.1396
22.3000 -14.8359 0.1378
22.3200 -14.8493 0.1402
22.3400 -14.8626 0.1391
22.3600 -14.8759 0.1378
22.3800 -14.8893 0.1404
22.4000 -14.9026 0.1404
22.4200 -14.9159 0.1391
22.4400 -14.9292 0.1432
22.4600 -14.9426 0.1430
22.4800 -14.9559 0.1410
22.5000 -14.9693 0.1418
22.5200 -14.9826 0.1419
22.5400 -14.9960 0.1414
22.5600 -15.0093 0.1417
22.5800 -15.0227 0.1434
22.6000 -15.0360 0.1405
22.6200 -15.0493 0.1425
22.6400 -15.0626 0.1428
22.6600 -15.0760 0.1416
22.6800 -15.0893 0.1439
22.7000 -15.1026 0.1451
22.7200 -15.1159 0.1434
22.7400 -15.1293 0.1457
22.7600 -15.1426 0.1478
22.7800 -15.1559 0.1466
22.8000 -15.1692 0.1488
22.8200 -15.1825 0.1469
22.8400 -15.1959 0.1452
22.8600 -15.2092 0.1463
22.8800 -15.2226 0.1455
22.9000 -15.2359 0.1441
22.9200 -15.2493 0.1481
22.9400 -15.2627 0.1473
22.9600 -15.2760 0.1484
22.9800 -15.2893 0.1489
23.0000 -15.3026 0.1515
23.0200 -15.3160 0.1497
23.0400 -15.3293 0.1519
23.0600 -15.3426 0.1542
23.0800 -15.3559 0.1545
23.1000 -15.3693 0.1554
23.1200 -15.3826 0.1582
23.1400 -15.3959 0.1560
23.1600 -15.4092 0.1569
23.1800 -15.4225 0.1579
23.2000 -15.4359 0.1583
23.2200 -15.4492 0.1597
23.2400 -15.4626 0.1610
23.2600 -15.4759 0.1592
23.2800 -15.4893 0.1607
23.3000 -15.5027 0.1615
23.3200 -15.5160 0.1600
23.3400 -15.5293 0.1625
23.3600 -15.5426 0.1634
23.3800 -15.5560 0.1614
23.4000 -15.5693 0.1629
23.4200 -15.5826 0.1618
23.4400 -15.5959 0.1633
23.4600 -15.6093 0.1644
23.4800 -15.6226 0.1653
23.5000 -15.6359 0.1630
23.5200 -15.6492 0.1641
23.5400 -15.6625 0.1680
23.5600 -15.6759 0.1644
23.5800 -15.6893 0.1668
23.6000 -15.7026 0.1655
23.6200 -15.7159 0.1658
23.6400 -15.7293 0.1665
23.6600 -15.7427 0.1682
23.6800 -15.7560 0.1667
23.7000 -15.7692 0.1686
23.7200 -15.7826 0.1698
23.7400 -15.7959 0.1693
23.7600 -15.8093 0.1703
23.7800 -15.8226 0.1708
23.8000 -15.8359 0.1682
23.8200 -15.8493 0.1697
23.8400 -15.8626 0.1717
23.8600 -15.8760 0.1723
23.8800 -15.8892 0.1732
23.9000 -15.9026 0.1730
23.9200 -15.9159 0.1746
23.9400 -15.9292 0.1750
23.9600 -15.9426 0.1758
23.9800 -15.9559 0.1755
24.0000 -15.9693 0.1768
24.0200 -15.9827 0.1779
24.0400 -15.9960 0.1786
24.0600 -16.0093 0.1771
24.0800 -16.0226 0.1787
24.1000 -16.0360 0.1781
24.1200 -16.0494 0.1791
24.1400 -16.0627 0.1815
24.1600 -16.0760 0.1801
24.1800 -16.0893 0.1830
24.2000 -16.1026 0.1851
24.2200 -16.1159 0.1835
24.2400 -16.1292 0.1814
24.2600 -16.1425 0.1838
24.2800 -16.1559 0.1826
24.3000 -16.1693 0.1854
24.3200 -16.1826 0.1881
24.3400 -16.1959 0.1853
24.3600 -16.2093 0.1869
24.3800 -16.2226 0.1882
24.4000 -16.2360 0.1879
24.4200 -16.2493 0.1883
24.4400 -16.2626 0.1899
24.4600 -16.2760 0.1897
24.4800 -16.2893 0.1902
24.5000 -16.3026 0.1906
24.5200 -16.3159 0.1915
24.5400 -16.3293 0.1905
24.5600 -16.3426 0.1934
24.5800 -16.3560 0.1932
24.6000 -16.3692 0.1939
24.6200 -16.3825 0.1971
24.6400 -16.3959 0.1945
24.6600 -16.4093 0.1971
24.6800 -16.4226 0.1979
24.7000 -16.4359 0.1965
24.7200 -16.4492 0.1957
24.7400 -16.4626 0.1979
24.7600 -16.4759 0.1959
24.7800 -16.4893 0.1971
24.8000 -16.5026 0.1978
24.8200 -16.5160 0.1973
24.8400 -16.5293 0.1993
24.8600 -16.5427 0.2014
24.8800 -16.5560 0.2008
24.9000 -16.5693 0.2011
24.9200 -16.5827 0.2035
24.9400 -16.5960 0.2028
24.9600 -16.6093 0.2038
24.9800 -16.6226 0.2051
25.0000 -16.6359 0.2045
25.0200 -16.6493 0.2040
25.0400 -16.6626 0.2051
25.0600 -16.6759 0.2037
25.0800 -16.6893 0.2047
25.1000 -16.7027 0.2058
25.1200 -16.7160 0.2065
25.1400 -16.7293 0.2045
25.1600 -16.7426 0.2079
25.1800 -16.7559 0.2065
25.2000 -16.7693 0.2071
25.2200 -16.7826 0.2064
25.2400 -16.7959 0.2072
25.2600 -16.8093 0.2082
25.2800 -16.8226 0.2129
25.3000 -16.8359 0.2110
25.3200 -16.8492 0.2108
25.3400 -16.8625 0.2114
25.3600 -16.8759 0.2123
25.3800 -16.8893 0.2100
25.4000 -16.9026 0.2148
25.4200 -16.9159 0.2118
25.4400 -16.9293 0.2135
25.4600 -16.9426 0.2141
25.4800 -16.9560 0.2150
25.5000 -16.9693 0.2150
25.5200 -16.9826 0.2174
25.5400 -16.9959 0.2171
25.5600 -17.0092 0.2168
25.5800 -17.0226 0.2170
25.6000 -17.0359 0.2181
25.6200 -17.0492 0.2185
25.6400 -17.0626 0.2191
25.6600 -17.0759 0.2178
25.6800 -17.0892 0.2191
25.7000 -17.1026 0.2219
25.7200 -17.1159 0.2218
25.7400 -17.1293 0.2213
25.7600 -17.1426 0.2225
25.7800 -17.1559 0.2224
25.8000 -17.1692 0.2218
25.8200 -17.1826 0.2221
25.8400 -17.1960 0.2218
25.8600 -17.2093 0.2228
25.8800 -17.2226 0.2240
25.9000 -17.2359 0.2253
25.9200 -17.2493 0.2245
25.9400 -17.2626 0.2260
25.9600 -17.2759 0.2243
25.9800 -17.2893 0.2260
26.0000 -17.3026 0.2261
26.0200 -17.3159 0.2276
26.0400 -17.3293 0.2264
26.0600 -17.3426 0.2303
26.0800 -17.3559 0.2301
26.1000 -17.3693 0.2308
26.1200 -17.3826 0.2304
26.1400 -17.3959 0.2309
26.1600 -17.4092 0.2310
26.1800 -17.4226 0.2353
26.2000 -17.4360 0.2345
26.2200 -17.4493 0.2341
26.2400 -17.4626 0.2368
26.2600 -17.4760 0.2357
26.2800 -17.4894 0.2366
26.3000 -17.5027 0.2376
26.3200 -17.5160 0.2372
26.3400 -17.5293 0.2373
26.3600 -17.5426 0.2393
26.3800 -17.5560 0.2376
26.4000 -17.5693 0.2375
26.4200 -17.5826 0.2406
26.4400 -17.5959 0.2398
26.4600 -17.6093 0.2392
26.4800 -17.6226 0.2415
26.5000 -17.6359 0.2421
26.5200 -17.6493 0.2431
26.5400 -17.6626 0.2454
26.5600 -17.6760 0.2448
26.5800 -17.6893 0.2446
26.6000 -17.7026 0.2459
26.6200 -17.7159 0.2459
26.6400 -17.7293 0.2475
26.6600 -17.7426 0.2473
26.6800 -17.7560 0.2468
26.7000 -17.7693 0.2466
26.7200 -17.7826 0.2492
26.7400 -17.7959 0.2499
26.7600 -17.8092 0.2496
26.7800 -17.8225 0.2502
26.8000 -17.8359 0.2501
26.8200 -17.8492 0.2513
26.8400 -17.8626 0.2522
26.8600 -17.8759 0.2522
26.8800 -17.8892 0.2523
26.9000 -17.9026 0.2526
26.9200 -17.9160 0.2534
26.9400 -17.9293 0.2528
26.9600 -17.9426 0.2540
26.9800 -17.9560 0.2558
27.0000 -17.9693 0.2554
27.0200 -17.9827 0.2570
27.0400 -17.9960 0.2581
27.0600 -18.0093 0.2586
27.0800 -18.0226 0.2582
27.1000 -18.0360 0.2585
27.1200 -18.0492 0.2602
27.1400 -18.0625 0.2603
27.1600 -18.0758 0.2615
27.1800 -18.0892 0.2618
27.2000 -18.1026 0.2626
27.2200 -18.1159 0.2614
27.2400 -18.1292 0.2606
27.2600 -18.1426 0.2610
27.2800 -18.1560 0.2631
27.3000 -18.1693 0.2631
27.3200 -18.1826 0.2648
27.3400 -18.1960 0.2633
27.3600 -18.2093 0.2656
27.3800 -18.2227 0.2659
27.4000 -18.2360 0.2683
27.4200 -18.2493 0.2682
27.4400 -18.2626 0.2690
27.4600 -18.2760 0.2687
27.4800 -18.2893 0.2697
27.5000 -18.3026 0.2702
27.5200 -18.3159 0.2725
27.5400 -18.3293 0.2709
27.5600 -18.3426 0.2749
27.5800 -18.3559 0.2735
27.6000 -18.3692 0.2748
27.6200 -18.3826 0.2748
27.6400 -18.3960 0.2746
27.6600 -18.4093 0.2739
27.6800 -18.4226 0.2757
27.7000 -18.4359 0.2746
27.7200 -18.4493 0.2770
27.7400 -18.4627 0.2763
27.7600 -18.4760 0.2760
27.7800 -18.4893 0.2759
27.8000 -18.5027 0.2767
27.8200 -18.5160 0.2778
27.8400 -18.5293 0.2756
27.8600 -18.5426 0.2767
27.8800 -18.5559 0.2778
27.9000 -18.5692 0.2788
27.9200 -18.5826 0.2801
27.9400 -18.5959 0.2802
27.9600 -18.6092 0.2812
27.9800 -18.6226 0.2820
28.0000 -18.6359 0.2831
28.0200 -18.6493 0.2846
28.0400 -18.6626 0.2863
28.0600 -18.6759 0.2884
28.0800 -18.6893 0.2847
28.1000 -18.7027 0.2877
28.1200 -18.7160 0.2854
28.1400 -18.7293 0.2877
28.1600 -18.7426 0.2882
28.1800 -18.7560 0.2903
28.2000 -18.7693 0.2891
28.2200 -18.7826 0.2894
28.2400 -18.7959 0.2911
28.2600 -18.8092 0.2927
28.2800 -18.8226 0.2933
28.3000 -18.8359 0.2956
28.3200 -18.8492 0.2946
28.3400 -18.8626 0.2964
28.3600 -18.8760 0.2976
28.3800 -18.8893 0.2973
28.4000 -18.9026 0.2990
28.4200 -18.9160 0.2974
28.4400 -18.9293 0.2962
28.4600 -18.9427 0.2970
28.4800 -18.9560 0.2998
28.5000 -18.9693 0.3012
28.5200 -18.9826 0.3022
28.5400 -18.9959 0.3029
28.5600 -19.0092 0.3027
28.5800 -19.0225 0.3039
28.6000 -19.0359 0.3040
28.6200 -19.0492 0.3067
28.6400 -19.0626 0.3064
28.6600 -19.0759 0.3077
28.6800 -19.0893 0.3077
28.7000 -19.1026 0.3081
28.7200 -19.1160 0.3095
28.7400 -19.1293 0.3110
28.7600 -19.1426 0.3099
28.7800 -19.1559 0.3124
28.8000 -19.1693 0.3116
28.8200 -19.1827 0.3115
28.8400 -19.1960 0.3119
28.8600 -19.2093 0.3138
28.8800 -19.2226 0.3152
28.9000 -19.2360 0.3164
28.9200 -19.2493 0.3158
28.9400 -19.2626 0.3175
28.9600 -19.2759 0.3169
28.9800 -19.2892 0.3195
29.0000 -19.3026 0.3169
29.0200 -19.3159 0.3179
29.0400 -19.3292 0.3180
29.0600 -19.3426 0.3176
29.0800 -19.3560 0.3193
29.1000 -19.3693 0.3196
29.1200 -19.3826 0.3190
29.1400 -19.3959 0.3207
29.1600 -19.4093 0.3209
29.1800 -19.4227 0.3211
29.2000 -19.4360 0.3236
29.2200 -19.4493 0.3240
29.2400 -19.4626 0.3262
29.2600 -19.4760 0.3262
29.2800 -19.4893 0.3275
29.3000 -19.5026 0.3277
29.3200 -19.5159 0.3276
29.3400 -19.5292 0.3297
29.3600 -19.5426 0.3292
29.3800 -19.5559 0.3303
29.4000 -19.5693 0.3303
29.4200 -19.5826 0.3319
29.4400 -19.5960 0.3326
29.4600 -19.6093 0.3314
29.4800 -19.6226 0.3325
29.5000 -19.6359 0.3333
29.5200 -19.6493 0.3341
29.5400 -19.6626 0.3348
29.5600 -19.6760 0.3367
29.5800 -19.6892 0.3356
29.6000 -19.7026 0.3362
29.6200 -19.7159 0.3370
29.6400 -19.7292 0.3391
29.6600 -19.7425 0.3377
29.6800 -19.7559 0.3386
29.7000 -19.7692 0.3375
29.7200 -19.7826 0.3302
29.7400 -19.7959 0.2975
29.7600 -19.8093 0.2545
29.7800 -19.8226 0.2053
29.8000 -19.8360 0.1605
29.8200 -19.8493 0.1169
29.8400 -19.8626 0.0769
29.8600 -19.8759 0.0345
29.8800 -19.8893 -0.0029
29.9000 -19.9027 -0.0462
29.9200 -19.9160 -0.0788
29.9400 -19.9293 -0.1076
29.9600 -19.9426 -0.1370
29.9800 -19.9559 -0.1708
30.0000 -19.9693 -0.1986
30.0200 -19.9825 -0.2260
30.0400 -19.9958 -0.2504
30.0600 -20.0092 -0.2708
30.0800 -20.0226 -0.2811
30.1000 -20.0359 -0.2860
30.1200 -20.0492 -0.2884
30.1400 -20.0626 -0.2904
30.1600 -20.0760 -0.2941
30.1800 -20.0894 -0.2943
30.2000 -20.1027 -0.3030
30.2200 -20.1160 -0.3075
30.2400 -20.1293 -0.3159
30.2600 -20.1427 -0.3218
30.2800 -20.1560 -0.3305
30.3000 -20.1693 -0.3369
30.3200 -20.1826 -0.3479
30.3400 -20.1959 -0.3519
30.3600 -20.2093 -0.3558
30.3800 -20.2226 -0.3644
30.4000 -20.2359 -0.3789
30.4200 -20.2492 -0.3949
30.4400 -20.2626 -0.4227
30.4600 -20.2759 -0.4529
30.4800 -20.2892 -0.4854
30.5000 -20.3026 -0.4996
30.5200 -20.3160 -0.5252
30.5400 -20.3294 -0.5582
30.5600 -20.3427 -0.5894
30.5800 -20.3560 -0.6148
30.6000 -20.3693 -0.6354
30.6200 -20.3827 -0.6521
30.6400 -20.3960 -0.6677
30.6600 -20.4093 -0.6842
30.6800 -20.4226 -0.6956
30.7000 -20.4359 -0.7019
30.7200 -20.4493 -0.7086
30.7400 -20.4626 -0.7231
30.7600 -20.4759 -0.7317
30.7800 -20.4892 -0.7331
30.8000 -20.5026 -0.7317
30.8200 -20.5159 -0.7324
30.8400 -20.5293 -0.7321
30.8600 -20.5426 -0.7330
30.8800 -20.5560 -0.7334
30.9000 -20.5693 -0.7317
30.9200 -20.5826 -0.7325
30.9400 -20.5959 -0.7329
30.9600 -20.6092 -0.7318
30.9800 -20.6226 -0.7321
31.0000 -20.6359 -0.7330
31.0200 -20.6493 -0.7341
31.0400 -20.6626 -0.7335
31.0600 -20.6759 -0.7328
31.0800 -20.6893 -0.7321
31.1000 -20.7026 -0.7296
31.1200 -20.7159 -0.7318
31.1400 -20.7292 -0.7300
31.1600 -20.7426 -0.7314
31.1800 -20.7559 -0.7290
31.2000 -20.7692 -0.7308
31.2200 -20.7826 -0.7297
31.2400 -20.7960 -0.7321
31.2600 -20.8093 -0.7285
31.2800 -20.8227 -0.7307
31.3000 -20.8360 -0.7294
31.3200 -20.8493 -0.7293
31.3400 -20.8627 -0.7275
31.3600 -20.8760 -0.7289
31.3800 -20.8893 -0.7269
31.4000 -20.9026 -0.7260
31.4200 -20.9159 -0.7254
31.4400 -20.9293 -0.7223
31.4600 -20.9426 -0.7239
31.4800 -20.9559 -0.7236
31.5000 -20.9692 -0.7227
31.5200 -20.9826 -0.7230
31.5400 -20.9959 -0.7243
31.5600 -21.0092 -0.7226
31.5800 -21.0226 -0.7228
31.6000 -21.0360 -0.7195
31.6200 -21.0493 -0.7179
31.6400 -21.0627 -0.7176
31.6600 -21.0760 -0.7203
31.6800 -21.0893 -0.7173
31.7000 -21.1026 -0.7155
31.7200 -21.1160 -0.7158
31.7400 -21.1293 -0.7147
31.7600 -21.1426 -0.7138
31.7800 -21.1560 -0.7121
31.8000 -21.1693 -0.7095
31.8200 -21.1826 -0.7115
31.8400 -21.1959 -0.7113
31.8600 -21.2092 -0.7111
31.8800 -21.2226 -0.7089
31.9000 -21.2359 -0.7072
31.9200 -21.2492 -0.7050
31.9400 -21.2626 -0.7070
31.9600 -21.2759 -0.7053
31.9800 -21.2893 -0.7056
32.0000 -21.3026 -0.7028
32.0200 -21.3159 -0.7065
32.0400 -21.3293 -0.7031
32.0600 -21.3426 -0.7051
32.0800 -21.3560 -0.7048
32.1000 -21.3693 -0.7043
32.1200 -21.3826 -0.7024
32.1400 -21.3960 -0.7043
32.1600 -21.4093 -0.7020
32.1800 -21.4226 -0.7032
32.2000 -21.4359 -0.7021
32.2200 -21.4492 -0.6994
32.2400 -21.4626 -0.6999
32.2600 -21.4759 -0.7002
32.2800 -21.4893 -0.6998
32.3000 -21.5026 -0.6993
32.3200 -21.5159 -0.7002
32.3400 -21.5293 -0.6973
32.3600 -21.5426 -0.6956
32.3800 -21.5559 -0.6975
32.4000 -21.5693 -0.6967
32.4200 -21.5826 -0.6948
32.4400 -21.5960 -0.6972
32.4600 -21.6093 -0.6934
32.4800 -21.6226 -0.6935
32.5000 -21.6359 -0.6910
32.5200 -21.6493 -0.6869
32.5400 -21.6626 -0.6854
32.5600 -21.6759 -0.6851
32.5800 -21.6892 -0.6808
32.6000 -21.7026 -0.6813
32.6200 -21.7159 -0.6821
32.6400 -21.7293 -0.6823
32.6600 -21.7426 -0.6828
32.6800 -21.7559 -0.6807
32.7000 -21.7693 -0.6804
32.7200 -21.7827 -0.6788
32.7400 -21.7960 -0.6803
32.7600 -21.8093 -0.6774
32.7800 -21.8226 -0.6783
32.8000 -21.8360 -0.6748
32.8200 -21.8493 -0.6746
32.8400 -21.8626 -0.6741
32.8600 -21.8759 -0.6750
32.8800 -21.8892 -0.6733
32.9000 -21.9026 -0.6744
32.9200 -21.9159 -0.6718
32.9400 -21.9292 -0.6708
32.9600 -21.9426 -0.6696
32.9800 -21.9559 -0.6701
33.0000 -21.9693 -0.6691
33.0200 -21.9826 -0.6686
33.0400 -21.9959 -0.6711
33.0600 -22.0093 -0.6697
33.0800 -22.0227 -0.6709
33.1000 -22.0360 -0.6713
33.1200 -22.0493 -0.6676
33.1400 -22.0626 -0.6682
33.1600 -22.0760 -0.6697
33.1800 -22.0893 -0.6672
33.2000 -22.1026 -0.6671
33.2200 -22.1160 -0.6673
33.2400 -22.1293 -0.6666
33.2600 -22.1426 -0.6674
33.2800 -22.1559 -0.6684
33.3000 -22.1692 -0.6677
33.3200 -22.1825 -0.6662
33.3400 -22.1959 -0.6660
33.3600 -22.2092 -0.6662
33.3800 -22.2225 -0.6665
33.4000 -22.2359 -0.6701
33.4200 -22.2493 -0.6675
33.4400 -22.2627 -0.6656
33.4600 -22.2760 -0.6654
33.4800 -22.2893 -0.6658
33.5000 -22.3026 -0.6634
33.5200 -22.3160 -0.6656
33.5400 -22.3293 -0.6616
33.5600 -22.3426 -0.6639
33.5800 -22.3559 -0.6620
33.6000 -22.3693 -0.6651
33.6200 -22.3826 -0.6615
33.6400 -22.3959 -0.6631
33.6600 -22.4092 -0.6595
33.6800 -22.4226 -0.6611
33.7000 -22.4360 -0.6606
33.7200 -22.4493 -0.6620
33.7400 -22.4626 -0.6597
33.7600 -22.4760 -0.6609
33.7800 -22.4893 -0.6594
33.8000 -22.5027 -0.6585
33.8200 -22.5160 -0.6609
33.8400 -22.5293 -0.6609
33.8600 -22.5426 -0.6600
33.8800 -22.5560 -0.6585
33.9000 -22.5693 -0.6595
33.9200 -22.5826 -0.6553
33.9400 -22.5959 -0.6584
33.9600 -22.6093 -0.6568
33.9800 -22.6226 -0.6585
34.0000 -22.6359 -0.6574
34.0200 -22.6492 -0.6576
34.0400 -22.6626 -0.6562
34.0600 -22.6759 -0.6592
34.0800 -22.6893 -0.6561
34.1000 -22.7026 -0.6570
34.1200 -22.7159 -0.6567
34.1400 -22.7293 -0.6534
34.1600 -22.7427 -0.6501
34.1800 -22.7560 -0.6516
34.2000 -22.7693 -0.6526
34.2200 -22.7826 -0.6518
34.2400 -22.7960 -0.6518
34.2600 -22.8093 -0.6510
34.2800 -22.8226 -0.6477
34.3000 -22.8360 -0.6500
34.3200 -22.8493 -0.6497
34.3400 -22.8626 -0.6467
34.3600 -22.8759 -0.6490
34.3800 -22.8892 -0.6457
34.4000 -22.9025 -0.6437
34.4200 -22.9159 -0.6436
34.4400 -22.9292 -0.6429
34.4600 -22.9426 -0.6412
34.4800 -22.9559 -0.6431
34.5000 -22.9693 -0.6411
34.5200 -22.9827 -0.6414
34.5400 -22.9960 -0.6397
34.5600 -23.0093 -0.6393
34.5800 -23.0227 -0.6390
34.6000 -23.0360 -0.6417
34.6200 -23.0493 -0.6399
34.6400 -23.0626 -0.6374
34.6600 -23.0759 -0.6369
34.6800 -23.0893 -0.6377
34.7000 -23.1026 -0.6356
34.7200 -23.1159 -0.6369
34.7400 -23.1292 -0.6336
34.7600 -23.1426 -0.6322
34.7800 -23.1559 -0.6337
34.8000 -23.1692 -0.6323
34.8200 -23.1825 -0.6312
34.8400 -23.1959 -0.6330
34.8600 -23.2093 -0.6329
34.8800 -23.2226 -0.6314
34.9000 -23.2360 -0.6314
34.9200 -23.2493 -0.6285
34.9400 -23.2626 -0.6285
34.9600 -23.2760 -0.6275
34.9800 -23.2893 -0.6282
35.0000 -23.3026 -0.6244
35.0200 -23.3159 -0.6267
35.0400 -23.3293 -0.6253
35.0600 -23.3426 -0.6243
35.0800 -23.3559 -0.6259
35.1000 -23.3692 -0.6263
35.1200 -23.3826 -0.6235
35.1400 -23.3959 -0.6262
35.1600 -23.4093 -0.6243
35.1800 -23.4226 -0.6250
35.2000 -23.4359 -0.6254
35.2200 -23.4493 -0.6262
35.2400 -23.4626 -0.6222
35.2600 -23.4759 -0.6270
35.2800 -23.4892 -0.6262
35.3000 -23.5026 -0.6268
35.3200 -23.5160 -0.6241
35.3400 -23.5294 -0.6256
35.3600 -23.5427 -0.6245
35.3800 -23.5560 -0.6254
35.4000 -23.5693 -0.6242
35.4200 -23.5826 -0.6227
35.4400 -23.5959 -0.6224
35.4600 -23.6092 -0.6210
35.4800 -23.6225 -0.6206
35.5000 -23.6359 -0.6220
35.5200 -23.6492 -0.6228
35.5400 -23.6626 -0.6205
35.5600 -23.6759 -0.6240
35.5800 -23.6893 -0.6213
35.6000 -23.7027 -0.6217
35.6200 -23.7160 -0.6214
35.6400 -23.7293 -0.6208
35.6600 -23.7426 -0.6191
35.6800 -23.7560 -0.6204
35.7000 -23.7694 -0.6162
35.7200 -23.7827 -0.6185
35.7400 -23.7959 -0.6184
35.7600 -23.8092 -0.6188
35.7800 -23.8226 -0.6174
35.8000 -23.8359 -0.6181
35.8200 -23.8492 -0.6142
35.8400 -23.8625 -0.6147
35.8600 -23.8759 -0.6156
35.8800 -23.8893 -0.6140
35.9000 -23.9026 -0.6139
35.9200 -23.9159 -0.6138
35.9400 -23.9293 -0.6160
35.9600 -23.9427 -0.6108
35.9800 -23.9560 -0.6113
36.0000 -23.9693 -0.6102
36.0200 -23.9826 -0.6095
36.0400 -23.9960 -0.6079
36.0600 -24.0093 -0.6094
36.0800 -24.0226 -0.6076
36.1000 -24.0360 -0.6076
36.1200 -24.0493 -0.6078
36.1400 -24.0627 -0.6056
36.1600 -24.0759 -0.6062
36.1800 -24.0892 -0.6062
36.2000 -24.1026 -0.6045
36.2200 -24.1159 -0.6034
36.2400 -24.1293 -0.6061
36.2600 -24.1425 -0.6029
36.2800 -24.1559 -0.6041
36.3000 -24.1693 -0.6017
36.3200 -24.1826 -0.6002
36.3400 -24.1960 -0.6035
36.3600 -24.2093 -0.6016
36.3800 -24.2226 -0.6005
36.4000 -24.2360 -0.6002
36.4200 -24.2493 -0.6012
36.4400 -24.2626 -0.5961
36.4600 -24.2759 -0.5993
36.4800 -24.2893 -0.5977
36.5000 -24.3026 -0.5968
36.5200 -24.3159 -0.5980
36.5400 -24.3292 -0.5980
36.5600 -24.3425 -0.5958
36.5800 -24.3559 -0.5957
36.6000 -24.3693 -0.5968
36.6200 -24.3826 -0.5942
36.6400 -24.3959 -0.5974
36.6600 -24.4093 -0.5952
36.6800 -24.4227 -0.5946
36.7000 -24.4360 -0.5915
36.7200 -24.4493 -0.5960
36.7400 -24.4626 -0.5928
36.7600 -24.4760 -0.5941
36.7800 -24.4893 -0.5930
36.8000 -24.5026 -0.5935
36.8200 -24.5159 -0.5929
36.8400 -24.5293 -0.5927
36.8600 -24.5426 -0.5899
36.8800 -24.5559 -0.5934
36.9000 -24.5692 -0.5931
36.9200 -24.5825 -0.5911
36.9400 -24.5959 -0.5904
36.9600 -24.6093 -0.5906
36.9800 -24.6226 -0.5899
37.0000 -24.6360 -0.5874
37.0200 -24.6493 -0.5887
37.0400 -24.6627 -0.5873
37.0600 -24.6760 -0.5892
37.0800 -24.6893 -0.5902
37.1000 -24.7026 -0.5875
37.1200 -24.7160 -0.5881
37.1400 -24.7293 -0.5873
37.1600 -24.7426 -0.5836
37.1800 -24.7560 -0.5869
37.2000 -24.7693 -0.5856
37.2200 -24.7826 -0.5835
37.2400 -24.7959 -0.5833
37.2600 -24.8092 -0.5860
37.2800 -24.8225 -0.5835
37.3000 -24.8359 -0.5852
37.3200 -24.8493 -0.5861
37.3400 -24.8626 -0.5840
37.3600 -24.8759 -0.5832
37.3800 -24.8893 -0.5841
37.4000 -24.9027 -0.5833
37.4200 -24.9160 -0.5842
37.4400 -24.9293 -0.5853
37.4600 -24.9426 -0.5821
37.4800 -24.9560 -0.5838
37.5000 -24.9693 -0.5827
37.5200 -24.9826 -0.5821
37.5400 -24.9959 -0.5817
37.5600 -25.0093 -0.5808
37.5800 -25.0226 -0.5807
37.6000 -25.0359 -0.5823
37.6200 -25.0492 -0.5850
37.6400 -25.0625 -0.5817
37.6600 -25.0759 -0.5849
37.6800 -25.0892 -0.5821
37.7000 -25.1026 -0.5810
37.7200 -25.1159 -0.5815
37.7400 -25.1293 -0.5811
37.7600 -25.1427 -0.5797
37.7800 -25.1560 -0.5800
37.8000 -25.1693 -0.5816
37.8200 -25.1826 -0.5770
37.8400 -25.1960 -0.5769
37.8600 -25.2093 -0.5782
37.8800 -25.2226 -0.5771
37.9000 -25.2359 -0.5735
37.9200 -25.2493 -0.5752
37.9400 -25.2626 -0.5727
37.9600 -25.2759 -0.5742
37.9800 -25.2892 -0.5747
38.0000 -25.3025 -0.5747
38.0200 -25.3159 -0.5739
38.0400 -25.3293 -0.5745
38.0600 -25.3426 -0.5732
38.0800 -25.3559 -0.5728
38.1000 -25.3693 -0.5725
38.1200 -25.3827 -0.5698
38.1400 -25.3960 -0.5710
38.1600 -25.4093 -0.5715
38.1800 -25.4226 -0.5698
38.2000 -25.4359 -0.5704
38.2200 -25.4493 -0.5730
38.2400 -25.4626 -0.5679
38.2600 -25.4759 -0.5705
38.2800 -25.4892 -0.5675
38.3000 -25.5026 -0.5691
38.3200 -25.5159 -0.5651
38.3400 -25.5292 -0.5675
38.3600 -25.5425 -0.5646
38.3800 -25.5559 -0.5672
38.4000 -25.5693 -0.5656
38.4200 -25.5826 -0.5652
38.4400 -25.5959 -0.5631
38.4600 -25.6093 -0.5636
38.4800 -25.6226 -0.5619
38.5000 -25.6360 -0.5632
38.5200 -25.6493 -0.5643
38.5400 -25.6626 -0.5612
38.5600 -25.6760 -0.5630
38.5800 -25.6893 -0.5612
38.6000 -25.7027 -0.5608
38.6200 -25.7160 -0.5608
38.6400 -25.7293 -0.5624
38.6600 -25.7426 -0.5584
38.6800 -25.7559 -0.5610
38.7000 -25.7692 -0.5588
38.7200 -25.7825 -0.5573
38.7400 -25.7959 -0.5571
38.7600 -25.8093 -0.5590
38.7800 -25.8226 -0.5566
38.8000 -25.8359 -0.5587
38.8200 -25.8493 -0.5595
38.8400 -25.8626 -0.5571
38.8600 -25.8760 -0.5566
38.8800 -25.8893 -0.5596
38.9000 -25.9026 -0.5578
38.9200 -25.9160 -0.5565
38.9400 -25.9293 -0.5559
38.9600 -25.9426 -0.5541
38.9800 -25.9559 -0.5535
39.0000 -25.9693 -0.5539
39.0200 -25.9826 -0.5521
39.0400 -25.9959 -0.5519
39.0600 -26.0092 -0.5515
39.0800 -26.0225 -0.5538
39.1000 -26.0359 -0.5516
39.1200 -26.0493 -0.5533
39.1400 -26.0626 -0.5501
39.1600 -26.0759 -0.5519
39.1800 -26.0892 -0.5534
39.2000 -26.1026 -0.5513
39.2200 -26.1160 -0.5504
39.2400 -26.1293 -0.5523
39.2600 -26.1426 -0.5489
39.2800 -26.1559 -0.5495
39.3000 -26.1693 -0.5536
39.3200 -26.1826 -0.5496
39.3400 -26.1960 -0.5515
39.3600 -26.2093 -0.5511
39.3800 -26.2227 -0.5488
39.4000 -26.2360 -0.5462
39.4200 -26.2493 -0.5511
39.4400 -26.2626 -0.5475
39.4600 -26.2759 -0.5510
39.4800 -26.2893 -0.5500
39.5000 -26.3026 -0.5496
39.5200 -26.3159 -0.5477
39.5400 -26.3293 -0.5517
39.5600 -26.3426 -0.5478
39.5800 -26.3560 -0.5485
39.6000 -26.3693 -0.5483
39.6200 -26.3826 -0.5456
39.6400 -26.3959 -0.5462
39.6600 -26.4093 -0.5477
39.6800 -26.4226 -0.5459
39.7000 -26.4359 -0.5464
39.7200 -26.4493 -0.5484
39.7400 -26.4626 -0.5463
39.7600 -26.4759 -0.5425
39.7800 -26.4892 -0.5470
39.8000 -26.5026 -0.5452
39.8200 -26.5159 -0.5454
39.8400 -26.5293 -0.5442
39.8600 -26.5426 -0.5416
39.8800 -26.5559 -0.5430
39.9000 -26.5693 -0.5436
39.9200 -26.5826 -0.5414
39.9400 -26.5960 -0.5395
39.9600 -26.6093 -0.5417
39.9800 -26.6226 -0.5390
40.0000 -26.6359 -0.5396
40.0200 -26.6493 -0.5413
40.0400 -26.6626 -0.5407
40.0600 -26.6759 -0.5372
40.0800 -26.6892 -0.5373
40.1000 -26.7026 -0.5357
40.1200 -26.7159 -0.5371
40.1400 -26.7292 -0.5391
40.1600 -26.7425 -0.5368
40.1800 -26.7559 -0.5346
40.2000 -26.7693 -0.5368
40.2200 -26.7826 -0.5345
40.2400 -26.7959 -0.5330
40.2600 -26.8093 -0.5335
40.2800 -26.8226 -0.5300
40.3000 -26.8360 -0.5313
40.3200 -26.8493 -0.5328
40.3400 -26.8626 -0.5313
40.3600 -26.8759 -0.5306
40.3800 -26.8893 -0.5310
40.4000 -26.9026 -0.5275
40.4200 -26.9159 -0.5310
40.4400 -26.9293 -0.5297
40.4600 -26.9426 -0.5325
40.4800 -26.9560 -0.5289
40.5000 -26.9693 -0.5322
40.5200 -26.9826 -0.5281
40.5400 -26.9959 -0.5261
40.5600 -27.0092 -0.5305
40.5800 -27.0226 -0.5296
40.6000 -27.0359 -0.5289
40.6200 -27.0492 -0.5297
40.6400 -27.0626 -0.5276
40.6600 -27.0760 -0.5284
40.6800 -27.0893 -0.5290
40.7000 -27.1026 -0.5276
40.7200 -27.1160 -0.5282
40.7400 -27.1293 -0.5283
40.7600 -27.1427 -0.5280
40.7800 -27.1560 -0.5258
40.8000 -27.1693 -0.5284
40.8200 -27.1826 -0.5267
40.8400 -27.1959 -0.5258
40.8600 -27.2093 -0.5269
40.8800 -27.2226 -0.5261
40.9000 -27.2359 -0.5249
40.9200 -27.2493 -0.5273
40.9400 -27.2626 -0.5266
40.9600 -27.2760 -0.5261
40.9800 -27.2893 -0.5261
41.0000 -27.3027 -0.5275
41.0200 -27.3160 -0.5233
41.0400 -27.3293 -0.5252
41.0600 -27.3426 -0.5226
41.0800 -27.3559 -0.5208
41.1000 -27.3693 -0.5195
41.1200 -27.3826 -0.5200
41.1400 -27.3959 -0.5163
41.1600 -27.4093 -0.5182
41.1800 -27.4226 -0.5162
41.2000 -27.4360 -0.5152
41.2200 -27.4493 -0.5151
41.2400 -27.4625 -0.5157
41.2600 -27.4759 -0.5136
41.2800 -27.4892 -0.5141
41.3000 -27.5026 -0.5147
41.3200 -27.5159 -0.5121
41.3400 -27.5293 -0.5113
41.3600 -27.5426 -0.5114
41.3800 -27.5560 -0.5091
41.4000 -27.5693 -0.5120
41.4200 -27.5826 -0.5109
41.4400 -27.5960 -0.5091
41.4600 -27.6093 -0.5098
41.4800 -27.6227 -0.5096
41.5000 -27.6360 -0.5071
41.5200 -27.6493 -0.5078
41.5400 -27.6626 -0.5085
41.5600 -27.6760 -0.5067
41.5800 -27.6893 -0.5098
41.6000 -27.7025 -0.5072
41.6200 -27.7158 -0.5070
41.6400 -27.7292 -0.5058
41.6600 -27.7426 -0.5077
41.6800 -27.7559 -0.5035
41.7000 -27.7692 -0.5067
41.7200 -27.7826 -0.5056
41.7400 -27.7960 -0.5054
41.7600 -27.8093 -0.5061
41.7800 -27.8226 -0.5072
41.8000 -27.8360 -0.5052
41.8200 -27.8493 -0.5069
41.8400 -27.8627 -0.5055
41.8600 -27.8760 -0.5047
41.8800 -27.8893 -0.5069
41.9000 -27.9026 -0.5081
41.9200 -27.9160 -0.5047
41.9400 -27.9293 -0.5066
41.9600 -27.9426 -0.5070
41.9800 -27.9559 -0.5060
42.0000 -27.9692 -0.5050
42.0200 -27.9826 -0.5059
42.0400 -27.9959 -0.5063
42.0600 -28.0092 -0.5057
42.0800 -28.0226 -0.5057
42.1000 -28.0359 -0.5038
42.1200 -28.0493 -0.5061
42.1400 -28.0626 -0.5063
42.1600 -28.0759 -0.5050
42.1800 -28.0893 -0.5065
42.2000 -28.1027 -0.5057
42.2200 -28.1160 -0.5043
42.2400 -28.1293 -0.5082
42.2600 -28.1427 -0.5055
42.2800 -28.1560 -0.5053
42.3000 -28.1693 -0.5048
42.3200 -28.1826 -0.5057
42.3400 -28.1959 -0.5050
42.3600 -28.2092 -0.5047
42.3800 -28.2226 -0.5032
42.4000 -28.2359 -0.4997
42.4200 -28.2492 -0.5049
42.4400 -28.2626 -0.5023
42.4600 -28.2760 -0.4976
42.4800 -28.2893 -0.5004
42.5000 -28.3026 -0.5017
42.5200 -28.3159 -0.4998
42.5400 -28.3293 -0.5012
42.5600 -28.3427 -0.4991
42.5800 -28.3560 -0.4994
42.6000 -28.3693 -0.4977
42.6200 -28.3826 -0.4991
42.6400 -28.3960 -0.4979
42.6600 -28.4093 -0.4968
42.6800 -28.4226 -0.4972
42.7000 -28.4359 -0.4971
42.7200 -28.4492 -0.4966
42.7400 -28.4626 -0.4973
42.7600 -28.4759 -0.4931
42.7800 -28.4892 -0.4945
42.8000 -28.5026 -0.4939
42.8200 -28.5160 -0.4968
42.8400 -28.5293 -0.4950
42.8600 -28.5427 -0.4963
42.8800 -28.5560 -0.4915
42.9000 -28.5693 -0.4922
42.9200 -28.5827 -0.4928
42.9400 -28.5960 -0.4907
42.9600 -28.6093 -0.4935
42.9800 -28.6226 -0.4931
43.0000 -28.6359 -0.4927
43.0200 -28.6492 -0.4902
43.0400 -28.6625 -0.4911
43.0600 -28.6758 -0.4910
43.0800 -28.6892 -0.4917
43.1000 -28.7026 -0.4905
43.1200 -28.7159 -0.4898
43.1400 -28.7293 -0.4877
43.1600 -28.7426 -0.4907
43.1800 -28.7560 -0.4873
43.2000 -28.7693 -0.4858
43.2200 -28.7826 -0.4833
43.2400 -28.7959 -0.4848
43.2600 -28.8093 -0.4826
43.2800 -28.8227 -0.4865
43.3000 -28.8360 -0.4830
43.3200 -28.8493 -0.4846
43.3400 -28.8626 -0.4822
43.3600 -28.8760 -0.4832
43.3800 -28.8893 -0.4812
43.4000 -28.9026 -0.4817
43.4200 -28.9159 -0.4790
43.4400 -28.9292 -0.4817
43.4600 -28.9426 -0.4804
43.4800 -28.9559 -0.4789
43.5000 -28.9692 -0.4773
43.5200 -28.9826 -0.4791
43.5400 -28.9960 -0.4774
43.5600 -29.0093 -0.4757
43.5800 -29.0226 -0.4758
43.6000 -29.0359 -0.4745
43.6200 -29.0493 -0.4753
43.6400 -29.0627 -0.4763
43.6600 -29.0760 -0.4741
43.6800 -29.0893 -0.4733
43.7000 -29.1026 -0.4737
43.7200 -29.1159 -0.4736
43.7400 -29.1293 -0.4731
43.7600 -29.1426 -0.4747
43.7800 -29.1559 -0.4720
43.8000 -29.1692 -0.4696
43.8200 -29.1826 -0.4727
43.8400 -29.1960 -0.4704
43.8600 -29.2093 -0.4694
43.8800 -29.2226 -0.4698
43.9000 -29.2360 -0.4690
43.9200 -29.2493 -0.4661
43.9400 -29.2626 -0.4712
43.9600 -29.2759 -0.4690
43.9800 -29.2893 -0.4709
44.0000 -29.3026 -0.4710
44.0200 -29.3160 -0.4681
44.0400 -29.3293 -0.4682
44.0600 -29.3426 -0.4689
44.0800 -29.3559 -0.4672
44.1000 -29.3692 -0.4703
44.1200 -29.3825 -0.4710
44.1400 -29.3959 -0.4687
44.1600 -29.4092 -0.4691
44.1800 -29.4226 -0.4699
44.2000 -29.4360 -0.4676
44.2200 -29.4493 -0.4671
44.2400 -29.4626 -0.4678
44.2600 -29.4760 -0.4660
44.2800 -29.4893 -0.4661
44.3000 -29.5027 -0.4671
44.3200 -29.5160 -0.4677
44.3400 -29.5293 -0.4649
44.3600 -29.5427 -0.4677
44.3800 -29.5560 -0.4655
44.4000 -29.5693 -0.4657
44.4200 -29.5826 -0.4654
44.4400 -29.5959 -0.4653
44.4600 -29.6093 -0.4651
44.4800 -29.6225 -0.4657
44.5000 -29.6358 -0.4647
44.5200 -29.6492 -0.4644
44.5400 -29.6626 -0.4651
44.5600 -29.6759 -0.4620
44.5800 -29.6892 -0.4633
44.6000 -29.7026 -0.4660
44.6200 -29.7160 -0.4633
44.6400 -29.7293 -0.4624
44.6600 -29.7427 -0.4657
44.6800 -29.7560 -0.4639
44.7000 -29.7693 -0.4642
44.7200 -29.7827 -0.4636
44.7400 -29.7960 -0.4639
44.7600 -29.8093 -0.4621
44.7800 -29.8226 -0.4641
44.8000 -29.8359 -0.4619
44.8200 -29.8493 -0.4631
44.8400 -29.8626 -0.4651
44.8600 -29.8759 -0.4637
44.8800 -29.8892 -0.4616
44.9000 -29.9025 -0.4654
44.9200 -29.9159 -0.4606
44.9400 -29.9292 -0.4621
44.9600 -29.9426 -0.4621
44.9800 -29.9560 -0.4609
45.0000 -29.9693 -0.4601
45.0200 -29.9827 -0.4639
45.0400 -29.9960 -0.4601
45.0600 -30.0093 -0.4611
45.0800 -30.0227 -0.4613
45.1000 -30.0360 -0.4601
45.1200 -30.0493 -0.4604
45.1400 -30.0626 -0.4609
45.1600 -30.0759 -0.4587
45.1800 -30.0893 -0.4562
45.2000 -30.1026 -0.4572
45.2200 -30.1159 -0.4576
45.2400 -30.1292 -0.4570
45.2600 -30.1426 -0.4551
45.2800 -30.1559 -0.4535
45.3000 -30.1693 -0.4524
45.3200 -30.1826 -0.4551
45.3400 -30.1960 -0.4510
45.3600 -30.2093 -0.4503
45.3800 -30.2226 -0.4518
45.4000 -30.2359 -0.4503
45.4200 -30.2492 -0.4509
45.4400 -30.2626 -0.4506
45.4600 -30.2760 -0.4480
45.4800 -30.2893 -0.4484
45.5000 -30.3026 -0.4475
45.5200 -30.3160 -0.4488
45.5400 -30.3293 -0.4480
45.5600 -30.3426 -0.4496
45.5800 -30.3559 -0.4443
45.6000 -30.3692 -0.4462
45.6200 -30.3826 -0.4473
45.6400 -30.3959 -0.4471
45.6600 -30.4092 -0.4456
45.6800 -30.4226 -0.4463
45.7000 -30.4359 -0.4441
45.7200 -30.4493 -0.4460
45.7400 -30.4627 -0.4461
45.7600 -30.4760 -0.4453
45.7800 -30.4893 -0.4447
45.8000 -30.5027 -0.4446
45.8200 -30.5160 -0.4449
45.8400 -30.5293 -0.4445
45.8600 -30.5426 -0.4465
45.8800 -30.5559 -0.4452
45.9000 -30.5693 -0.4444
45.9200 -30.5826 -0.4457
45.9400 -30.5959 -0.4450
45.9600 -30.6092 -0.4467
45.9800 -30.6226 -0.4467
46.0000 -30.6359 -0.4457
46.0200 -30.6492 -0.4463
46.0400 -30.6625 -0.4450
46.0600 -30.6759 -0.4464
46.0800 -30.6893 -0.4450
46.1000 -30.7026 -0.4460
46.1200 -30.7159 -0.4458
46.1400 -30.7293 -0.4450
46.1600 -30.7426 -0.4480
46.1800 -30.7560 -0.4446
46.2000 -30.7693 -0.4442
46.2200 -30.7826 -0.4446
46.2400 -30.7959 -0.4446
46.2600 -30.8093 -0.4431
46.2800 -30.8226 -0.4428
46.3000 -30.8359 -0.4426
46.3200 -30.8492 -0.4412
46.3400 -30.8626 -0.4414
46.3600 -30.8759 -0.4411
46.3800 -30.8893 -0.4418
46.4000 -30.9026 -0.4407
46.4200 -30.9159 -0.4418
46.4400 -30.9293 -0.4395
46.4600 -30.9426 -0.4378
46.4800 -30.9559 -0.4368
46.5000 -30.9693 -0.4373
46.5200 -30.9826 -0.4368
46.5400 -30.9960 -0.4330
46.5600 -31.0093 -0.4357
46.5800 -31.0226 -0.4344
46.6000 -31.0360 -0.4358
46.6200 -31.0493 -0.4306
46.6400 -31.0626 -0.4342
46.6600 -31.0759 -0.4322
46.6800 -31.0892 -0.4311
46.7000 -31.1026 -0.4310
46.7200 -31.1159 -0.4307
46.7400 -31.1293 -0.4305
46.7600 -31.1426 -0.4322
46.7800 -31.1560 -0.4294
46.8000 -31.1693 -0.4261
46.8200 -31.1827 -0.4263
46.8400 -31.1960 -0.4272
46.8600 -31.2093 -0.4260
46.8800 -31.2226 -0.4262
46.9000 -31.2360 -0.4262
46.9200 -31.2493 -0.4248
46.9400 -31.2626 -0.4263
46.9600 -31.2759 -0.4239
46.9800 -31.2893 -0.4228
47.0000 -31.3026 -0.4214
47.0200 -31.3159 -0.4231
47.0400 -31.3292 -0.4184
47.0600 -31.3426 -0.4236
47.0800 -31.3560 -0.4199
47.1000 -31.3693 -0.4216
47.1200 -31.3826 -0.4207
47.1400 -31.3959 -0.4207
47.1600 -31.4093 -0.4176
47.1800 -31.4227 -0.4201
47.2000 -31.4360 -0.4193
47.2200 -31.4493 -0.4188
47.2400 -31.4626 -0.4178
47.2600 -31.4760 -0.4149
47.2800 -31.4893 -0.4161
47.3000 -31.5026 -0.4186
47.3200 -31.5159 -0.4166
47.3400 -31.5292 -0.4157
47.3600 -31.5426 -0.4139
47.3800 -31.5559 -0.4160
47.4000 -31.5692 -0.4162
47.4200 -31.5826 -0.4163
47.4400 -31.5959 -0.4167
47.4600 -31.6092 -0.4155
47.4800 -31.6225 -0.4154
47.5000 -31.6359 -0.4153
47.5200 -31.6493 -0.4138
47.5400 -31.6627 -0.4150
47.5600 -31.6760 -0.4139
47.5800 -31.6893 -0.4126
47.6000 -31.7026 -0.4140
47.6200 -31.7160 -0.4130
47.6400 -31.7293 -0.4138
47.6600 -31.7426 -0.4124
47.6800 -31.7560 -0.4127
47.7000 -31.7693 -0.4135
47.7200 -31.7826 -0.4115
47.7400 -31.7959 -0.4102
47.7600 -31.8092 -0.4126
47.7800 -31.8225 -0.4115
47.8000 -31.8359 -0.4120
47.8200 -31.8492 -0.4090
47.8400 -31.8625 -0.4107
47.8600 -31.8759 -0.4113
47.8800 -31.8893 -0.4113
47.9000 -31.9027 -0.4086
47.9200 -31.9160 -0.4102
47.9400 -31.9293 -0.4079
47.9600 -31.9426 -0.4083
47.9800 -31.9560 -0.4070
48.0000 -31.9694 -0.4055
48.0200 -31.9827 -0.4075
48.0400 -31.9960 -0.4068
48.0600 -32.0093 -0.4067
48.0800 -32.0226 -0.4040
48.1000 -32.0359 -0.4065
48.1200 -32.0492 -0.4053
48.1400 -32.0626 -0.4053
48.1600 -32.0759 -0.4041
48.1800 -32.0893 -0.4044
48.2000 -32.1026 -0.4033
48.2200 -32.1159 -0.4040
48.2400 -32.1293 -0.4012
48.2600 -32.1427 -0.4031
48.2800 -32.1560 -0.4018
48.3000 -32.1693 -0.4009
48.3200 -32.1826 -0.4001
48.3400 -32.1960 -0.4013
48.3600 -32.2093 -0.3982
48.3800 -32.2226 -0.3996
48.4000 -32.2359 -0.3997
48.4200 -32.2493 -0.3970
48.4400 -32.2626 -0.3948
48.4600 -32.2759 -0.3934
48.4800 -32.2892 -0.3935
48.5000 -32.3026 -0.3924
48.5200 -32.3159 -0.3931
48.5400 -32.3293 -0.3920
48.5600 -32.3426 -0.3923
48.5800 -32.3559 -0.3918
48.6000 -32.3693 -0.3905
48.6200 -32.3827 -0.3900
48.6400 -32.3960 -0.3907
48.6600 -32.4093 -0.3880
48.6800 -32.4226 -0.3890
48.7000 -32.4360 -0.3875
48.7200 -32.4493 -0.3872
48.7400 -32.4626 -0.3868
48.7600 -32.4760 -0.3889
48.7800 -32.4893 -0.3859
48.8000 -32.5026 -0.3883
48.8200 -32.5159 -0.3868
48.8400 -32.5292 -0.3850
48.8600 -32.5425 -0.3863
48.8800 -32.5559 -0.3859
48.9000 -32.5693 -0.3833
48.9200 -32.5826 -0.3844
48.9400 -32.5959 -0.3838
48.9600 -32.6093 -0.3844
48.9800 -32.6227 -0.3826
49.0000 -32.6360 -0.3831
49.0200 -32.6493 -0.3833
49.0400 -32.6627 -0.3832
49.0600 -32.6760 -0.3830
49.0800 -32.6893 -0.3810
49.1000 -32.7026 -0.3800
49.1200 -32.7159 -0.3808
49.1400 -32.7293 -0.3799
49.1600 -32.7426 -0.3777
49.1800 -32.7559 -0.3765
49.2000 -32.7692 -0.3771
49.2200 -32.7826 -0.3770
49.2400 -32.7959 -0.3761
49.2600 -32.8093 -0.3757
49.2800 -32.8226 -0.3750
49.3000 -32.8359 -0.3771
49.3200 -32.8493 -0.3759
49.3400 -32.8626 -0.3766
49.3600 -32.8760 -0.3748
49.3800 -32.8893 -0.3751
49.4000 -32.9026 -0.3746
49.4200 -32.9160 -0.3763
49.4400 -32.9293 -0.3757
49.4600 -32.9427 -0.3736
49.4800 -32.9560 -0.3711
49.5000 -32.9693 -0.3742
49.5200 -32.9827 -0.3721
49.5400 -32.9959 -0.3750
49.5600 -33.0092 -0.3734
49.5800 -33.0225 -0.3736
49.6000 -33.0359 -0.3742
49.6200 -33.0493 -0.3727
49.6400 -33.0626 -0.3722
49.6600 -33.0759 -0.3732
49.6800 -33.0892 -0.3713
49.7000 -33.1026 -0.3728
49.7200 -33.1159 -0.3731
49.7400 -33.1292 -0.3731
49.7600 -33.1426 -0.3743
49.7800 -33.1560 -0.3731
49.8000 -33.1693 -0.3728
49.8200 -33.1826 -0.3720
49.8400 -33.1960 -0.3717
49.8600 -33.2093 -0.3730
49.8800 -33.2227 -0.3720
49.9000 -33.2359 -0.3718
49.9200 -33.2492 -0.3719
49.9400 -33.2625 -0.3709
49.9600 -33.2759 -0.3705
49.9800 -33.2893 -0.3681
50.0000 -33.3026 -0.3692
50.0200 -33.3159 -0.3699
50.0400 -33.3292 -0.3710
50.0600 -33.3426 -0.3693
50.0800 -33.3560 -0.3690
50.1000 -33.3693 -0.3693
50.1200 -33.3826 -0.3696
50.1400 -33.3960 -0.3682
50.1600 -33.4093 -0.3663
50.1800 -33.4226 -0.3667
50.2000 -33.4359 -0.3657
50.2200 -33.4492 -0.3646
50.2400 -33.4626 -0.3654
50.2600 -33.4759 -0.3629
50.2800 -33.4892 -0.3617
50.3000 -33.5025 -0.3624
50.3200 -33.5159 -0.3613
50.3400 -33.5292 -0.3629
50.3600 -33.5426 -0.3599
50.3800 -33.5559 -0.3610
50.4000 -33.5693 -0.3603
50.4200 -33.5827 -0.3596
50.4400 -33.5960 -0.3586
50.4600 -33.6093 -0.3606
50.4800 -33.6226 -0.3570
50.5000 -33.6360 -0.3559
50.5200 -33.6494 -0.3529
50.5400 -33.6627 -0.3542
50.5600 -33.6760 -0.3513
50.5800 -33.6893 -0.3550
50.6000 -33.7026 -0.3513
50.6200 -33.7160 -0.3515
50.6400 -33.7293 -0.3501
50.6600 -33.7426 -0.3489
50.6800 -33.7559 -0.3510
50.7000 -33.7693 -0.3500
50.7200 -33.7826 -0.3496
50.7400 -33.7959 -0.3474
50.7600 -33.8093 -0.3474
50.7800 -33.8226 -0.3467
50.8000 -33.8360 -0.3471
50.8200 -33.8493 -0.3466
50.8400 -33.8626 -0.3476
50.8600 -33.8760 -0.3453
50.8800 -33.8893 -0.3450
50.9000 -33.9026 -0.3449
50.9200 -33.9159 -0.3458
50.9400 -33.9293 -0.3462
50.9600 -33.9426 -0.3442
50.9800 -33.9559 -0.3427
51.0000 -33.9692 -0.3442
51.0200 -33.9825 -0.3416
51.0400 -33.9958 -0.3423
51.0600 -34.0092 -0.3428
51.0800 -34.0226 -0.3433
51.1000 -34.0359 -0.3397
51.1200 -34.0493 -0.3397
51.1400 -34.0627 -0.3380
51.1600 -34.0760 -0.3365
51.1800 -34.0893 -0.3359
51.2000 -34.1026 -0.3352
51.2200 -34.1159 -0.3325
51.2400 -34.1293 -0.3344
51.2600 -34.1426 -0.3309
51.2800 -34.1559 -0.3341
51.3000 -34.1693 -0.3337
51.3200 -34.1826 -0.3345
51.3400 -34.1959 -0.3324
51.3600 -34.2092 -0.3330
51.3800 -34.2225 -0.3323
51.4000 -34.2359 -0.3318
51.4200 -34.2493 -0.3324
51.4400 -34.2626 -0.3305
51.4600 -34.2759 -0.3305
51.4800 -34.2893 -0.3306
51.5000 -34.3027 -0.3304
51.5200 -34.3160 -0.3296
51.5400 -34.3293 -0.3307
51.5600 -34.3426 -0.3275
51.5800 -34.3560 -0.3269
51.6000 -34.3694 -0.3273
51.6200 -34.3827 -0.3285
51.6400 -34.3960 -0.3286
51.6600 -34.4093 -0.3306
51.6800 -34.4226 -0.3296
51.7000 -34.4359 -0.3299
51.7200 -34.4492 -0.3301
51.7400 -34.4625 -0.3301
51.7600 -34.4759 -0.3301
51.7800 -34.4892 -0.3289
51.8000 -34.5026 -0.3302
51.8200 -34.5159 -0.3314
51.8400 -34.5293 -0.3311
51.8600 -34.5427 -0.3311
51.8800 -34.5560 -0.3295
51.9000 -34.5693 -0.3287
51.9200 -34.5826 -0.3284
51.9400 -34.5960 -0.3273
51.9600 -34.6093 -0.3288
51.9800 -34.6227 -0.3283
52.0000 -34.6360 -0.3259
52.0200 -34.6493 -0.3252
52.0400 -34.6626 -0.3255
52.0600 -34.6759 -0.3242
52.0800 -34.6892 -0.3247
52.1000 -34.7025 -0.3248
52.1200 -34.7159 -0.3215
52.1400 -34.7292 -0.3194
52.1600 -34.7426 -0.3197
52.1800 -34.7559 -0.3170
52.2000 -34.7693 -0.3167
52.2200 -34.7826 -0.3157
52.2400 -34.7960 -0.3117
52.2600 -34.8093 -0.3125
52.2800 -34.8226 -0.3116
52.3000 -34.8360 -0.3109
52.3200 -34.8493 -0.3104
52.3400 -34.8626 -0.3083
52.3600 -34.8759 -0.3066
52.3800 -34.8892 -0.3056
52.4000 -34.9026 -0.3072
52.4200 -34.9159 -0.3064
52.4400 -34.9292 -0.3077
52.4600 -34.9425 -0.3064
52.4800 -34.9559 -0.3047
52.5000 -34.9693 -0.3059
52.5200 -34.9826 -0.3033
52.5400 -34.9959 -0.3033
52.5600 -35.0093 -0.3028
52.5800 -35.0226 -0.3034
52.6000 -35.0360 -0.3026
52.6200 -35.0493 -0.3030
52.6400 -35.0626 -0.3009
52.6600 -35.0759 -0.2987
52.6800 -35.0893 -0.3002
52.7000 -35.1026 -0.3020
52.7200 -35.1159 -0.2982
52.7400 -35.1293 -0.2959
52.7600 -35.1426 -0.2952
52.7800 -35.1560 -0.2928
52.8000 -35.1693 -0.2940
52.8200 -35.1826 -0.2941
52.8400 -35.1959 -0.2904
52.8600 -35.2093 -0.2924
52.8800 -35.2226 -0.2914
52.9000 -35.2359 -0.2904
52.9200 -35.2493 -0.2895
52.9400 -35.2626 -0.2881
52.9600 -35.2760 -0.2851
52.9800 -35.2893 -0.2862
53.0000 -35.3026 -0.2843
53.0200 -35.3160 -0.2829
53.0400 -35.3293 -0.2851
53.0600 -35.3427 -0.2850
53.0800 -35.3560 -0.2831
53.1000 -35.3693 -0.2826
53.1200 -35.3826 -0.2823
53.1400 -35.3959 -0.2806
53.1600 -35.4092 -0.2820
53.1800 -35.4225 -0.2820
53.2000 -35.4359 -0.2818
53.2200 -35.4492 -0.2800
53.2400 -35.4626 -0.2818
53.2600 -35.4759 -0.2793
53.2800 -35.4893 -0.2815
53.3000 -35.5026 -0.2791
53.3200 -35.5160 -0.2796
53.3400 -35.5293 -0.2804
53.3600 -35.5426 -0.2805
53.3800 -35.5559 -0.2769
53.4000 -35.5693 -0.2794
53.4200 -35.5826 -0.2765
53.4400 -35.5959 -0.2774
53.4600 -35.6093 -0.2759
53.4800 -35.6226 -0.2774
53.5000 -35.6360 -0.2743
53.5200 -35.6493 -0.2736
53.5400 -35.6625 -0.2739
53.5600 -35.6759 -0.2722
53.5800 -35.6893 -0.2720
53.6000 -35.7026 -0.2699
53.6200 -35.7159 -0.2696
53.6400 -35.7292 -0.2697
53.6600 -35.7426 -0.2680
53.6800 -35.7560 -0.2668
53.7000 -35.7693 -0.2678
53.7200 -35.7826 -0.2684
53.7400 -35.7959 -0.2670
53.7600 -35.8093 -0.2659
53.7800 -35.8226 -0.2669
53.8000 -35.8360 -0.2634
53.8200 -35.8493 -0.2658
53.8400 -35.8626 -0.2650
53.8600 -35.8760 -0.2648
53.8800 -35.8893 -0.2656
53.9000 -35.9026 -0.2655
53.9200 -35.9159 -0.2627
53.9400 -35.9293 -0.2595
53.9600 -35.9426 -0.2577
53.9800 -35.9559 -0.2551
54.0000 -35.9693 -0.2549
54.0200 -35.9826 -0.2548
54.0400 -35.9960 -0.2533
54.0600 -36.0093 -0.2523
54.0800 -36.0226 -0.2549
54.1000 -36.0359 -0.2508
54.1200 -36.0493 -0.2510
54.1400 -36.0626 -0.2510
54.1600 -36.0759 -0.2504
54.1800 -36.0893 -0.2493
54.2000 -36.1026 -0.2533
54.2200 -36.1159 -0.2498
54.2400 -36.1292 -0.2524
54.2600 -36.1426 -0.2517
54.2800 -36.1559 -0.2508
54.3000 -36.1693 -0.2515
54.3200 -36.1826 -0.2510
54.3400 -36.1959 -0.2489
54.3600 -36.2093 -0.2508
54.3800 -36.2226 -0.2513
54.4000 -36.2360 -0.2490
54.4200 -36.2493 -0.2495
54.4400 -36.2626 -0.2490
54.4600 -36.2759 -0.2490
54.4800 -36.2893 -0.2481
54.5000 -36.3026 -0.2466
54.5200 -36.3159 -0.2464
54.5400 -36.3292 -0.2442
54.5600 -36.3426 -0.2423
54.5800 -36.3559 -0.2401
54.6000 -36.3692 -0.2398
54.6200 -36.3826 -0.2413
54.6400 -36.3959 -0.2392
54.6600 -36.4093 -0.2391
54.6800 -36.4226 -0.2380
54.7000 -36.4359 -0.2387
54.7200 -36.4493 -0.2359
54.7400 -36.4626 -0.2375
54.7600 -36.4760 -0.2348
54.7800 -36.4893 -0.2362
54.8000 -36.5026 -0.2341
54.8200 -36.5159 -0.2329
54.8400 -36.5293 -0.2287
54.8600 -36.5426 -0.2296
54.8800 -36.5560 -0.2274
54.9000 -36.5693 -0.2307
54.9200 -36.5826 -0.2296
54.9400 -36.5960 -0.2276
54.9600 -36.6093 -0.2272
54.9800 -36.6226 -0.2258
55.0000 -36.6359 -0.2246
55.0200 -36.6492 -0.2241
55.0400 -36.6625 -0.2232
55.0600 -36.6759 -0.2207
55.0800 -36.6892 -0.2209
55.1000 -36.7026 -0.2207
55.1200 -36.7160 -0.2194
55.1400 -36.7293 -0.2194
55.1600 -36.7426 -0.2198
55.1800 -36.7560 -0.2177
55.2000 -36.7693 -0.2149
55.2200 -36.7827 -0.2165
55.2400 -36.7960 -0.2140
55.2600 -36.8093 -0.2148
55.2800 -36.8226 -0.2135
55.3000 -36.8359 -0.2145
55.3200 -36.8493 -0.2137
55.3400 -36.8625 -0.2134
55.3600 -36.8759 -0.2117
55.3800 -36.8892 -0.2079
55.4000 -36.9026 -0.2101
55.4200 -36.9159 -0.2064
55.4400 -36.9293 -0.2089
55.4600 -36.9426 -0.2062
55.4800 -36.9560 -0.2058
55.5000 -36.9693 -0.2023
55.5200 -36.9826 -0.2071
55.5400 -36.9959 -0.2030
55.5600 -37.0093 -0.2045
55.5800 -37.0226 -0.2018
55.6000 -37.0360 -0.2042
55.6200 -37.0493 -0.1996
55.6400 -37.0626 -0.1988
55.6600 -37.0759 -0.1951
55.6800 -37.0893 -0.1955
55.7000 -37.1025 -0.1978
55.7200 -37.1159 -0.1944
55.7400 -37.1292 -0.1961
55.7600 -37.1426 -0.1944
55.7800 -37.1559 -0.1939
55.8000 -37.1693 -0.1925
55.8200 -37.1826 -0.1938
55.8400 -37.1960 -0.1902
55.8600 -37.2093 -0.1897
55.8800 -37.2226 -0.1903
55.9000 -37.2360 -0.1906
55.9200 -37.2493 -0.1890
55.9400 -37.2627 -0.1906
55.9600 -37.2760 -0.1882
55.9800 -37.2893 -0.1880
56.0000 -37.3026 -0.1885
56.0200 -37.3160 -0.1869
56.0400 -37.3293 -0.1871
56.0600 -37.3425 -0.1863
56.0800 -37.3559 -0.1842
56.1000 -37.3692 -0.1831
56.1200 -37.3826 -0.1841
56.1400 -37.3959 -0.1849
56.1600 -37.4092 -0.1825
56.1800 -37.4226 -0.1831
56.2000 -37.4360 -0.1814
56.2200 -37.4493 -0.1803
56.2400 -37.4627 -0.1812
56.2600 -37.4760 -0.1786
56.2800 -37.4893 -0.1794
56.3000 -37.5027 -0.1786
56.3200 -37.5160 -0.1792
56.3400 -37.5293 -0.1776
56.3600 -37.5426 -0.1790
56.3800 -37.5560 -0.1743
56.4000 -37.5693 -0.1737
56.4200 -37.5826 -0.1743
56.4400 -37.5959 -0.1743
56.4600 -37.6092 -0.1708
56.4800 -37.6226 -0.1740
56.5000 -37.6359 -0.1709
56.5200 -37.6492 -0.1700
56.5400 -37.6626 -0.1701
56.5600 -37.6759 -0.1674
56.5800 -37.6893 -0.1652
56.6000 -37.7026 -0.1663
56.6200 -37.7159 -0.1656
56.6400 -37.7293 -0.1652
56.6600 -37.7427 -0.1660
56.6800 -37.7560 -0.1630
56.7000 -37.7693 -0.1613
56.7200 -37.7826 -0.1631
56.7400 -37.7960 -0.1639
56.7600 -37.8093 -0.1579
56.7800 -37.8226 -0.1594
56.8000 -37.8359 -0.1564
56.8200 -37.8492 -0.1568
56.8400 -37.8626 -0.1555
56.8600 -37.8759 -0.1556
56.8800 -37.8892 -0.1529
56.9000 -37.9026 -0.1555
56.9200 -37.9160 -0.1524
56.9400 -37.9293 -0.1507
56.9600 -37.9426 -0.1501
56.9800 -37.9559 -0.1497
57.0000 -37.9693 -0.1474
57.0200 -37.9827 -0.1497
57.0400 -37.9960 -0.1482
57.0600 -38.0093 -0.1462
57.0800 -38.0226 -0.1461
57.1000 -38.0360 -0.1442
57.1200 -38.0493 -0.1419
57.1400 -38.0626 -0.1448
57.1600 -38.0759 -0.1420
57.1800 -38.0892 -0.1406
57.2000 -38.1026 -0.1405
57.2200 -38.1159 -0.1412
57.2400 -38.1292 -0.1392
57.2600 -38.1426 -0.1411
57.2800 -38.1559 -0.1373
57.3000 -38.1693 -0.1347
57.3200 -38.1826 -0.1368
57.3400 -38.1960 -0.1361
57.3600 -38.2093 -0.1334
57.3800 -38.2227 -0.1344
57.4000 -38.2360 -0.1335
57.4200 -38.2493 -0.1319
57.4400 -38.2626 -0.1331
57.4600 -38.2759 -0.1295
57.4800 -38.2892 -0.1273
57.5000 -38.3025 -0.1280
57.5200 -38.3158 -0.1299
57.5400 -38.3292 -0.1256
57.5600 -38.3426 -0.1267
57.5800 -38.3559 -0.1232
57.6000 -38.3692 -0.1223
57.6200 -38.3826 -0.1238
57.6400 -38.3960 -0.1196
57.6600 -38.4093 -0.1159
57.6800 -38.4226 -0.1178
57.7000 -38.4359 -0.1157
57.7200 -38.4493 -0.1121
57.7400 -38.4627 -0.1143
57.7600 -38.4760 -0.1142
57.7800 -38.4893 -0.1118
57.8000 -38.5026 -0.1106
57.8200 -38.5160 -0.1095
57.8400 -38.5293 -0.1086
57.8600 -38.5426 -0.1099
57.8800 -38.5559 -0.1069
57.9000 -38.5692 -0.1054
57.9200 -38.5826 -0.1065
57.9400 -38.5959 -0.1057
57.9600 -38.6092 -0.1030
57.9800 -38.6226 -0.1055
58.0000 -38.6359 -0.1055
58.0200 -38.6493 -0.1034
58.0400 -38.6626 -0.1035
58.0600 -38.6759 -0.1026
58.0800 -38.6893 -0.0987
58.1000 -38.7026 -0.1004
58.1200 -38.7160 -0.0968
58.1400 -38.7293 -0.0951
58.1600 -38.7426 -0.0959
58.1800 -38.7560 -0.0958
58.2000 -38.7693 -0.0946
58.2200 -38.7826 -0.0970
58.2400 -38.7959 -0.0936
58.2600 -38.8092 -0.0915
58.2800 -38.8226 -0.0919
58.3000 -38.8359 -0.0915
58.3200 -38.8493 -0.0904
58.3400 -38.8626 -0.0896
58.3600 -38.8760 -0.0883
58.3800 -38.8893 -0.0867
58.4000 -38.9027 -0.0902
58.4200 -38.9160 -0.0860
58.4400 -38.9293 -0.0860
58.4600 -38.9426 -0.0826
58.4800 -38.9560 -0.0814
58.5000 -38.9693 -0.0794
58.5200 -38.9826 -0.0824
58.5400 -38.9959 -0.0779
58.5600 -39.0093 -0.0767
58.5800 -39.0226 -0.0755
58.6000 -39.0359 -0.0757
58.6200 -39.0492 -0.0729
58.6400 -39.0626 -0.0748
58.6600 -39.0760 -0.0726
58.6800 -39.0893 -0.0720
58.7000 -39.1026 -0.0709
58.7200 -39.1160 -0.0698
58.7400 -39.1293 -0.0655
58.7600 -39.1426 -0.0663
58.7800 -39.1559 -0.0660
58.8000 -39.1693 -0.0645
58.8200 -39.1826 -0.0626
58.8400 -39.1960 -0.0626
58.8600 -39.2093 -0.0594
58.8800 -39.2226 -0.0613
58.9000 -39.2359 -0.0615
58.9200 -39.2493 -0.0579
58.9400 -39.2626 -0.0581
58.9600 -39.2758 -0.0559
58.9800 -39.2892 -0.0556
59.0000 -39.3026 -0.0548
59.0200 -39.3159 -0.0550
59.0400 -39.3292 -0.0514
59.0600 -39.3426 -0.0506
59.0800 -39.3559 -0.0480
59.1000 -39.3693 -0.0452
59.1200 -39.3827 -0.0463
59.1400 -39.3960 -0.0460
59.1600 -39.4093 -0.0440
59.1800 -39.4226 -0.0458
59.2000 -39.4360 -0.0437
59.2200 -39.4493 -0.0431
59.2400 -39.4626 -0.0401
59.2600 -39.4759 -0.0406
59.2800 -39.4893 -0.0367
59.3000 -39.5026 -0.0381
59.3200 -39.5159 -0.0384
59.3400 -39.5292 -0.0388
59.3600 -39.5425 -0.0392
59.3800 -39.5559 -0.0378
59.4000 -39.5692 -0.0322
59.4200 -39.5826 -0.0339
59.4400 -39.5960 -0.0342
59.4600 -39.6093 -0.0288
59.4800 -39.6227 -0.0282
59.5000 -39.6360 -0.0278
59.5200 -39.6493 -0.0278
59.5400 -39.6626 -0.0262
59.5600 -39.6760 -0.0268
59.5800 -39.6893 -0.0234
59.6000 -39.7026 -0.0227
59.6200 -39.7159 -0.0208
59.6400 -39.7293 -0.0188
59.6600 -39.7426 -0.0174
59.6800 -39.7559 -0.0175
59.7000 -39.7692 -0.0160
59.7200 -39.7826 -0.0159
59.7400 -39.7959 -0.0152
59.7600 -39.8093 -0.0135
59.7800 -39.8226 -0.0124
59.8000 -39.8360 -0.0109
59.8200 -39.8493 -0.0068
59.8400 -39.8626 -0.0068
59.8600 -39.8759 -0.0067
59.8800 -39.8892 -0.0017
59.9000 -39.9026 -0.0011
59.9200 -39.9160 -0.0022
59.9400 -39.9293 -0.0002
59.9600 -39.9426 -0.0005
59.9800 -39.9559 -0.0009
60.0000 -39.9693 0.0048
60.0200 -39.9826 0.0037
60.0400 -39.9959 0.0061
60.0470 -40.0004 0.0093
