Raw Data
Time Displacement Force
(s) (mm) (N)
0.0000 -0.0001 -0.6705
0.0200 -0.0002 -0.6722
0.0400 -0.0021 -0.6871
0.0600 -0.0096 -0.6864
0.0800 -0.0214 -0.6725
0.1000 -0.0340 -0.6730
0.1200 -0.0468 -0.6738
0.1400 -0.0602 -0.6760
0.1600 -0.0742 -0.6708
0.1800 -0.0883 -0.6746
0.2000 -0.1021 -0.6707
0.2200 -0.1157 -0.6701
0.2400 -0.1291 -0.6730
0.2600 -0.1424 -0.6732
0.2800 -0.1557 -0.6692
0.3000 -0.1690 -0.6704
0.3200 -0.1824 -0.6690
0.3400 -0.1957 -0.6666
0.3600 -0.2091 -0.6702
0.3800 -0.2223 -0.6655
0.4000 -0.2357 -0.6667
0.4200 -0.2490 -0.6655
0.4400 -0.2624 -0.6633
0.4600 -0.2757 -0.6602
0.4800 -0.2891 -0.6634
0.5000 -0.3024 -0.6580
0.5200 -0.3158 -0.6556
0.5400 -0.3291 -0.6563
0.5600 -0.3424 -0.6552
0.5800 -0.3558 -0.6536
0.6000 -0.3691 -0.6525
0.6200 -0.3825 -0.6484
0.6400 -0.3958 -0.6463
0.6600 -0.4091 -0.6474
0.6800 -0.4224 -0.6442
0.7000 -0.4358 -0.6407
0.7200 -0.4491 -0.6407
0.7400 -0.4624 -0.6389
0.7600 -0.4757 -0.6356
0.7800 -0.4891 -0.6373
0.8000 -0.5024 -0.6338
0.8200 -0.5157 -0.6311
0.8400 -0.5291 -0.6333
0.8600 -0.5424 -0.6302
0.8800 -0.5558 -0.6273
0.9000 -0.5691 -0.6277
0.9200 -0.5824 -0.6262
0.9400 -0.5958 -0.6237
0.9600 -0.6092 -0.6236
0.9800 -0.6225 -0.6201
1.0000 -0.6358 -0.6190
1.0200 -0.6491 -0.6193
1.0400 -0.6624 -0.6157
1.0600 -0.6757 -0.6130
1.0800 -0.6890 -0.6131
1.1000 -0.7023 -0.6111
1.1200 -0.7156 -0.6095
1.1400 -0.7290 -0.6114
1.1600 -0.7424 -0.6069
1.1800 -0.7557 -0.6080
1.2000 -0.7691 -0.6070
1.2200 -0.7824 -0.6064
1.2400 -0.7958 -0.6034
1.2600 -0.8092 -0.6036
1.2800 -0.8225 -0.6003
1.3000 -0.8358 -0.5995
1.3200 -0.8491 -0.5990
1.3400 -0.8625 -0.5960
1.3600 -0.8758 -0.5947
1.3800 -0.8891 -0.5941
1.4000 -0.9025 -0.5930
1.4200 -0.9158 -0.5911
1.4400 -0.9291 -0.5922
1.4600 -0.9424 -0.5885
1.4800 -0.9557 -0.5871
1.5000 -0.9690 -0.5870
1.5200 -0.9824 -0.5859
1.5400 -0.9957 -0.5840
1.5600 -1.0091 -0.5839
1.5800 -1.0224 -0.5810
1.6000 -1.0358 -0.5804
1.6200 -1.0492 -0.5799
1.6400 -1.0625 -0.5769
1.6600 -1.0758 -0.5737
1.6800 -1.0891 -0.5731
1.7000 -1.1025 -0.5723
1.7200 -1.1158 -0.5727
1.7400 -1.1291 -0.5725
1.7600 -1.1424 -0.5710
1.7800 -1.1558 -0.5660
1.8000 -1.1691 -0.5656
1.8200 -1.1824 -0.5656
1.8400 -1.1957 -0.5652
1.8600 -1.2091 -0.5619
1.8800 -1.2224 -0.5632
1.9000 -1.2358 -0.5601
1.9200 -1.2491 -0.5607
1.9400 -1.2625 -0.5594
1.9600 -1.2758 -0.5582
1.9800 -1.2892 -0.5573
2.0000 -1.3024 -0.5556
2.0200 -1.3157 -0.5528
2.0400 -1.3291 -0.5534
2.0600 -1.3425 -0.5529
2.0800 -1.3558 -0.5476
2.1000 -1.3691 -0.5476
2.1200 -1.3824 -0.5459
2.1400 -1.3958 -0.5439
2.1600 -1.4091 -0.5438
2.1800 -1.4224 -0.5448
2.2000 -1.4357 -0.5394
2.2200 -1.4491 -0.5404
2.2400 -1.4624 -0.5388
2.2600 -1.4757 -0.5381
2.2800 -1.4891 -0.5395
2.3000 -1.5024 -0.5374
2.3200 -1.5158 -0.5337
2.3400 -1.5292 -0.5332
2.3600 -1.5425 -0.5328
2.3800 -1.5558 -0.5282
2.4000 -1.5692 -0.5294
2.4200 -1.5825 -0.5288
2.4400 -1.5958 -0.5245
2.4600 -1.6091 -0.5252
2.4800 -1.6224 -0.5256
2.5000 -1.6358 -0.5220
2.5200 -1.6491 -0.5200
2.5400 -1.6624 -0.5200
2.5600 -1.6757 -0.5172
2.5800 -1.6890 -0.5188
2.6000 -1.7024 -0.5168
2.6200 -1.7158 -0.5150
2.6400 -1.7291 -0.5119
2.6600 -1.7424 -0.5115
2.6800 -1.7558 -0.5072
2.7000 -1.7692 -0.5090
2.7200 -1.7825 -0.5078
2.7400 -1.7958 -0.5060
2.7600 -1.8091 -0.5048
2.7800 -1.8225 -0.5034
2.8000 -1.8358 -0.5020
2.8200 -1.8491 -0.5028
2.8400 -1.8624 -0.5031
2.8600 -1.8758 -0.4998
2.8800 -1.8891 -0.4997
2.9000 -1.9024 -0.4988
2.9200 -1.9157 -0.4974
2.9400 -1.9291 -0.4956
2.9600 -1.9424 -0.4969
2.9800 -1.9558 -0.4947
3.0000 -1.9691 -0.4959
3.0200 -1.9824 -0.4947
3.0400 -1.9958 -0.4927
3.0600 -2.0091 -0.4911
3.0800 -2.0225 -0.4906
3.1000 -2.0358 -0.4885
3.1200 -2.0491 -0.4892
3.1400 -2.0625 -0.4875
3.1600 -2.0758 -0.4844
3.1800 -2.0891 -0.4845
3.2000 -2.1025 -0.4832
3.2200 -2.1158 -0.4818
3.2400 -2.1291 -0.4810
3.2600 -2.1424 -0.4812
3.2800 -2.1557 -0.4759
3.3000 -2.1691 -0.4765
3.3200 -2.1824 -0.4766
3.3400 -2.1958 -0.4730
3.3600 -2.2091 -0.4735
3.3800 -2.2224 -0.4745
3.4000 -2.2358 -0.4707
3.4200 -2.2492 -0.4714
3.4400 -2.2625 -0.4727
3.4600 -2.2758 -0.4672
3.4800 -2.2891 -0.4670
3.5000 -2.3025 -0.4662
3.5200 -2.3158 -0.4662
3.5400 -2.3291 -0.4673
3.5600 -2.3424 -0.4650
3.5800 -2.3558 -0.4610
3.6000 -2.3691 -0.4588
3.6200 -2.3824 -0.4602
3.6400 -2.3957 -0.4587
3.6600 -2.4091 -0.4586
3.6800 -2.4224 -0.4571
3.7000 -2.4358 -0.4553
3.7200 -2.4491 -0.4549
3.7400 -2.4624 -0.4538
3.7600 -2.4758 -0.4512
3.7800 -2.4892 -0.4499
3.8000 -2.5025 -0.4514
3.8200 -2.5158 -0.4499
3.8400 -2.5291 -0.4507
3.8600 -2.5425 -0.4479
3.8800 -2.5558 -0.4461
3.9000 -2.5691 -0.4460
3.9200 -2.5824 -0.4471
3.9400 -2.5958 -0.4445
3.9600 -2.6091 -0.4455
3.9800 -2.6224 -0.4440
4.0000 -2.6357 -0.4414
4.0200 -2.6491 -0.4397
4.0400 -2.6624 -0.4418
4.0600 -2.6758 -0.4369
4.0800 -2.6891 -0.4388
4.1000 -2.7024 -0.4368
4.1200 -2.7158 -0.4372
4.1400 -2.7291 -0.4344
4.1600 -2.7425 -0.4353
4.1800 -2.7558 -0.4312
4.2000 -2.7691 -0.4318
4.2200 -2.7824 -0.4301
4.2400 -2.7958 -0.4290
4.2600 -2.8091 -0.4256
4.2800 -2.8225 -0.4282
4.3000 -2.8358 -0.4242
4.3200 -2.8492 -0.4255
4.3400 -2.8624 -0.4255
4.3600 -2.8757 -0.4229
4.3800 -2.8890 -0.4219
4.4000 -2.9024 -0.4219
4.4200 -2.9157 -0.4194
4.4400 -2.9290 -0.4177
4.4600 -2.9424 -0.4184
4.4800 -2.9558 -0.4146
4.5000 -2.9692 -0.4149
4.5200 -2.9825 -0.4141
4.5400 -2.9958 -0.4125
4.5600 -3.0091 -0.4120
4.5800 -3.0225 -0.4139
4.6000 -3.0358 -0.4076
4.6200 -3.0491 -0.4095
4.6400 -3.0624 -0.4099
4.6600 -3.0757 -0.4089
4.6800 -3.0891 -0.4069
4.7000 -3.1024 -0.4082
4.7200 -3.1157 -0.4059
4.7400 -3.1291 -0.4070
4.7600 -3.1424 -0.4074
4.7800 -3.1558 -0.4067
4.8000 -3.1691 -0.4053
4.8200 -3.1824 -0.4076
4.8400 -3.1958 -0.4038
4.8600 -3.2092 -0.4040
4.8800 -3.2225 -0.4026
4.9000 -3.2358 -0.4012
4.9200 -3.2491 -0.4011
4.9400 -3.2625 -0.4016
4.9600 -3.2758 -0.3980
4.9800 -3.2891 -0.3980
5.0000 -3.3024 -0.3959
5.0200 -3.3158 -0.3946
5.0400 -3.3291 -0.3926
5.0600 -3.3424 -0.3929
5.0800 -3.3557 -0.3901
5.1000 -3.3690 -0.3901
5.1200 -3.3824 -0.3901
5.1400 -3.3958 -0.3875
5.1600 -3.4091 -0.3861
5.1800 -3.4224 -0.3866
5.2000 -3.4358 -0.3851
5.2200 -3.4491 -0.3811
5.2400 -3.4625 -0.3848
5.2600 -3.4758 -0.3818
5.2800 -3.4891 -0.3825
5.3000 -3.5025 -0.3811
5.3200 -3.5158 -0.3798
5.3400 -3.5291 -0.3770
5.3600 -3.5425 -0.3792
5.3800 -3.5558 -0.3777
5.4000 -3.5691 -0.3758
5.4200 -3.5824 -0.3780
5.4400 -3.5957 -0.3746
5.4600 -3.6090 -0.3758
5.4800 -3.6224 -0.3755
5.5000 -3.6357 -0.3732
5.5200 -3.6490 -0.3707
5.5400 -3.6624 -0.3721
5.5600 -3.6757 -0.3696
5.5800 -3.6891 -0.3692
5.6000 -3.7025 -0.3688
5.6200 -3.7158 -0.3685
5.6400 -3.7291 -0.3643
5.6600 -3.7425 -0.3673
5.6800 -3.7558 -0.3645
5.7000 -3.7692 -0.3643
5.7200 -3.7825 -0.3631
5.7400 -3.7958 -0.3614
5.7600 -3.8091 -0.3573
5.7800 -3.8224 -0.3585
5.8000 -3.8357 -0.3556
5.8200 -3.8491 -0.3555
5.8400 -3.8624 -0.3558
5.8600 -3.8758 -0.3554
5.8800 -3.8891 -0.3534
5.9000 -3.9024 -0.3542
5.9200 -3.9158 -0.3520
5.9400 -3.9291 -0.3507
5.9600 -3.9425 -0.3524
5.9800 -3.9558 -0.3506
6.0000 -3.9691 -0.3490
6.0200 -3.9825 -0.3467
6.0400 -3.9958 -0.3458
6.0600 -4.0092 -0.3460
6.0800 -4.0225 -0.3445
6.1000 -4.0358 -0.3441
6.1200 -4.0492 -0.3435
6.1400 -4.0625 -0.3416
6.1600 -4.0757 -0.3414
6.1800 -4.0891 -0.3395
6.2000 -4.1024 -0.3407
6.2200 -4.1158 -0.3389
6.2400 -4.1291 -0.3403
6.2600 -4.1424 -0.3374
6.2800 -4.1557 -0.3358
6.3000 -4.1691 -0.3329
6.3200 -4.1825 -0.3354
6.3400 -4.1958 -0.3343
6.3600 -4.2091 -0.3368
6.3800 -4.2225 -0.3350
6.4000 -4.2358 -0.3354
6.4200 -4.2492 -0.3322
6.4400 -4.2625 -0.3332
6.4600 -4.2758 -0.3286
6.4800 -4.2891 -0.3294
6.5000 -4.3025 -0.3265
6.5200 -4.3157 -0.3267
6.5400 -4.3290 -0.3248
6.5600 -4.3424 -0.3277
6.5800 -4.3558 -0.3234
6.6000 -4.3691 -0.3238
6.6200 -4.3824 -0.3219
6.6400 -4.3957 -0.3211
6.6600 -4.4091 -0.3209
6.6800 -4.4225 -0.3206
6.7000 -4.4358 -0.3212
6.7200 -4.4491 -0.3195
6.7400 -4.4625 -0.3192
6.7600 -4.4758 -0.3175
6.7800 -4.4892 -0.3154
6.8000 -4.5024 -0.3160
6.8200 -4.5157 -0.3131
6.8400 -4.5291 -0.3112
6.8600 -4.5424 -0.3123
6.8800 -4.5557 -0.3126
6.9000 -4.5690 -0.3096
6.9200 -4.5824 -0.3080
6.9400 -4.5958 -0.3076
6.9600 -4.6091 -0.3043
6.9800 -4.6224 -0.3062
7.0000 -4.6358 -0.3043
7.0200 -4.6492 -0.3007
7.0400 -4.6625 -0.2993
7.0600 -4.6758 -0.3003
7.0800 -4.6891 -0.3009
7.1000 -4.7024 -0.3026
7.1200 -4.7158 -0.2993
7.1400 -4.7291 -0.2975
7.1600 -4.7424 -0.2973
7.1800 -4.7558 -0.2973
7.2000 -4.7691 -0.2953
7.2200 -4.7825 -0.2964
7.2400 -4.7958 -0.2944
7.2600 -4.8091 -0.2931
7.2800 -4.8224 -0.2942
7.3000 -4.8358 -0.2921
7.3200 -4.8491 -0.2892
7.3400 -4.8624 -0.2931
7.3600 -4.8758 -0.2909
7.3800 -4.8891 -0.2912
7.4000 -4.9025 -0.2895
7.4200 -4.9158 -0.2900
7.4400 -4.9291 -0.2885
7.4600 -4.9425 -0.2884
7.4800 -4.9558 -0.2852
7.5000 -4.9692 -0.2840
7.5200 -4.9825 -0.2847
7.5400 -4.9958 -0.2827
7.5600 -5.0091 -0.2814
7.5800 -5.0224 -0.2809
7.6000 -5.0357 -0.2804
7.6200 -5.0490 -0.2784
7.6400 -5.0624 -0.2793
7.6600 -5.0758 -0.2775
7.6800 -5.0891 -0.2774
7.7000 -5.1024 -0.2765
7.7200 -5.1158 -0.2765
7.7400 -5.1291 -0.2761
7.7600 -5.1425 -0.2753
7.7800 -5.1558 -0.2768
7.8000 -5.1691 -0.2735
7.8200 -5.1824 -0.2747
7.8400 -5.1958 -0.2700
7.8600 -5.2091 -0.2714
7.8800 -5.2224 -0.2706
7.9000 -5.2357 -0.2698
7.9200 -5.2491 -0.2659
7.9400 -5.2624 -0.2657
7.9600 -5.2757 -0.2658
7.9800 -5.2890 -0.2661
8.0000 -5.3024 -0.2645
8.0200 -5.3158 -0.2654
8.0400 -5.3291 -0.2621
8.0600 -5.3424 -0.2640
8.0800 -5.3558 -0.2631
8.1000 -5.3691 -0.2625
8.1200 -5.3825 -0.2619
8.1400 -5.3958 -0.2604
8.1600 -5.4091 -0.2588
8.1800 -5.4225 -0.2581
8.2000 -5.4358 -0.2579
8.2200 -5.4492 -0.2565
8.2400 -5.4625 -0.2551
8.2600 -5.4758 -0.2549
8.2800 -5.4891 -0.2535
8.3000 -5.5024 -0.2524
8.3200 -5.5157 -0.2538
8.3400 -5.5290 -0.2515
8.3600 -5.5424 -0.2507
8.3800 -5.5557 -0.2503
8.4000 -5.5691 -0.2498
8.4200 -5.5824 -0.2489
8.4400 -5.5958 -0.2489
8.4600 -5.6091 -0.2484
8.4800 -5.6225 -0.2469
8.5000 -5.6358 -0.2471
8.5200 -5.6491 -0.2454
8.5400 -5.6625 -0.2458
8.5600 -5.6758 -0.2464
8.5800 -5.6892 -0.2412
8.6000 -5.7025 -0.2412
8.6200 -5.7158 -0.2408
8.6400 -5.7291 -0.2387
8.6600 -5.7424 -0.2390
8.6800 -5.7557 -0.2398
8.7000 -5.7690 -0.2379
8.7200 -5.7824 -0.2388
8.7400 -5.7957 -0.2352
8.7600 -5.8091 -0.2349
8.7800 -5.8224 -0.2329
8.8000 -5.8357 -0.2344
8.8200 -5.8491 -0.2312
8.8400 -5.8625 -0.2309
8.8600 -5.8758 -0.2310
8.8800 -5.8891 -0.2315
8.9000 -5.9025 -0.2291
8.9200 -5.9158 -0.2292
8.9400 -5.9292 -0.2278
8.9600 -5.9425 -0.2273
8.9800 -5.9558 -0.2259
9.0000 -5.9691 -0.2262
9.0200 -5.9824 -0.2239
9.0400 -5.9957 -0.2233
9.0600 -6.0090 -0.2230
9.0800 -6.0224 -0.2229
9.1000 -6.0358 -0.2237
9.1200 -6.0491 -0.2202
9.1400 -6.0624 -0.2198
9.1600 -6.0758 -0.2185
9.1800 -6.0891 -0.2177
9.2000 -6.1025 -0.2176
9.2200 -6.1158 -0.2195
9.2400 -6.1291 -0.2191
9.2600 -6.1424 -0.2182
9.2800 -6.1558 -0.2158
9.3000 -6.1691 -0.2161
9.3200 -6.1825 -0.2140
9.3400 -6.1958 -0.2157
9.3600 -6.2091 -0.2146
9.3800 -6.2225 -0.2107
9.4000 -6.2358 -0.2114
9.4200 -6.2491 -0.2109
9.4400 -6.2624 -0.2089
9.4600 -6.2757 -0.2087
9.4800 -6.2891 -0.2082
9.5000 -6.3024 -0.2084
9.5200 -6.3157 -0.2081
9.5400 -6.3291 -0.2068
9.5600 -6.3425 -0.2043
9.5800 -6.3558 -0.2052
9.6000 -6.3691 -0.2047
9.6200 -6.3825 -0.2026
9.6400 -6.3958 -0.2024
9.6600 -6.4092 -0.1997
9.6800 -6.4225 -0.2006
9.7000 -6.4358 -0.1991
9.7200 -6.4491 -0.1999
9.7400 -6.4624 -0.1984
9.7600 -6.4757 -0.1974
9.7800 -6.4891 -0.1970
9.8000 -6.5024 -0.1973
9.8200 -6.5157 -0.1959
9.8400 -6.5291 -0.1951
9.8600 -6.5424 -0.1940
9.8800 -6.5557 -0.1934
9.9000 -6.5691 -0.1920
9.9200 -6.5825 -0.1916
9.9400 -6.5958 -0.1922
9.9600 -6.6091 -0.1909
9.9800 -6.6224 -0.1906
10.0000 -6.6358 -0.1901
10.0200 -6.6491 -0.1897
10.0400 -6.6625 -0.1877
10.0600 -6.6758 -0.1869
10.0800 -6.6891 -0.1867
10.1000 -6.7025 -0.1851
10.1200 -6.7158 -0.1846
10.1400 -6.7291 -0.1850
10.1600 -6.7424 -0.1834
10.1800 -6.7557 -0.1844
10.2000 -6.7691 -0.1843
10.2200 -6.7824 -0.1829
10.2400 -6.7957 -0.1810
10.2600 -6.8091 -0.1815
10.2800 -6.8225 -0.1787
10.3000 -6.8358 -0.1793
10.3200 -6.8491 -0.1778
10.3400 -6.8624 -0.1779
10.3600 -6.8758 -0.1760
10.3800 -6.8891 -0.1769
10.4000 -6.9025 -0.1741
10.4200 -6.9158 -0.1733
10.4400 -6.9291 -0.1734
10.4600 -6.9425 -0.1713
10.4800 -6.9558 -0.1719
10.5000 -6.9691 -0.1736
10.5200 -6.9824 -0.1700
10.5400 -6.9957 -0.1714
10.5600 -7.0091 -0.1689
10.5800 -7.0224 -0.1688
10.6000 -7.0358 -0.1686
10.6200 -7.0491 -0.1674
10.6400 -7.0625 -0.1653
10.6600 -7.0758 -0.1620
10.6800 -7.0891 -0.1639
10.7000 -7.1024 -0.1614
10.7200 -7.1158 -0.1632
10.7400 -7.1291 -0.1617
10.7600 -7.1424 -0.1633
10.7800 -7.1558 -0.1609
10.8000 -7.1691 -0.1600
10.8200 -7.1824 -0.1578
10.8400 -7.1957 -0.1583
10.8600 -7.2090 -0.1576
10.8800 -7.2224 -0.1569
10.9000 -7.2357 -0.1557
10.9200 -7.2491 -0.1558
10.9400 -7.2624 -0.1531
10.9600 -7.2758 -0.1544
10.9800 -7.2891 -0.1520
11.0000 -7.3025 -0.1524
11.0200 -7.3158 -0.1506
11.0400 -7.3291 -0.1506
11.0600 -7.3424 -0.1477
11.0800 -7.3558 -0.1476
11.1000 -7.3691 -0.1459
11.1200 -7.3825 -0.1451
11.1400 -7.3958 -0.1447
11.1600 -7.4091 -0.1456
11.1800 -7.4224 -0.1449
11.2000 -7.4358 -0.1438
11.2200 -7.4491 -0.1418
11.2400 -7.4624 -0.1398
11.2600 -7.4758 -0.1389
11.2800 -7.4891 -0.1398
11.3000 -7.5024 -0.1393
11.3200 -7.5158 -0.1392
11.3400 -7.5291 -0.1379
11.3600 -7.5425 -0.1375
11.3800 -7.5558 -0.1357
11.4000 -7.5691 -0.1358
11.4200 -7.5824 -0.1364
11.4400 -7.5958 -0.1353
11.4600 -7.6092 -0.1362
11.4800 -7.6225 -0.1324
11.5000 -7.6358 -0.1334
11.5200 -7.6491 -0.1319
11.5400 -7.6625 -0.1329
11.5600 -7.6758 -0.1303
11.5800 -7.6891 -0.1315
11.6000 -7.7024 -0.1294
11.6200 -7.7157 -0.1298
11.6400 -7.7291 -0.1252
11.6600 -7.7424 -0.1254
11.6800 -7.7557 -0.1241
11.7000 -7.7691 -0.1253
11.7200 -7.7825 -0.1243
11.7400 -7.7958 -0.1232
11.7600 -7.8091 -0.1217
11.7800 -7.8225 -0.1230
11.8000 -7.8358 -0.1223
11.8200 -7.8492 -0.1191
11.8400 -7.8625 -0.1171
11.8600 -7.8758 -0.1180
11.8800 -7.8891 -0.1193
11.9000 -7.9024 -0.1184
11.9200 -7.9158 -0.1175
11.9400 -7.9291 -0.1187
11.9600 -7.9424 -0.1170
11.9800 -7.9557 -0.1149
12.0000 -7.9691 -0.1170
12.0200 -7.9824 -0.1146
12.0400 -7.9957 -0.1131
12.0600 -8.0091 -0.1144
12.0800 -8.0224 -0.1115
12.1000 -8.0358 -0.1133
12.1200 -8.0492 -0.1134
12.1400 -8.0625 -0.1117
12.1600 -8.0758 -0.1106
12.1800 -8.0892 -0.1101
12.2000 -8.1025 -0.1095
12.2200 -8.1158 -0.1080
12.2400 -8.1291 -0.1085
12.2600 -8.1424 -0.1074
12.2800 -8.1558 -0.1063
12.3000 -8.1691 -0.1056
12.3200 -8.1824 -0.1035
12.3400 -8.1957 -0.1020
12.3600 -8.2091 -0.1041
12.3800 -8.2224 -0.1031
12.4000 -8.2357 -0.1027
12.4200 -8.2491 -0.1016
12.4400 -8.2624 -0.1025
12.4600 -8.2758 -0.0990
12.4800 -8.2891 -0.0969
12.5000 -8.3025 -0.0959
12.5200 -8.3158 -0.0952
12.5400 -8.3292 -0.0971
12.5600 -8.3425 -0.0956
12.5800 -8.3558 -0.0938
12.6000 -8.3691 -0.0943
12.6200 -8.3824 -0.0921
12.6400 -8.3958 -0.0925
12.6600 -8.4091 -0.0922
12.6800 -8.4224 -0.0888
12.7000 -8.4357 -0.0884
12.7200 -8.4491 -0.0875
12.7400 -8.4624 -0.0867
12.7600 -8.4757 -0.0851
12.7800 -8.4891 -0.0880
12.8000 -8.5024 -0.0859
12.8200 -8.5158 -0.0833
12.8400 -8.5291 -0.0831
12.8600 -8.5424 -0.0823
12.8800 -8.5558 -0.0813
12.9000 -8.5691 -0.0807
12.9200 -8.5825 -0.0796
12.9400 -8.5958 -0.0796
12.9600 -8.6091 -0.0778
12.9800 -8.6225 -0.0768
13.0000 -8.6358 -0.0738
13.0200 -8.6491 -0.0768
13.0400 -8.6624 -0.0753
13.0600 -8.6757 -0.0737
13.0800 -8.6891 -0.0723
13.1000 -8.7024 -0.0725
13.1200 -8.7157 -0.0717
13.1400 -8.7291 -0.0724
13.1600 -8.7424 -0.0696
13.1800 -8.7558 -0.0694
13.2000 -8.7691 -0.0692
13.2200 -8.7824 -0.0682
13.2400 -8.7958 -0.0685
13.2600 -8.8092 -0.0684
13.2800 -8.8225 -0.0676
13.3000 -8.8358 -0.0667
13.3200 -8.8491 -0.0657
13.3400 -8.8625 -0.0664
13.3600 -8.8758 -0.0652
13.3800 -8.8891 -0.0648
13.4000 -8.9024 -0.0643
13.4200 -8.9157 -0.0615
13.4400 -8.9291 -0.0648
13.4600 -8.9424 -0.0623
13.4800 -8.9557 -0.0639
13.5000 -8.9690 -0.0622
13.5200 -8.9824 -0.0638
13.5400 -8.9958 -0.0615
13.5600 -9.0091 -0.0628
13.5800 -9.0224 -0.0615
13.6000 -9.0358 -0.0611
13.6200 -9.0492 -0.0590
13.6400 -9.0625 -0.0601
13.6600 -9.0758 -0.0556
13.6800 -9.0891 -0.0570
13.7000 -9.1025 -0.0545
13.7200 -9.1158 -0.0564
13.7400 -9.1291 -0.0542
13.7600 -9.1424 -0.0542
13.7800 -9.1557 -0.0516
13.8000 -9.1691 -0.0525
13.8200 -9.1824 -0.0516
13.8400 -9.1957 -0.0486
13.8600 -9.2090 -0.0510
13.8800 -9.2224 -0.0504
13.9000 -9.2358 -0.0510
13.9200 -9.2492 -0.0498
13.9400 -9.2625 -0.0481
13.9600 -9.2758 -0.0451
13.9800 -9.2892 -0.0441
14.0000 -9.3025 -0.0448
14.0200 -9.3158 -0.0449
14.0400 -9.3291 -0.0423
14.0600 -9.3424 -0.0424
14.0800 -9.3557 -0.0396
14.1000 -9.3690 -0.0407
14.1200 -9.3823 -0.0394
14.1400 -9.3957 -0.0407
14.1600 -9.4091 -0.0376
14.1800 -9.4224 -0.0414
14.2000 -9.4358 -0.0360
14.2200 -9.4491 -0.0373
14.2400 -9.4625 -0.0346
14.2600 -9.4758 -0.0346
14.2800 -9.4892 -0.0350
14.3000 -9.5024 -0.0337
14.3200 -9.5158 -0.0303
14.3400 -9.5292 -0.0305
14.3600 -9.5425 -0.0328
14.3800 -9.5558 -0.0302
14.4000 -9.5691 -0.0308
14.4200 -9.5825 -0.0304
14.4400 -9.5958 -0.0270
14.4600 -9.6091 -0.0258
14.4800 -9.6224 -0.0241
14.5000 -9.6357 -0.0225
14.5200 -9.6491 -0.0232
14.5400 -9.6624 -0.0244
14.5600 -9.6757 -0.0222
14.5800 -9.6891 -0.0216
14.6000 -9.7024 -0.0218
14.6200 -9.7158 -0.0197
14.6400 -9.7291 -0.0196
14.6600 -9.7424 -0.0177
14.6800 -9.7558 -0.0151
14.7000 -9.7691 -0.0159
14.7200 -9.7825 -0.0164
14.7400 -9.7958 -0.0148
14.7600 -9.8091 -0.0157
14.7800 -9.8224 -0.0154
14.8000 -9.8358 -0.0139
14.8200 -9.8491 -0.0124
14.8400 -9.8624 -0.0109
14.8600 -9.8757 -0.0086
14.8800 -9.8890 -0.0105
14.9000 -9.9024 -0.0126
14.9200 -9.9158 -0.0087
14.9400 -9.9291 -0.0092
14.9600 -9.9424 -0.0082
14.9800 -9.9558 -0.0063
15.0000 -9.9692 -0.0055
15.0200 -9.9825 -0.0061
15.0400 -9.9958 -0.0058
15.0600 -10.0091 -0.0037
15.0800 -10.0225 -0.0034
15.1000 -10.0358 -0.0027
15.1200 -10.0491 -0.0005
15.1400 -10.0624 -0.0017
15.1600 -10.0758 0.0020
15.1800 -10.0891 0.0013
15.2000 -10.1024 -0.0011
15.2200 -10.1157 0.0015
15.2400 -10.1291 0.0033
15.2600 -10.1424 0.0018
15.2800 -10.1558 0.0054
15.3000 -10.1691 0.0037
15.3200 -10.1824 0.0046
15.3400 -10.1958 0.0079
15.3600 -10.2092 0.0080
15.3800 -10.2225 0.0071
15.4000 -10.2358 0.0106
15.4200 -10.2492 0.0084
15.4400 -10.2625 0.0095
15.4600 -10.2758 0.0104
15.4800 -10.2891 0.0129
15.5000 -10.3024 0.0110
15.5200 -10.3158 0.0136
15.5400 -10.3291 0.0128
15.5600 -10.3424 0.0128
15.5800 -10.3557 0.0138
15.6000 -10.3690 0.0141
15.6200 -10.3824 0.0157
15.6400 -10.3957 0.0141
15.6600 -10.4091 0.0170
15.6800 -10.4224 0.0132
15.7000 -10.4358 0.0187
15.7200 -10.4492 0.0176
15.7400 -10.4625 0.0179
15.7600 -10.4758 0.0186
15.7800 -10.4891 0.0190
15.8000 -10.5025 0.0173
15.8200 -10.5158 0.0204
15.8400 -10.5291 0.0186
15.8600 -10.5425 0.0214
15.8800 -10.5558 0.0217
15.9000 -10.5691 0.0232
15.9200 -10.5824 0.0222
15.9400 -10.5957 0.0248
15.9600 -10.6090 0.0258
15.9800 -10.6224 0.0260
16.0000 -10.6357 0.0268
16.0200 -10.6491 0.0279
16.0400 -10.6624 0.0276
16.0600 -10.6758 0.0314
16.0800 -10.6892 0.0310
16.1000 -10.7025 0.0306
16.1200 -10.7158 0.0311
16.1400 -10.7291 0.0322
16.1600 -10.7425 0.0305
16.1800 -10.7558 0.0332
16.2000 -10.7691 0.0352
16.2200 -10.7824 0.0335
16.2400 -10.7957 0.0369
16.2600 -10.8091 0.0394
16.2800 -10.8224 0.0367
16.3000 -10.8357 0.0394
16.3200 -10.8490 0.0419
16.3400 -10.8624 0.0391
16.3600 -10.8758 0.0416
16.3800 -10.8891 0.0407
16.4000 -10.9024 0.0423
16.4200 -10.9158 0.0426
16.4400 -10.9292 0.0449
16.4600 -10.9424 0.0432
16.4800 -10.9557 0.0464
16.5000 -10.9691 0.0474
16.5200 -10.9824 0.0468
16.5400 -10.9958 0.0507
16.5600 -11.0091 0.0494
16.5800 -11.0224 0.0479
16.6000 -11.0358 0.0496
16.6200 -11.0491 0.0508
16.6400 -11.0624 0.0498
16.6600 -11.0757 0.0525
16.6800 -11.0891 0.0522
16.7000 -11.1024 0.0518
16.7200 -11.1158 0.0549
16.7400 -11.1291 0.0552
16.7600 -11.1424 0.0538
16.7800 -11.1558 0.0553
16.8000 -11.1692 0.0563
16.8200 -11.1825 0.0531
16.8400 -11.1958 0.0578
16.8600 -11.2092 0.0567
16.8800 -11.2225 0.0573
16.9000 -11.2359 0.0598
16.9200 -11.2491 0.0608
16.9400 -11.2624 0.0604
16.9600 -11.2758 0.0618
16.9800 -11.2891 0.0640
17.0000 -11.3024 0.0623
17.0200 -11.3157 0.0666
17.0400 -11.3291 0.0660
17.0600 -11.3424 0.0652
17.0800 -11.3558 0.0679
17.1000 -11.3691 0.0682
17.1200 -11.3824 0.0653
17.1400 -11.3958 0.0694
17.1600 -11.4092 0.0692
17.1800 -11.4225 0.0696
17.2000 -11.4358 0.0706
17.2200 -11.4491 0.0716
17.2400 -11.4625 0.0707
17.2600 -11.4758 0.0713
17.2800 -11.4891 0.0725
17.3000 -11.5024 0.0718
17.3200 -11.5158 0.0733
17.3400 -11.5291 0.0758
17.3600 -11.5424 0.0752
17.3800 -11.5557 0.0759
17.4000 -11.5690 0.0778
17.4200 -11.5824 0.0764
17.4400 -11.5958 0.0808
17.4600 -11.6091 0.0811
17.4800 -11.6224 0.0816
17.5000 -11.6358 0.0796
17.5200 -11.6491 0.0813
17.5400 -11.6625 0.0800
17.5600 -11.6758 0.0857
17.5800 -11.6891 0.0867
17.6000 -11.7025 0.0840
17.6200 -11.7158 0.0842
17.6400 -11.7291 0.0858
17.6600 -11.7425 0.0868
17.6800 -11.7558 0.0894
17.7000 -11.7691 0.0895
17.7200 -11.7824 0.0879
17.7400 -11.7957 0.0874
17.7600 -11.8091 0.0910
17.7800 -11.8224 0.0900
17.8000 -11.8358 0.0922
17.8200 -11.8491 0.0936
17.8400 -11.8624 0.0927
17.8600 -11.8758 0.0953
17.8800 -11.8892 0.0961
17.9000 -11.9025 0.0915
17.9200 -11.9158 0.0935
17.9400 -11.9291 0.0967
17.9600 -11.9425 0.0954
17.9800 -11.9558 0.0992
18.0000 -11.9691 0.0996
18.0200 -11.9824 0.1007
18.0400 -11.9958 0.0999
18.0600 -12.0091 0.1020
18.0800 -12.0224 0.0999
18.1000 -12.0357 0.0999
18.1200 -12.0491 0.1016
18.1400 -12.0624 0.1016
18.1600 -12.0758 0.1039
18.1800 -12.0891 0.1066
18.2000 -12.1024 0.1047
18.2200 -12.1158 0.1035
18.2400 -12.1292 0.1080
18.2600 -12.1425 0.1066
18.2800 -12.1558 0.1091
18.3000 -12.1691 0.1113
18.3200 -12.1825 0.1101
18.3400 -12.1958 0.1131
18.3600 -12.2091 0.1149
18.3800 -12.2224 0.1122
18.4000 -12.2357 0.1126
18.4200 -12.2491 0.1165
18.4400 -12.2624 0.1140
18.4600 -12.2757 0.1168
18.4800 -12.2891 0.1167
18.5000 -12.3024 0.1169
18.5200 -12.3158 0.1176
18.5400 -12.3291 0.1214
18.5600 -12.3424 0.1189
18.5800 -12.3558 0.1203
18.6000 -12.3692 0.1211
18.6200 -12.3825 0.1225
18.6400 -12.3958 0.1227
18.6600 -12.4091 0.1270
18.6800 -12.4224 0.1234
18.7000 -12.4358 0.1262
18.7200 -12.4491 0.1266
18.7400 -12.4624 0.1251
18.7600 -12.4758 0.1263
18.7800 -12.4892 0.1281
18.8000 -12.5025 0.1285
18.8200 -12.5157 0.1293
18.8400 -12.5291 0.1334
18.8600 -12.5424 0.1316
18.8800 -12.5557 0.1333
18.9000 -12.5690 0.1323
18.9200 -12.5824 0.1333
18.9400 -12.5958 0.1327
18.9600 -12.6091 0.1358
18.9800 -12.6225 0.1320
19.0000 -12.6358 0.1332
19.0200 -12.6491 0.1360
19.0400 -12.6625 0.1364
19.0600 -12.6759 0.1369
19.0800 -12.6892 0.1363
19.1000 -12.7024 0.1363
19.1200 -12.7158 0.1379
19.1400 -12.7291 0.1412
19.1600 -12.7424 0.1401
19.1800 -12.7557 0.1417
19.2000 -12.7690 0.1413
19.2200 -12.7824 0.1400
19.2400 -12.7958 0.1407
19.2600 -12.8091 0.1435
19.2800 -12.8224 0.1421
19.3000 -12.8358 0.1445
19.3200 -12.8492 0.1454
19.3400 -12.8625 0.1464
19.3600 -12.8758 0.1453
19.3800 -12.8891 0.1460
19.4000 -12.9025 0.1464
19.4200 -12.9158 0.1475
19.4400 -12.9291 0.1497
19.4600 -12.9424 0.1481
19.4800 -12.9558 0.1493
19.5000 -12.9691 0.1525
19.5200 -12.9824 0.1508
19.5400 -12.9957 0.1492
19.5600 -13.0090 0.1523
19.5800 -13.0224 0.1507
19.6000 -13.0358 0.1522
19.6200 -13.0491 0.1542
19.6400 -13.0624 0.1525
19.6600 -13.0758 0.1533
19.6800 -13.0891 0.1558
19.7000 -13.1025 0.1565
19.7200 -13.1158 0.1553
19.7400 -13.1291 0.1579
19.7600 -13.1425 0.1576
19.7800 -13.1558 0.1586
19.8000 -13.1692 0.1609
19.8200 -13.1825 0.1598
19.8400 -13.1958 0.1625
19.8600 -13.2091 0.1644
19.8800 -13.2224 0.1645
19.9000 -13.2357 0.1631
19.9200 -13.2490 0.1655
19.9400 -13.2624 0.1651
19.9600 -13.2757 0.1670
19.9800 -13.2891 0.1678
20.0000 -13.3024 0.1690
20.0200 -13.3158 0.1682
20.0400 -13.3292 0.1736
20.0600 -13.3425 0.1706
20.0800 -13.3558 0.1715
20.1000 -13.3691 0.1731
20.1200 -13.3825 0.1749
20.1400 -13.3958 0.1751
20.1600 -13.4091 0.1790
20.1800 -13.4224 0.1738
20.2000 -13.4358 0.1750
20.2200 -13.4491 0.1780
20.2400 -13.4624 0.1804
20.2600 -13.4757 0.1784
20.2800 -13.4891 0.1812
20.3000 -13.5024 0.1797
20.3200 -13.5158 0.1823
20.3400 -13.5291 0.1830
20.3600 -13.5424 0.1821
20.3800 -13.5557 0.1816
20.4000 -13.5691 0.1855
20.4200 -13.5825 0.1853
20.4400 -13.5958 0.1849
20.4600 -13.6091 0.1876
20.4800 -13.6225 0.1859
20.5000 -13.6358 0.1870
20.5200 -13.6492 0.1908
20.5400 -13.6625 0.1920
20.5600 -13.6758 0.1891
20.5800 -13.6891 0.1929
20.6000 -13.7024 0.1908
20.6200 -13.7157 0.1939
20.6400 -13.7290 0.1941
20.6600 -13.7424 0.1961
20.6800 -13.7558 0.1947
20.7000 -13.7691 0.1974
20.7200 -13.7824 0.1969
20.7400 -13.7957 0.1958
20.7600 -13.8091 0.1973
20.7800 -13.8225 0.2001
20.8000 -13.8358 0.1980
20.8200 -13.8491 0.2025
20.8400 -13.8624 0.2018
20.8600 -13.8758 0.2046
20.8800 -13.8892 0.2059
20.9000 -13.9025 0.2062
20.9200 -13.9158 0.2017
20.9400 -13.9292 0.2068
20.9600 -13.9425 0.2062
20.9800 -13.9558 0.2067
21.0000 -13.9691 0.2080
21.0200 -13.9824 0.2105
21.0400 -13.9957 0.2077
21.0600 -14.0091 0.2108
21.0800 -14.0224 0.2096
21.1000 -14.0357 0.2104
21.1200 -14.0491 0.2127
21.1400 -14.0625 0.2119
21.1600 -14.0758 0.2108
21.1800 -14.0891 0.2119
21.2000 -14.1025 0.2137
21.2200 -14.1159 0.2127
21.2400 -14.1292 0.2161
21.2600 -14.1425 0.2157
21.2800 -14.1558 0.2154
21.3000 -14.1691 0.2175
21.3200 -14.1824 0.2182
21.3400 -14.1957 0.2161
21.3600 -14.2090 0.2208
21.3800 -14.2224 0.2201
21.4000 -14.2357 0.2213
21.4200 -14.2491 0.2244
21.4400 -14.2624 0.2237
21.4600 -14.2758 0.2238
21.4800 -14.2891 0.2261
21.5000 -14.3025 0.2278
21.5200 -14.3158 0.2261
21.5400 -14.3291 0.2288
21.5600 -14.3424 0.2287
21.5800 -14.3558 0.2294
21.6000 -14.3692 0.2316
21.6200 -14.3825 0.2320
21.6400 -14.3958 0.2306
21.6600 -14.4091 0.2355
21.6800 -14.4225 0.2329
21.7000 -14.4358 0.2328
21.7200 -14.4491 0.2364
21.7400 -14.4624 0.2367
21.7600 -14.4757 0.2365
21.7800 -14.4891 0.2378
21.8000 -14.5024 0.2389
21.8200 -14.5157 0.2376
21.8400 -14.5291 0.2403
21.8600 -14.5425 0.2409
21.8800 -14.5558 0.2392
21.9000 -14.5691 0.2407
21.9200 -14.5824 0.2419
21.9400 -14.5958 0.2413
21.9600 -14.6091 0.2450
21.9800 -14.6224 0.2453
22.0000 -14.6357 0.2457
22.0200 -14.6491 0.2464
22.0400 -14.6625 0.2479
22.0600 -14.6758 0.2480
22.0800 -14.6890 0.2492
22.1000 -14.7024 0.2496
22.1200 -14.7158 0.2469
22.1400 -14.7291 0.2537
22.1600 -14.7424 0.2520
22.1800 -14.7558 0.2530
22.2000 -14.7691 0.2547
22.2200 -14.7825 0.2559
22.2400 -14.7958 0.2538
22.2600 -14.8091 0.2553
22.2800 -14.8224 0.2576
22.3000 -14.8358 0.2585
22.3200 -14.8491 0.2605
22.3400 -14.8624 0.2613
22.3600 -14.8757 0.2609
22.3800 -14.8891 0.2632
22.4000 -14.9024 0.2664
22.4200 -14.9157 0.2629
22.4400 -14.9290 0.2671
22.4600 -14.9424 0.2677
22.4800 -14.9558 0.2688
22.5000 -14.9691 0.2672
22.5200 -14.9825 0.2692
22.5400 -14.9958 0.2673
22.5600 -15.0092 0.2699
22.5800 -15.0225 0.2691
22.6000 -15.0358 0.2707
22.6200 -15.0491 0.2721
22.6400 -15.0625 0.2748
22.6600 -15.0758 0.2675
22.6800 -15.0892 0.2728
22.7000 -15.1025 0.2731
22.7200 -15.1158 0.2736
22.7400 -15.1291 0.2742
22.7600 -15.1424 0.2734
22.7800 -15.1557 0.2718
22.8000 -15.1690 0.2725
22.8200 -15.1824 0.2758
22.8400 -15.1957 0.2749
22.8600 -15.2091 0.2763
22.8800 -15.2224 0.2757
22.9000 -15.2357 0.2783
22.9200 -15.2491 0.2779
22.9400 -15.2625 0.2800
22.9600 -15.2758 0.2745
22.9800 -15.2891 0.2791
23.0000 -15.3025 0.2797
23.0200 -15.3158 0.2791
23.0400 -15.3292 0.2818
23.0600 -15.3425 0.2812
23.0800 -15.3558 0.2803
23.1000 -15.3691 0.2835
23.1200 -15.3824 0.2848
23.1400 -15.3957 0.2826
23.1600 -15.4090 0.2846
23.1800 -15.4224 0.2862
23.2000 -15.4357 0.2850
23.2200 -15.4491 0.2900
23.2400 -15.4624 0.2876
23.2600 -15.4757 0.2895
23.2800 -15.4891 0.2915
23.3000 -15.5025 0.2941
23.3200 -15.5158 0.2915
23.3400 -15.5292 0.2934
23.3600 -15.5425 0.2925
23.3800 -15.5558 0.2944
23.4000 -15.5692 0.2944
23.4200 -15.5825 0.2983
23.4400 -15.5958 0.2966
23.4600 -15.6091 0.3000
23.4800 -15.6224 0.3014
23.5000 -15.6357 0.2995
23.5200 -15.6490 0.3016
23.5400 -15.6624 0.3021
23.5600 -15.6757 0.3029
23.5800 -15.6891 0.3033
23.6000 -15.7024 0.3042
23.6200 -15.7158 0.3045
23.6400 -15.7291 0.3073
23.6600 -15.7425 0.3078
23.6800 -15.7558 0.3077
23.7000 -15.7691 0.3085
23.7200 -15.7824 0.3116
23.7400 -15.7958 0.3104
23.7600 -15.8091 0.3106
23.7800 -15.8225 0.3100
23.8000 -15.8358 0.3112
23.8200 -15.8491 0.3122
23.8400 -15.8624 0.3140
23.8600 -15.8758 0.3119
23.8800 -15.8891 0.3141
23.9000 -15.9024 0.3146
23.9200 -15.9157 0.3166
23.9400 -15.9291 0.3185
23.9600 -15.9424 0.3206
23.9800 -15.9558 0.3194
24.0000 -15.9691 0.3203
24.0200 -15.9825 0.3203
24.0400 -15.9959 0.3200
24.0600 -16.0092 0.3213
24.0800 -16.0225 0.3220
24.1000 -16.0358 0.3209
24.1200 -16.0492 0.3229
24.1400 -16.0625 0.3242
24.1600 -16.0758 0.3227
24.1800 -16.0891 0.3232
24.2000 -16.1024 0.3269
24.2200 -16.1158 0.3273
24.2400 -16.1290 0.3259
24.2600 -16.1424 0.3277
24.2800 -16.1557 0.3268
24.3000 -16.1691 0.3299
24.3200 -16.1824 0.3301
24.3400 -16.1957 0.3304
24.3600 -16.2091 0.3313
24.3800 -16.2225 0.3330
24.4000 -16.2358 0.3333
24.4200 -16.2491 0.3350
24.4400 -16.2624 0.3360
24.4600 -16.2758 0.3381
24.4800 -16.2892 0.3380
24.5000 -16.3025 0.3418
24.5200 -16.3158 0.3405
24.5400 -16.3291 0.3411
24.5600 -16.3425 0.3445
24.5800 -16.3558 0.3417
24.6000 -16.3691 0.3436
24.6200 -16.3824 0.3469
24.6400 -16.3957 0.3466
24.6600 -16.4091 0.3456
24.6800 -16.4224 0.3477
24.7000 -16.4357 0.3479
24.7200 -16.4491 0.3504
24.7400 -16.4624 0.3500
24.7600 -16.4758 0.3512
24.7800 -16.4891 0.3511
24.8000 -16.5024 0.3539
24.8200 -16.5158 0.3518
24.8400 -16.5292 0.3540
24.8600 -16.5425 0.3561
24.8800 -16.5558 0.3559
24.9000 -16.5691 0.3557
24.9200 -16.5825 0.3574
24.9400 -16.5958 0.3581
24.9600 -16.6091 0.3584
24.9800 -16.6224 0.3598
25.0000 -16.6358 0.3599
25.0200 -16.6491 0.3596
25.0400 -16.6625 0.3630
25.0600 -16.6758 0.3636
25.0800 -16.6891 0.3645
25.1000 -16.7025 0.3656
25.1200 -16.7158 0.3651
25.1400 -16.7292 0.3653
25.1600 -16.7425 0.3678
25.1800 -16.7558 0.3667
25.2000 -16.7691 0.3698
25.2200 -16.7825 0.3693
25.2400 -16.7958 0.3701
25.2600 -16.8091 0.3721
25.2800 -16.8224 0.3730
25.3000 -16.8358 0.3732
25.3200 -16.8491 0.3710
25.3400 -16.8624 0.3747
25.3600 -16.8757 0.3733
25.3800 -16.8891 0.3773
25.4000 -16.9025 0.3748
25.4200 -16.9158 0.3751
25.4400 -16.9291 0.3743
25.4600 -16.9425 0.3759
25.4800 -16.9558 0.3785
25.5000 -16.9691 0.3801
25.5200 -16.9824 0.3801
25.5400 -16.9957 0.3804
25.5600 -17.0091 0.3802
25.5800 -17.0224 0.3815
25.6000 -17.0357 0.3841
25.6200 -17.0490 0.3843
25.6400 -17.0624 0.3849
25.6600 -17.0758 0.3859
25.6800 -17.0891 0.3843
25.7000 -17.1024 0.3863
25.7200 -17.1157 0.3845
25.7400 -17.1291 0.3881
25.7600 -17.1424 0.3894
25.7800 -17.1557 0.3910
25.8000 -17.1691 0.3900
25.8200 -17.1825 0.3926
25.8400 -17.1958 0.3924
25.8600 -17.2091 0.3935
25.8800 -17.2224 0.3933
25.9000 -17.2357 0.3956
25.9200 -17.2491 0.3954
25.9400 -17.2625 0.3963
25.9600 -17.2758 0.3996
25.9800 -17.2891 0.3996
26.0000 -17.3025 0.4019
26.0200 -17.3158 0.4003
26.0400 -17.3291 0.4000
26.0600 -17.3424 0.4004
26.0800 -17.3557 0.4039
26.1000 -17.3691 0.4008
26.1200 -17.3824 0.4042
26.1400 -17.3957 0.4017
26.1600 -17.4091 0.4048
26.1800 -17.4224 0.4055
26.2000 -17.4358 0.4061
26.2200 -17.4492 0.4060
26.2400 -17.4625 0.4080
26.2600 -17.4758 0.4097
26.2800 -17.4892 0.4091
26.3000 -17.5025 0.4103
26.3200 -17.5158 0.4109
26.3400 -17.5291 0.4110
26.3600 -17.5424 0.4133
26.3800 -17.5558 0.4157
26.4000 -17.5691 0.4142
26.4200 -17.5824 0.4183
26.4400 -17.5957 0.4169
26.4600 -17.6091 0.4176
26.4800 -17.6225 0.4199
26.5000 -17.6358 0.4174
26.5200 -17.6491 0.4204
26.5400 -17.6625 0.4230
26.5600 -17.6758 0.4237
26.5800 -17.6891 0.4226
26.6000 -17.7025 0.4251
26.6200 -17.7158 0.4241
26.6400 -17.7291 0.4253
26.6600 -17.7425 0.4265
26.6800 -17.7558 0.4287
26.7000 -17.7691 0.4285
26.7200 -17.7824 0.4287
26.7400 -17.7958 0.4302
26.7600 -17.8091 0.4319
26.7800 -17.8224 0.4334
26.8000 -17.8357 0.4325
26.8200 -17.8491 0.4326
26.8400 -17.8624 0.4341
26.8600 -17.8757 0.4353
26.8800 -17.8891 0.4362
26.9000 -17.9024 0.4369
26.9200 -17.9158 0.4378
26.9400 -17.9291 0.4377
26.9600 -17.9424 0.4385
26.9800 -17.9558 0.4390
27.0000 -17.9692 0.4393
27.0200 -17.9825 0.4416
27.0400 -17.9958 0.4438
27.0600 -18.0091 0.4442
27.0800 -18.0225 0.4457
27.1000 -18.0358 0.4442
27.1200 -18.0491 0.4448
27.1400 -18.0624 0.4457
27.1600 -18.0757 0.4472
27.1800 -18.0891 0.4467
27.2000 -18.1024 0.4504
27.2200 -18.1157 0.4508
27.2400 -18.1290 0.4528
27.2600 -18.1424 0.4523
27.2800 -18.1558 0.4539
27.3000 -18.1692 0.4515
27.3200 -18.1825 0.4538
27.3400 -18.1958 0.4523
27.3600 -18.2092 0.4552
27.3800 -18.2225 0.4562
27.4000 -18.2358 0.4590
27.4200 -18.2491 0.4583
27.4400 -18.2624 0.4596
27.4600 -18.2758 0.4596
27.4800 -18.2891 0.4611
27.5000 -18.3024 0.4617
27.5200 -18.3157 0.4637
27.5400 -18.3291 0.4623
27.5600 -18.3424 0.4635
27.5800 -18.3557 0.4649
27.6000 -18.3690 0.4666
27.6200 -18.3824 0.4692
27.6400 -18.3958 0.4696
27.6600 -18.4091 0.4694
27.6800 -18.4225 0.4696
27.7000 -18.4358 0.4729
27.7200 -18.4491 0.4708
27.7400 -18.4625 0.4732
27.7600 -18.4758 0.4734
27.7800 -18.4891 0.4743
27.8000 -18.5025 0.4757
27.8200 -18.5158 0.4750
27.8400 -18.5291 0.4749
27.8600 -18.5424 0.4741
27.8800 -18.5557 0.4756
27.9000 -18.5691 0.4758
27.9200 -18.5824 0.4756
27.9400 -18.5957 0.4781
27.9600 -18.6090 0.4784
27.9800 -18.6224 0.4802
28.0000 -18.6358 0.4832
28.0200 -18.6491 0.4838
28.0400 -18.6624 0.4842
28.0600 -18.6758 0.4848
28.0800 -18.6891 0.4827
28.1000 -18.7025 0.4871
28.1200 -18.7158 0.4878
28.1400 -18.7291 0.4876
28.1600 -18.7425 0.4886
28.1800 -18.7558 0.4920
28.2000 -18.7691 0.4912
28.2200 -18.7824 0.4934
28.2400 -18.7957 0.4932
28.2600 -18.8091 0.4960
28.2800 -18.8224 0.4943
28.3000 -18.8357 0.4957
28.3200 -18.8490 0.4957
28.3400 -18.8624 0.4988
28.3600 -18.8758 0.4986
28.3800 -18.8892 0.4985
28.4000 -18.9025 0.4997
28.4200 -18.9158 0.5009
28.4400 -18.9292 0.5019
28.4600 -18.9425 0.5018
28.4800 -18.9558 0.5048
28.5000 -18.9691 0.5037
28.5200 -18.9824 0.5064
28.5400 -18.9957 0.5069
28.5600 -19.0091 0.5073
28.5800 -19.0224 0.5084
28.6000 -19.0357 0.5090
28.6200 -19.0491 0.5106
28.6400 -19.0624 0.5118
28.6600 -19.0758 0.5111
28.6800 -19.0891 0.5124
28.7000 -19.1024 0.5123
28.7200 -19.1158 0.5153
28.7400 -19.1292 0.5173
28.7600 -19.1425 0.5179
28.7800 -19.1558 0.5181
28.8000 -19.1691 0.5170
28.8200 -19.1825 0.5187
28.8400 -19.1958 0.5209
28.8600 -19.2091 0.5212
28.8800 -19.2225 0.5219
28.9000 -19.2358 0.5213
28.9200 -19.2491 0.5225
28.9400 -19.2624 0.5228
28.9600 -19.2757 0.5258
28.9800 -19.2891 0.5260
29.0000 -19.3024 0.5273
29.0200 -19.3157 0.5294
29.0400 -19.3291 0.5284
29.0600 -19.3424 0.5299
29.0800 -19.3558 0.5302
29.1000 -19.3692 0.5314
29.1200 -19.3824 0.5316
29.1400 -19.3958 0.5343
29.1600 -19.4091 0.5347
29.1800 -19.4225 0.5358
29.2000 -19.4358 0.5340
29.2200 -19.4491 0.5354
29.2400 -19.4624 0.5349
29.2600 -19.4758 0.5355
29.2800 -19.4891 0.5384
29.3000 -19.5024 0.5397
29.3200 -19.5157 0.5405
29.3400 -19.5290 0.5395
29.3600 -19.5424 0.5392
29.3800 -19.5558 0.5412
29.4000 -19.5691 0.5417
29.4200 -19.5824 0.5429
29.4400 -19.5958 0.5442
29.4600 -19.6092 0.5452
29.4800 -19.6225 0.5475
29.5000 -19.6358 0.5480
29.5200 -19.6491 0.5495
29.5400 -19.6625 0.5496
29.5600 -19.6758 0.5534
29.5800 -19.6891 0.5536
29.6000 -19.7024 0.5564
29.6200 -19.7157 0.5558
29.6400 -19.7291 0.5588
29.6600 -19.7424 0.5585
29.6800 -19.7557 0.5629
29.7000 -19.7691 0.5637
29.7200 -19.7824 0.5664
29.7400 -19.7958 0.5658
29.7600 -19.8091 0.5668
29.7800 -19.8224 0.5670
29.8000 -19.8358 0.5686
29.8200 -19.8492 0.5693
29.8400 -19.8625 0.5692
29.8600 -19.8758 0.5710
29.8800 -19.8891 0.5728
29.9000 -19.9025 0.5732
29.9200 -19.9158 0.5561
29.9400 -19.9291 0.4857
29.9600 -19.9424 0.3868
29.9800 -19.9558 0.2847
30.0000 -19.9691 0.1876
30.0200 -19.9824 0.0974
30.0400 -19.9957 0.0097
30.0600 -20.0090 -0.0746
30.0800 -20.0224 -0.1612
30.1000 -20.0357 -0.2414
30.1200 -20.0491 -0.3231
30.1400 -20.0624 -0.3943
30.1600 -20.0758 -0.4421
30.1800 -20.0892 -0.5027
30.2000 -20.1025 -0.5725
30.2200 -20.1158 -0.6447
30.2400 -20.1291 -0.7159
30.2600 -20.1425 -0.7830
30.2800 -20.1558 -0.8468
30.3000 -20.1691 -0.9067
30.3200 -20.1824 -0.9713
30.3400 -20.1958 -1.0426
30.3600 -20.2091 -1.1248
30.3800 -20.2224 -1.2056
30.4000 -20.2357 -1.2545
30.4200 -20.2490 -1.2650
30.4400 -20.2624 -1.2633
30.4600 -20.2757 -1.2599
30.4800 -20.2891 -1.2614
30.5000 -20.3024 -1.2610
30.5200 -20.3158 -1.2628
30.5400 -20.3292 -1.2609
30.5600 -20.3425 -1.2623
30.5800 -20.3558 -1.2613
30.6000 -20.3691 -1.2624
30.6200 -20.3825 -1.2629
30.6400 -20.3958 -1.2654
30.6600 -20.4091 -1.2628
30.6800 -20.4224 -1.2645
30.7000 -20.4358 -1.2635
30.7200 -20.4491 -1.2649
30.7400 -20.4624 -1.2643
30.7600 -20.4757 -1.2645
30.7800 -20.4890 -1.2629
30.8000 -20.5024 -1.2624
30.8200 -20.5158 -1.2618
30.8400 -20.5291 -1.2595
30.8600 -20.5424 -1.2598
30.8800 -20.5558 -1.2578
30.9000 -20.5692 -1.2553
30.9200 -20.5824 -1.2559
30.9400 -20.5957 -1.2551
30.9600 -20.6091 -1.2509
30.9800 -20.6224 -1.2504
31.0000 -20.6358 -1.2484
31.0200 -20.6491 -1.2470
31.0400 -20.6624 -1.2449
31.0600 -20.6758 -1.2452
31.0800 -20.6891 -1.2419
31.1000 -20.7024 -1.2401
31.1200 -20.7157 -1.2390
31.1400 -20.7291 -1.2359
31.1600 -20.7424 -1.2374
31.1800 -20.7557 -1.2352
31.2000 -20.7691 -1.2346
31.2200 -20.7824 -1.2310
31.2400 -20.7958 -1.2315
31.2600 -20.8092 -1.2294
31.2800 -20.8225 -1.2303
31.3000 -20.8358 -1.2282
31.3200 -20.8491 -1.2260
31.3400 -20.8625 -1.2229
31.3600 -20.8758 -1.2224
31.3800 -20.8891 -1.2205
31.4000 -20.9024 -1.2185
31.4200 -20.9158 -1.2175
31.4400 -20.9291 -1.2162
31.4600 -20.9424 -1.2153
31.4800 -20.9557 -1.2154
31.5000 -20.9691 -1.2144
31.5200 -20.9824 -1.2139
31.5400 -20.9958 -1.2127
31.5600 -21.0091 -1.2125
31.5800 -21.0224 -1.2118
31.6000 -21.0358 -1.2135
31.6200 -21.0491 -1.2106
31.6400 -21.0625 -1.2111
31.6600 -21.0758 -1.2080
31.6800 -21.0891 -1.2068
31.7000 -21.1025 -1.2059
31.7200 -21.1158 -1.2056
31.7400 -21.1291 -1.2037
31.7600 -21.1424 -1.2036
31.7800 -21.1558 -1.2046
31.8000 -21.1691 -1.2021
31.8200 -21.1824 -1.2024
31.8400 -21.1957 -1.2010
31.8600 -21.2091 -1.2012
31.8800 -21.2224 -1.1972
31.9000 -21.2358 -1.1977
31.9200 -21.2491 -1.1944
31.9400 -21.2624 -1.1952
31.9600 -21.2758 -1.1918
31.9800 -21.2891 -1.1916
32.0000 -21.3025 -1.1898
32.0200 -21.3158 -1.1912
32.0400 -21.3291 -1.1867
32.0600 -21.3425 -1.1858
32.0800 -21.3558 -1.1822
32.1000 -21.3691 -1.1818
32.1200 -21.3824 -1.1813
32.1400 -21.3958 -1.1821
32.1600 -21.4091 -1.1781
32.1800 -21.4224 -1.1760
32.2000 -21.4357 -1.1761
32.2200 -21.4491 -1.1747
32.2400 -21.4624 -1.1729
32.2600 -21.4758 -1.1736
32.2800 -21.4891 -1.1694
32.3000 -21.5024 -1.1706
32.3200 -21.5158 -1.1660
32.3400 -21.5292 -1.1650
32.3600 -21.5425 -1.1634
32.3800 -21.5558 -1.1653
32.4000 -21.5691 -1.1611
32.4200 -21.5824 -1.1600
32.4400 -21.5958 -1.1601
32.4600 -21.6091 -1.1570
32.4800 -21.6224 -1.1550
32.5000 -21.6358 -1.1531
32.5200 -21.6491 -1.1527
32.5400 -21.6624 -1.1517
32.5600 -21.6757 -1.1532
32.5800 -21.6890 -1.1514
32.6000 -21.7024 -1.1538
32.6200 -21.7158 -1.1494
32.6400 -21.7291 -1.1516
32.6600 -21.7424 -1.1473
32.6800 -21.7558 -1.1495
32.7000 -21.7692 -1.1491
32.7200 -21.7825 -1.1483
32.7400 -21.7958 -1.1486
32.7600 -21.8091 -1.1470
32.7800 -21.8225 -1.1483
32.8000 -21.8358 -1.1482
32.8200 -21.8491 -1.1473
32.8400 -21.8624 -1.1472
32.8600 -21.8757 -1.1476
32.8800 -21.8891 -1.1455
32.9000 -21.9024 -1.1459
32.9200 -21.9157 -1.1465
32.9400 -21.9291 -1.1482
32.9600 -21.9424 -1.1479
32.9800 -21.9558 -1.1474
33.0000 -21.9691 -1.1462
33.0200 -21.9824 -1.1440
33.0400 -21.9958 -1.1463
33.0600 -22.0091 -1.1426
33.0800 -22.0225 -1.1437
33.1000 -22.0358 -1.1433
33.1200 -22.0491 -1.1430
33.1400 -22.0624 -1.1409
33.1600 -22.0758 -1.1422
33.1800 -22.0891 -1.1408
33.2000 -22.1025 -1.1410
33.2200 -22.1158 -1.1396
33.2400 -22.1292 -1.1358
33.2600 -22.1425 -1.1342
33.2800 -22.1557 -1.1341
33.3000 -22.1690 -1.1330
33.3200 -22.1824 -1.1303
33.3400 -22.1957 -1.1318
33.3600 -22.2090 -1.1296
33.3800 -22.2224 -1.1274
33.4000 -22.2357 -1.1269
33.4200 -22.2491 -1.1264
33.4400 -22.2625 -1.1257
33.4600 -22.2758 -1.1256
33.4800 -22.2891 -1.1214
33.5000 -22.3025 -1.1212
33.5200 -22.3159 -1.1216
33.5400 -22.3292 -1.1187
33.5600 -22.3425 -1.1174
33.5800 -22.3558 -1.1184
33.6000 -22.3691 -1.1170
33.6200 -22.3824 -1.1160
33.6400 -22.3957 -1.1170
33.6600 -22.4090 -1.1138
33.6800 -22.4224 -1.1122
33.7000 -22.4358 -1.1119
33.7200 -22.4491 -1.1123
33.7400 -22.4624 -1.1082
33.7600 -22.4758 -1.1100
33.7800 -22.4892 -1.1084
33.8000 -22.5025 -1.1062
33.8200 -22.5158 -1.1065
33.8400 -22.5291 -1.1051
33.8600 -22.5424 -1.1015
33.8800 -22.5558 -1.1032
33.9000 -22.5691 -1.0984
33.9200 -22.5824 -1.0994
33.9400 -22.5958 -1.0986
33.9600 -22.6091 -1.0986
33.9800 -22.6224 -1.0954
34.0000 -22.6357 -1.0985
34.0200 -22.6490 -1.0948
34.0400 -22.6624 -1.0932
34.0600 -22.6757 -1.0952
34.0800 -22.6891 -1.0934
34.1000 -22.7024 -1.0937
34.1200 -22.7158 -1.0926
34.1400 -22.7291 -1.0919
34.1600 -22.7425 -1.0899
34.1800 -22.7558 -1.0895
34.2000 -22.7691 -1.0865
34.2200 -22.7825 -1.0859
34.2400 -22.7959 -1.0855
34.2600 -22.8092 -1.0858
34.2800 -22.8225 -1.0813
34.3000 -22.8358 -1.0841
34.3200 -22.8491 -1.0798
34.3400 -22.8625 -1.0784
34.3600 -22.8757 -1.0801
34.3800 -22.8890 -1.0779
34.4000 -22.9024 -1.0741
34.4200 -22.9157 -1.0750
34.4400 -22.9291 -1.0741
34.4600 -22.9424 -1.0755
34.4800 -22.9557 -1.0732
34.5000 -22.9691 -1.0718
34.5200 -22.9825 -1.0679
34.5400 -22.9958 -1.0703
34.5600 -23.0091 -1.0671
34.5800 -23.0225 -1.0654
34.6000 -23.0359 -1.0659
34.6200 -23.0492 -1.0659
34.6400 -23.0625 -1.0646
34.6600 -23.0758 -1.0662
34.6800 -23.0891 -1.0633
34.7000 -23.1024 -1.0631
34.7200 -23.1157 -1.0642
34.7400 -23.1290 -1.0639
34.7600 -23.1424 -1.0649
34.7800 -23.1558 -1.0634
34.8000 -23.1691 -1.0632
34.8200 -23.1824 -1.0622
34.8400 -23.1957 -1.0635
34.8600 -23.2091 -1.0625
34.8800 -23.2225 -1.0597
34.9000 -23.2358 -1.0620
34.9200 -23.2491 -1.0595
34.9400 -23.2624 -1.0585
34.9600 -23.2758 -1.0598
34.9800 -23.2892 -1.0586
35.0000 -23.3025 -1.0571
35.0200 -23.3158 -1.0558
35.0400 -23.3291 -1.0560
35.0600 -23.3425 -1.0542
35.0800 -23.3558 -1.0542
35.1000 -23.3691 -1.0545
35.1200 -23.3824 -1.0509
35.1400 -23.3958 -1.0519
35.1600 -23.4091 -1.0514
35.1800 -23.4224 -1.0492
35.2000 -23.4357 -1.0526
35.2200 -23.4491 -1.0512
35.2400 -23.4625 -1.0471
35.2600 -23.4758 -1.0474
35.2800 -23.4891 -1.0457
35.3000 -23.5024 -1.0452
35.3200 -23.5158 -1.0442
35.3400 -23.5292 -1.0451
35.3600 -23.5425 -1.0423
35.3800 -23.5558 -1.0432
35.4000 -23.5691 -1.0419
35.4200 -23.5825 -1.0394
35.4400 -23.5958 -1.0414
35.4600 -23.6091 -1.0382
35.4800 -23.6224 -1.0377
35.5000 -23.6357 -1.0375
35.5200 -23.6491 -1.0384
35.5400 -23.6624 -1.0349
35.5600 -23.6757 -1.0362
35.5800 -23.6891 -1.0344
35.6000 -23.7025 -1.0319
35.6200 -23.7158 -1.0327
35.6400 -23.7291 -1.0311
35.6600 -23.7425 -1.0280
35.6800 -23.7558 -1.0303
35.7000 -23.7692 -1.0298
35.7200 -23.7825 -1.0275
35.7400 -23.7958 -1.0297
35.7600 -23.8091 -1.0278
35.7800 -23.8224 -1.0274
35.8000 -23.8357 -1.0252
35.8200 -23.8490 -1.0246
35.8400 -23.8624 -1.0219
35.8600 -23.8758 -1.0238
35.8800 -23.8891 -1.0228
35.9000 -23.9024 -1.0210
35.9200 -23.9158 -1.0190
35.9400 -23.9291 -1.0199
35.9600 -23.9425 -1.0180
35.9800 -23.9558 -1.0188
36.0000 -23.9691 -1.0201
36.0200 -23.9824 -1.0170
36.0400 -23.9958 -1.0206
36.0600 -24.0092 -1.0158
36.0800 -24.0225 -1.0151
36.1000 -24.0358 -1.0142
36.1200 -24.0491 -1.0164
36.1400 -24.0625 -1.0128
36.1600 -24.0758 -1.0136
36.1800 -24.0891 -1.0130
36.2000 -24.1024 -1.0107
36.2200 -24.1157 -1.0096
36.2400 -24.1291 -1.0093
36.2600 -24.1424 -1.0084
36.2800 -24.1557 -1.0091
36.3000 -24.1691 -1.0075
36.3200 -24.1825 -1.0042
36.3400 -24.1958 -1.0041
36.3600 -24.2091 -1.0050
36.3800 -24.2224 -1.0028
36.4000 -24.2358 -1.0026
36.4200 -24.2491 -1.0020
36.4400 -24.2624 -1.0002
36.4600 -24.2758 -0.9999
36.4800 -24.2891 -1.0006
36.5000 -24.3024 -0.9978
36.5200 -24.3158 -0.9982
36.5400 -24.3290 -0.9954
36.5600 -24.3424 -0.9947
36.5800 -24.3557 -0.9957
36.6000 -24.3691 -0.9943
36.6200 -24.3824 -0.9937
36.6400 -24.3958 -0.9937
36.6600 -24.4091 -0.9926
36.6800 -24.4225 -0.9897
36.7000 -24.4358 -0.9922
36.7200 -24.4491 -0.9902
36.7400 -24.4624 -0.9900
36.7600 -24.4758 -0.9868
36.7800 -24.4891 -0.9881
36.8000 -24.5024 -0.9853
36.8200 -24.5158 -0.9864
36.8400 -24.5291 -0.9853
36.8600 -24.5424 -0.9854
36.8800 -24.5557 -0.9851
36.9000 -24.5690 -0.9862
36.9200 -24.5824 -0.9818
36.9400 -24.5958 -0.9847
36.9600 -24.6091 -0.9831
36.9800 -24.6225 -0.9831
37.0000 -24.6358 -0.9841
37.0200 -24.6491 -0.9846
37.0400 -24.6625 -0.9812
37.0600 -24.6758 -0.9837
37.0800 -24.6891 -0.9818
37.1000 -24.7025 -0.9813
37.1200 -24.7158 -0.9803
37.1400 -24.7292 -0.9804
37.1600 -24.7425 -0.9805
37.1800 -24.7558 -0.9802
37.2000 -24.7691 -0.9809
37.2200 -24.7824 -0.9774
37.2400 -24.7957 -0.9791
37.2600 -24.8090 -0.9817
37.2800 -24.8223 -0.9783
37.3000 -24.8357 -0.9776
37.3200 -24.8491 -0.9775
37.3400 -24.8624 -0.9746
37.3600 -24.8757 -0.9780
37.3800 -24.8891 -0.9773
37.4000 -24.9025 -0.9752
37.4200 -24.9158 -0.9739
37.4400 -24.9291 -0.9752
37.4600 -24.9425 -0.9722
37.4800 -24.9558 -0.9739
37.5000 -24.9692 -0.9715
37.5200 -24.9825 -0.9704
37.5400 -24.9958 -0.9710
37.5600 -25.0091 -0.9706
37.5800 -25.0224 -0.9658
37.6000 -25.0357 -0.9658
37.6200 -25.0490 -0.9644
37.6400 -25.0623 -0.9640
37.6600 -25.0757 -0.9628
37.6800 -25.0891 -0.9624
37.7000 -25.1024 -0.9603
37.7200 -25.1157 -0.9606
37.7400 -25.1291 -0.9623
37.7600 -25.1425 -0.9601
37.7800 -25.1559 -0.9580
37.8000 -25.1692 -0.9588
37.8200 -25.1825 -0.9541
37.8400 -25.1958 -0.9545
37.8600 -25.2092 -0.9555
37.8800 -25.2225 -0.9513
37.9000 -25.2358 -0.9507
37.9200 -25.2491 -0.9519
37.9400 -25.2624 -0.9509
37.9600 -25.2758 -0.9492
37.9800 -25.2890 -0.9485
38.0000 -25.3024 -0.9464
38.0200 -25.3157 -0.9472
38.0400 -25.3291 -0.9476
38.0600 -25.3424 -0.9446
38.0800 -25.3558 -0.9427
38.1000 -25.3691 -0.9428
38.1200 -25.3825 -0.9404
38.1400 -25.3958 -0.9419
38.1600 -25.4091 -0.9418
38.1800 -25.4224 -0.9417
38.2000 -25.4358 -0.9391
38.2200 -25.4491 -0.9381
38.2400 -25.4625 -0.9368
38.2600 -25.4758 -0.9370
38.2800 -25.4891 -0.9385
38.3000 -25.5024 -0.9366
38.3200 -25.5158 -0.9353
38.3400 -25.5291 -0.9369
38.3600 -25.5424 -0.9333
38.3800 -25.5557 -0.9338
38.4000 -25.5691 -0.9354
38.4200 -25.5824 -0.9331
38.4400 -25.5957 -0.9340
38.4600 -25.6091 -0.9339
38.4800 -25.6225 -0.9336
38.5000 -25.6358 -0.9308
38.5200 -25.6491 -0.9326
38.5400 -25.6625 -0.9304
38.5600 -25.6758 -0.9305
38.5800 -25.6892 -0.9308
38.6000 -25.7025 -0.9290
38.6200 -25.7158 -0.9299
38.6400 -25.7291 -0.9304
38.6600 -25.7424 -0.9264
38.6800 -25.7558 -0.9264
38.7000 -25.7691 -0.9273
38.7200 -25.7824 -0.9262
38.7400 -25.7957 -0.9254
38.7600 -25.8091 -0.9266
38.7800 -25.8224 -0.9248
38.8000 -25.8358 -0.9234
38.8200 -25.8491 -0.9242
38.8400 -25.8625 -0.9230
38.8600 -25.8758 -0.9210
38.8800 -25.8891 -0.9228
38.9000 -25.9024 -0.9230
38.9200 -25.9158 -0.9219
38.9400 -25.9292 -0.9225
38.9600 -25.9425 -0.9226
38.9800 -25.9558 -0.9232
39.0000 -25.9691 -0.9225
39.0200 -25.9825 -0.9214
39.0400 -25.9958 -0.9184
39.0600 -26.0091 -0.9208
39.0800 -26.0224 -0.9194
39.1000 -26.0357 -0.9199
39.1200 -26.0491 -0.9210
39.1400 -26.0624 -0.9181
39.1600 -26.0757 -0.9163
39.1800 -26.0891 -0.9203
39.2000 -26.1024 -0.9155
39.2200 -26.1158 -0.9163
39.2400 -26.1291 -0.9176
39.2600 -26.1424 -0.9160
39.2800 -26.1558 -0.9142
39.3000 -26.1691 -0.9149
39.3200 -26.1825 -0.9133
39.3400 -26.1958 -0.9106
39.3600 -26.2091 -0.9130
39.3800 -26.2225 -0.9125
39.4000 -26.2358 -0.9101
39.4200 -26.2491 -0.9118
39.4400 -26.2624 -0.9078
39.4600 -26.2757 -0.9069
39.4800 -26.2891 -0.9073
39.5000 -26.3024 -0.9073
39.5200 -26.3158 -0.9048
39.5400 -26.3291 -0.9062
39.5600 -26.3425 -0.9040
39.5800 -26.3558 -0.9032
39.6000 -26.3691 -0.9034
39.6200 -26.3824 -0.9034
39.6400 -26.3958 -0.8992
39.6600 -26.4091 -0.8996
39.6800 -26.4225 -0.9001
39.7000 -26.4358 -0.8993
39.7200 -26.4491 -0.8996
39.7400 -26.4624 -0.8961
39.7600 -26.4758 -0.8954
39.7800 -26.4891 -0.8951
39.8000 -26.5024 -0.8948
39.8200 -26.5157 -0.8912
39.8400 -26.5291 -0.8962
39.8600 -26.5425 -0.8917
39.8800 -26.5558 -0.8916
39.9000 -26.5691 -0.8906
39.9200 -26.5825 -0.8892
39.9400 -26.5958 -0.8847
39.9600 -26.6092 -0.8885
39.9800 -26.6225 -0.8859
40.0000 -26.6358 -0.8873
40.0200 -26.6491 -0.8878
40.0400 -26.6625 -0.8839
40.0600 -26.6758 -0.8815
40.0800 -26.6891 -0.8823
40.1000 -26.7024 -0.8822
40.1200 -26.7158 -0.8806
40.1400 -26.7291 -0.8827
40.1600 -26.7424 -0.8788
40.1800 -26.7557 -0.8790
40.2000 -26.7691 -0.8798
40.2200 -26.7825 -0.8787
40.2400 -26.7958 -0.8761
40.2600 -26.8091 -0.8794
40.2800 -26.8224 -0.8779
40.3000 -26.8358 -0.8755
40.3200 -26.8491 -0.8776
40.3400 -26.8624 -0.8768
40.3600 -26.8758 -0.8752
40.3800 -26.8891 -0.8760
40.4000 -26.9025 -0.8757
40.4200 -26.9158 -0.8741
40.4400 -26.9291 -0.8749
40.4600 -26.9425 -0.8725
40.4800 -26.9558 -0.8704
40.5000 -26.9691 -0.8726
40.5200 -26.9824 -0.8706
40.5400 -26.9957 -0.8678
40.5600 -27.0091 -0.8707
40.5800 -27.0224 -0.8689
40.6000 -27.0357 -0.8678
40.6200 -27.0490 -0.8691
40.6400 -27.0624 -0.8669
40.6600 -27.0758 -0.8657
40.6800 -27.0892 -0.8646
40.7000 -27.1025 -0.8651
40.7200 -27.1158 -0.8614
40.7400 -27.1292 -0.8624
40.7600 -27.1425 -0.8609
40.7800 -27.1558 -0.8574
40.8000 -27.1691 -0.8589
40.8200 -27.1824 -0.8555
40.8400 -27.1958 -0.8544
40.8600 -27.2091 -0.8548
40.8800 -27.2224 -0.8558
40.9000 -27.2357 -0.8530
40.9200 -27.2491 -0.8548
40.9400 -27.2625 -0.8516
40.9600 -27.2758 -0.8519
40.9800 -27.2891 -0.8534
41.0000 -27.3025 -0.8524
41.0200 -27.3159 -0.8497
41.0400 -27.3292 -0.8527
41.0600 -27.3425 -0.8502
41.0800 -27.3558 -0.8494
41.1000 -27.3691 -0.8492
41.1200 -27.3825 -0.8514
41.1400 -27.3958 -0.8506
41.1600 -27.4091 -0.8517
41.1800 -27.4225 -0.8501
41.2000 -27.4358 -0.8487
41.2200 -27.4491 -0.8492
41.2400 -27.4624 -0.8475
41.2600 -27.4757 -0.8457
41.2800 -27.4891 -0.8483
41.3000 -27.5024 -0.8478
41.3200 -27.5158 -0.8461
41.3400 -27.5291 -0.8495
41.3600 -27.5424 -0.8477
41.3800 -27.5558 -0.8451
41.4000 -27.5691 -0.8455
41.4200 -27.5825 -0.8440
41.4400 -27.5958 -0.8412
41.4600 -27.6092 -0.8449
41.4800 -27.6225 -0.8446
41.5000 -27.6358 -0.8452
41.5200 -27.6491 -0.8445
41.5400 -27.6625 -0.8439
41.5600 -27.6758 -0.8395
41.5800 -27.6891 -0.8424
41.6000 -27.7024 -0.8401
41.6200 -27.7157 -0.8388
41.6400 -27.7291 -0.8391
41.6600 -27.7424 -0.8394
41.6800 -27.7557 -0.8368
41.7000 -27.7691 -0.8404
41.7200 -27.7824 -0.8377
41.7400 -27.7958 -0.8368
41.7600 -27.8092 -0.8383
41.7800 -27.8225 -0.8384
41.8000 -27.8358 -0.8361
41.8200 -27.8492 -0.8378
41.8400 -27.8625 -0.8357
41.8600 -27.8758 -0.8339
41.8800 -27.8891 -0.8345
41.9000 -27.9024 -0.8352
41.9200 -27.9158 -0.8344
41.9400 -27.9291 -0.8341
41.9600 -27.9424 -0.8363
41.9800 -27.9557 -0.8314
42.0000 -27.9691 -0.8327
42.0200 -27.9824 -0.8323
42.0400 -27.9958 -0.8286
42.0600 -28.0091 -0.8301
42.0800 -28.0224 -0.8277
42.1000 -28.0358 -0.8261
42.1200 -28.0491 -0.8273
42.1400 -28.0624 -0.8267
42.1600 -28.0758 -0.8230
42.1800 -28.0891 -0.8250
42.2000 -28.1025 -0.8242
42.2200 -28.1158 -0.8224
42.2400 -28.1291 -0.8230
42.2600 -28.1425 -0.8218
42.2800 -28.1558 -0.8207
42.3000 -28.1691 -0.8177
42.3200 -28.1824 -0.8193
42.3400 -28.1957 -0.8146
42.3600 -28.2091 -0.8174
42.3800 -28.2224 -0.8167
42.4000 -28.2358 -0.8139
42.4200 -28.2491 -0.8127
42.4400 -28.2624 -0.8125
42.4600 -28.2758 -0.8102
42.4800 -28.2891 -0.8102
42.5000 -28.3024 -0.8098
42.5200 -28.3157 -0.8098
42.5400 -28.3291 -0.8090
42.5600 -28.3425 -0.8075
42.5800 -28.3558 -0.8076
42.6000 -28.3691 -0.8071
42.6200 -28.3825 -0.8042
42.6400 -28.3958 -0.8031
42.6600 -28.4091 -0.8043
42.6800 -28.4224 -0.8040
42.7000 -28.4357 -0.8005
42.7200 -28.4491 -0.8029
42.7400 -28.4624 -0.8013
42.7600 -28.4757 -0.7965
42.7800 -28.4890 -0.7979
42.8000 -28.5024 -0.7969
42.8200 -28.5158 -0.7948
42.8400 -28.5292 -0.7948
42.8600 -28.5425 -0.7950
42.8800 -28.5558 -0.7907
42.9000 -28.5691 -0.7914
42.9200 -28.5825 -0.7916
42.9400 -28.5958 -0.7872
42.9600 -28.6091 -0.7875
42.9800 -28.6224 -0.7888
43.0000 -28.6357 -0.7867
43.0200 -28.6491 -0.7860
43.0400 -28.6624 -0.7855
43.0600 -28.6757 -0.7807
43.0800 -28.6891 -0.7831
43.1000 -28.7024 -0.7828
43.1200 -28.7158 -0.7816
43.1400 -28.7291 -0.7816
43.1600 -28.7424 -0.7828
43.1800 -28.7558 -0.7793
43.2000 -28.7692 -0.7816
43.2200 -28.7825 -0.7802
43.2400 -28.7958 -0.7787
43.2600 -28.8091 -0.7770
43.2800 -28.8225 -0.7797
43.3000 -28.8358 -0.7763
43.3200 -28.8491 -0.7777
43.3400 -28.8625 -0.7779
43.3600 -28.8758 -0.7746
43.3800 -28.8892 -0.7741
43.4000 -28.9024 -0.7759
43.4200 -28.9157 -0.7755
43.4400 -28.9291 -0.7768
43.4600 -28.9424 -0.7775
43.4800 -28.9558 -0.7736
43.5000 -28.9691 -0.7764
43.5200 -28.9824 -0.7744
43.5400 -28.9958 -0.7736
43.5600 -29.0092 -0.7745
43.5800 -29.0225 -0.7758
43.6000 -29.0358 -0.7745
43.6200 -29.0491 -0.7754
43.6400 -29.0625 -0.7764
43.6600 -29.0758 -0.7745
43.6800 -29.0891 -0.7745
43.7000 -29.1024 -0.7755
43.7200 -29.1158 -0.7734
43.7400 -29.1291 -0.7744
43.7600 -29.1424 -0.7765
43.7800 -29.1557 -0.7733
43.8000 -29.1691 -0.7756
43.8200 -29.1824 -0.7743
43.8400 -29.1958 -0.7738
43.8600 -29.2091 -0.7738
43.8800 -29.2224 -0.7727
43.9000 -29.2358 -0.7720
43.9200 -29.2492 -0.7699
43.9400 -29.2625 -0.7734
43.9600 -29.2758 -0.7696
43.9800 -29.2891 -0.7715
44.0000 -29.3025 -0.7720
44.0200 -29.3158 -0.7706
44.0400 -29.3291 -0.7693
44.0600 -29.3424 -0.7700
44.0800 -29.3558 -0.7676
44.1000 -29.3691 -0.7681
44.1200 -29.3824 -0.7678
44.1400 -29.3957 -0.7675
44.1600 -29.4090 -0.7671
44.1800 -29.4224 -0.7674
44.2000 -29.4358 -0.7631
44.2200 -29.4491 -0.7640
44.2400 -29.4624 -0.7635
44.2600 -29.4758 -0.7614
44.2800 -29.4892 -0.7623
44.3000 -29.5025 -0.7629
44.3200 -29.5158 -0.7612
44.3400 -29.5291 -0.7614
44.3600 -29.5425 -0.7596
44.3800 -29.5558 -0.7580
44.4000 -29.5691 -0.7557
44.4200 -29.5824 -0.7580
44.4400 -29.5958 -0.7560
44.4600 -29.6091 -0.7557
44.4800 -29.6224 -0.7571
44.5000 -29.6357 -0.7527
44.5200 -29.6490 -0.7522
44.5400 -29.6624 -0.7544
44.5600 -29.6758 -0.7523
44.5800 -29.6891 -0.7517
44.6000 -29.7024 -0.7520
44.6200 -29.7158 -0.7477
44.6400 -29.7292 -0.7479
44.6600 -29.7425 -0.7486
44.6800 -29.7558 -0.7469
44.7000 -29.7691 -0.7463
44.7200 -29.7825 -0.7476
44.7400 -29.7958 -0.7417
44.7600 -29.8091 -0.7426
44.7800 -29.8224 -0.7435
44.8000 -29.8358 -0.7426
44.8200 -29.8491 -0.7412
44.8400 -29.8624 -0.7421
44.8600 -29.8757 -0.7386
44.8800 -29.8890 -0.7399
44.9000 -29.9024 -0.7384
44.9200 -29.9157 -0.7375
44.9400 -29.9291 -0.7373
44.9600 -29.9424 -0.7369
44.9800 -29.9558 -0.7355
45.0000 -29.9692 -0.7323
45.0200 -29.9825 -0.7341
45.0400 -29.9958 -0.7317
45.0600 -30.0091 -0.7323
45.0800 -30.0225 -0.7309
45.1000 -30.0358 -0.7279
45.1200 -30.0491 -0.7300
45.1400 -30.0624 -0.7308
45.1600 -30.0758 -0.7290
45.1800 -30.0891 -0.7281
45.2000 -30.1024 -0.7272
45.2200 -30.1157 -0.7245
45.2400 -30.1290 -0.7226
45.2600 -30.1424 -0.7248
45.2800 -30.1558 -0.7228
45.3000 -30.1691 -0.7237
45.3200 -30.1824 -0.7216
45.3400 -30.1958 -0.7222
45.3600 -30.2092 -0.7218
45.3800 -30.2225 -0.7247
45.4000 -30.2357 -0.7216
45.4200 -30.2491 -0.7219
45.4400 -30.2624 -0.7191
45.4600 -30.2758 -0.7194
45.4800 -30.2891 -0.7193
45.5000 -30.3025 -0.7203
45.5200 -30.3158 -0.7205
45.5400 -30.3291 -0.7175
45.5600 -30.3425 -0.7213
45.5800 -30.3557 -0.7189
45.6000 -30.3691 -0.7217
45.6200 -30.3824 -0.7187
45.6400 -30.3958 -0.7189
45.6600 -30.4091 -0.7161
45.6800 -30.4224 -0.7197
45.7000 -30.4358 -0.7170
45.7200 -30.4492 -0.7187
45.7400 -30.4625 -0.7173
45.7600 -30.4758 -0.7175
45.7800 -30.4891 -0.7164
45.8000 -30.5025 -0.7139
45.8200 -30.5159 -0.7128
45.8400 -30.5291 -0.7155
45.8600 -30.5424 -0.7134
45.8800 -30.5558 -0.7133
45.9000 -30.5691 -0.7113
45.9200 -30.5824 -0.7115
45.9400 -30.5957 -0.7104
45.9600 -30.6090 -0.7102
45.9800 -30.6224 -0.7076
46.0000 -30.6357 -0.7070
46.0200 -30.6491 -0.7065
46.0400 -30.6624 -0.7054
46.0600 -30.6757 -0.7055
46.0800 -30.6891 -0.7041
46.1000 -30.7025 -0.7023
46.1200 -30.7158 -0.7022
46.1400 -30.7291 -0.7016
46.1600 -30.7425 -0.7008
46.1800 -30.7558 -0.7004
46.2000 -30.7691 -0.6996
46.2200 -30.7824 -0.6991
46.2400 -30.7958 -0.6970
46.2600 -30.8091 -0.6952
46.2800 -30.8224 -0.6933
46.3000 -30.8357 -0.6973
46.3200 -30.8490 -0.6936
46.3400 -30.8624 -0.6952
46.3600 -30.8758 -0.6920
46.3800 -30.8891 -0.6918
46.4000 -30.9024 -0.6916
46.4200 -30.9158 -0.6920
46.4400 -30.9291 -0.6898
46.4600 -30.9425 -0.6891
46.4800 -30.9558 -0.6880
46.5000 -30.9691 -0.6857
46.5200 -30.9825 -0.6850
46.5400 -30.9958 -0.6853
46.5600 -31.0092 -0.6830
46.5800 -31.0225 -0.6840
46.6000 -31.0358 -0.6846
46.6200 -31.0492 -0.6832
46.6400 -31.0625 -0.6820
46.6600 -31.0757 -0.6822
46.6800 -31.0891 -0.6793
46.7000 -31.1024 -0.6815
46.7200 -31.1158 -0.6795
46.7400 -31.1291 -0.6773
46.7600 -31.1424 -0.6770
46.7800 -31.1558 -0.6754
46.8000 -31.1692 -0.6747
46.8200 -31.1825 -0.6762
46.8400 -31.1958 -0.6768
46.8600 -31.2091 -0.6745
46.8800 -31.2224 -0.6755
46.9000 -31.2358 -0.6743
46.9200 -31.2491 -0.6746
46.9400 -31.2624 -0.6746
46.9600 -31.2758 -0.6730
46.9800 -31.2891 -0.6712
47.0000 -31.3024 -0.6704
47.0200 -31.3157 -0.6707
47.0400 -31.3290 -0.6701
47.0600 -31.3424 -0.6696
47.0800 -31.3558 -0.6684
47.1000 -31.3691 -0.6690
47.1200 -31.3824 -0.6678
47.1400 -31.3958 -0.6677
47.1600 -31.4091 -0.6639
47.1800 -31.4225 -0.6659
47.2000 -31.4358 -0.6641
47.2200 -31.4491 -0.6624
47.2400 -31.4624 -0.6633
47.2600 -31.4758 -0.6611
47.2800 -31.4891 -0.6605
47.3000 -31.5024 -0.6610
47.3200 -31.5158 -0.6590
47.3400 -31.5291 -0.6576
47.3600 -31.5424 -0.6577
47.3800 -31.5557 -0.6593
47.4000 -31.5690 -0.6577
47.4200 -31.5824 -0.6580
47.4400 -31.5958 -0.6560
47.4600 -31.6091 -0.6556
47.4800 -31.6224 -0.6550
47.5000 -31.6357 -0.6537
47.5200 -31.6491 -0.6523
47.5400 -31.6625 -0.6521
47.5600 -31.6758 -0.6518
47.5800 -31.6891 -0.6522
47.6000 -31.7024 -0.6521
47.6200 -31.7158 -0.6488
47.6400 -31.7292 -0.6476
47.6600 -31.7425 -0.6478
47.6800 -31.7558 -0.6478
47.7000 -31.7692 -0.6468
47.7200 -31.7825 -0.6462
47.7400 -31.7958 -0.6450
47.7600 -31.8091 -0.6422
47.7800 -31.8224 -0.6449
47.8000 -31.8357 -0.6414
47.8200 -31.8490 -0.6421
47.8400 -31.8624 -0.6416
47.8600 -31.8757 -0.6405
47.8800 -31.8891 -0.6388
47.9000 -31.9025 -0.6374
47.9200 -31.9158 -0.6377
47.9400 -31.9291 -0.6352
47.9600 -31.9425 -0.6360
47.9800 -31.9559 -0.6335
48.0000 -31.9692 -0.6338
48.0200 -31.9825 -0.6320
48.0400 -31.9958 -0.6340
48.0600 -32.0091 -0.6304
48.0800 -32.0224 -0.6309
48.1000 -32.0357 -0.6276
48.1200 -32.0491 -0.6282
48.1400 -32.0624 -0.6246
48.1600 -32.0758 -0.6269
48.1800 -32.0891 -0.6232
48.2000 -32.1024 -0.6241
48.2200 -32.1158 -0.6223
48.2400 -32.1292 -0.6225
48.2600 -32.1425 -0.6198
48.2800 -32.1558 -0.6200
48.3000 -32.1691 -0.6180
48.3200 -32.1824 -0.6183
48.3400 -32.1958 -0.6166
48.3600 -32.2091 -0.6148
48.3800 -32.2224 -0.6152
48.4000 -32.2358 -0.6129
48.4200 -32.2491 -0.6143
48.4400 -32.2624 -0.6117
48.4600 -32.2757 -0.6117
48.4800 -32.2890 -0.6104
48.5000 -32.3024 -0.6100
48.5200 -32.3158 -0.6112
48.5400 -32.3291 -0.6116
48.5600 -32.3424 -0.6081
48.5800 -32.3557 -0.6086
48.6000 -32.3691 -0.6053
48.6200 -32.3825 -0.6051
48.6400 -32.3958 -0.6012
48.6600 -32.4091 -0.6038
48.6800 -32.4225 -0.6007
48.7000 -32.4358 -0.6030
48.7200 -32.4492 -0.5997
48.7400 -32.4625 -0.6002
48.7600 -32.4758 -0.5974
48.7800 -32.4891 -0.5958
48.8000 -32.5025 -0.5936
48.8200 -32.5157 -0.5948
48.8400 -32.5290 -0.5910
48.8600 -32.5424 -0.5934
48.8800 -32.5557 -0.5912
48.9000 -32.5691 -0.5919
48.9200 -32.5824 -0.5892
48.9400 -32.5957 -0.5911
48.9600 -32.6091 -0.5884
48.9800 -32.6225 -0.5899
49.0000 -32.6358 -0.5892
49.0200 -32.6491 -0.5885
49.0400 -32.6625 -0.5887
49.0600 -32.6758 -0.5873
49.0800 -32.6892 -0.5876
49.1000 -32.7025 -0.5876
49.1200 -32.7158 -0.5855
49.1400 -32.7291 -0.5849
49.1600 -32.7425 -0.5863
49.1800 -32.7558 -0.5842
49.2000 -32.7691 -0.5864
49.2200 -32.7824 -0.5845
49.2400 -32.7958 -0.5864
49.2600 -32.8091 -0.5867
49.2800 -32.8224 -0.5866
49.3000 -32.8357 -0.5867
49.3200 -32.8491 -0.5899
49.3400 -32.8625 -0.5885
49.3600 -32.8758 -0.5880
49.3800 -32.8891 -0.5872
49.4000 -32.9024 -0.5888
49.4200 -32.9158 -0.5882
49.4400 -32.9292 -0.5894
49.4600 -32.9425 -0.5884
49.4800 -32.9558 -0.5902
49.5000 -32.9691 -0.5890
49.5200 -32.9825 -0.5905
49.5400 -32.9958 -0.5905
49.5600 -33.0091 -0.5924
49.5800 -33.0224 -0.5916
49.6000 -33.0357 -0.5917
49.6200 -33.0491 -0.5907
49.6400 -33.0624 -0.5901
49.6600 -33.0757 -0.5890
49.6800 -33.0891 -0.5884
49.7000 -33.1025 -0.5873
49.7200 -33.1158 -0.5882
49.7400 -33.1291 -0.5883
49.7600 -33.1424 -0.5863
49.7800 -33.1558 -0.5853
49.8000 -33.1692 -0.5827
49.8200 -33.1825 -0.5826
49.8400 -33.1958 -0.5801
49.8600 -33.2091 -0.5790
49.8800 -33.2225 -0.5777
49.9000 -33.2358 -0.5787
49.9200 -33.2491 -0.5769
49.9400 -33.2624 -0.5749
49.9600 -33.2757 -0.5727
49.9800 -33.2891 -0.5720
50.0000 -33.3024 -0.5708
50.0200 -33.3157 -0.5707
50.0400 -33.3291 -0.5712
50.0600 -33.3424 -0.5658
50.0800 -33.3558 -0.5665
50.1000 -33.3691 -0.5641
50.1200 -33.3825 -0.5632
50.1400 -33.3958 -0.5603
50.1600 -33.4092 -0.5596
50.1800 -33.4225 -0.5578
50.2000 -33.4358 -0.5575
50.2200 -33.4491 -0.5555
50.2400 -33.4624 -0.5546
50.2600 -33.4757 -0.5525
50.2800 -33.4890 -0.5512
50.3000 -33.5024 -0.5493
50.3200 -33.5157 -0.5509
50.3400 -33.5291 -0.5488
50.3600 -33.5424 -0.5469
50.3800 -33.5558 -0.5429
50.4000 -33.5691 -0.5420
50.4200 -33.5825 -0.5393
50.4400 -33.5958 -0.5389
50.4600 -33.6091 -0.5382
50.4800 -33.6225 -0.5381
50.5000 -33.6358 -0.5362
50.5200 -33.6492 -0.5366
50.5400 -33.6625 -0.5327
50.5600 -33.6758 -0.5300
50.5800 -33.6891 -0.5306
50.6000 -33.7025 -0.5287
50.6200 -33.7158 -0.5272
50.6400 -33.7291 -0.5265
50.6600 -33.7424 -0.5241
50.6800 -33.7558 -0.5244
50.7000 -33.7691 -0.5227
50.7200 -33.7824 -0.5213
50.7400 -33.7957 -0.5203
50.7600 -33.8091 -0.5199
50.7800 -33.8225 -0.5204
50.8000 -33.8358 -0.5174
50.8200 -33.8491 -0.5181
50.8400 -33.8624 -0.5164
50.8600 -33.8758 -0.5165
50.8800 -33.8891 -0.5152
50.9000 -33.9025 -0.5157
50.9200 -33.9158 -0.5160
50.9400 -33.9291 -0.5186
50.9600 -33.9424 -0.5158
50.9800 -33.9557 -0.5171
51.0000 -33.9690 -0.5164
51.0200 -33.9823 -0.5166
51.0400 -33.9957 -0.5157
51.0600 -34.0091 -0.5170
51.0800 -34.0224 -0.5144
51.1000 -34.0358 -0.5144
51.1200 -34.0491 -0.5143
51.1400 -34.0625 -0.5171
51.1600 -34.0758 -0.5155
51.1800 -34.0891 -0.5163
51.2000 -34.1024 -0.5150
51.2200 -34.1158 -0.5164
51.2400 -34.1291 -0.5149
51.2600 -34.1424 -0.5161
51.2800 -34.1557 -0.5128
51.3000 -34.1691 -0.5140
51.3200 -34.1824 -0.5139
51.3400 -34.1957 -0.5123
51.3600 -34.2090 -0.5150
51.3800 -34.2224 -0.5128
51.4000 -34.2357 -0.5136
51.4200 -34.2491 -0.5130
51.4400 -34.2625 -0.5122
51.4600 -34.2758 -0.5113
51.4800 -34.2891 -0.5120
51.5000 -34.3025 -0.5115
51.5200 -34.3158 -0.5116
51.5400 -34.3291 -0.5117
51.5600 -34.3425 -0.5093
51.5800 -34.3558 -0.5084
51.6000 -34.3692 -0.5089
51.6200 -34.3825 -0.5082
51.6400 -34.3958 -0.5053
51.6600 -34.4091 -0.5038
51.6800 -34.4224 -0.5003
51.7000 -34.4357 -0.5008
51.7200 -34.4490 -0.5022
51.7400 -34.4623 -0.4997
51.7600 -34.4757 -0.4978
51.7800 -34.4891 -0.4962
51.8000 -34.5024 -0.4945
51.8200 -34.5157 -0.4925
51.8400 -34.5291 -0.4933
51.8600 -34.5425 -0.4896
51.8800 -34.5558 -0.4875
51.9000 -34.5692 -0.4848
51.9200 -34.5825 -0.4849
51.9400 -34.5958 -0.4806
51.9600 -34.6092 -0.4804
51.9800 -34.6225 -0.4771
52.0000 -34.6358 -0.4761
52.0200 -34.6491 -0.4751
52.0400 -34.6624 -0.4755
52.0600 -34.6758 -0.4704
52.0800 -34.6890 -0.4700
52.1000 -34.7023 -0.4697
52.1200 -34.7157 -0.4681
52.1400 -34.7291 -0.4693
52.1600 -34.7424 -0.4657
52.1800 -34.7557 -0.4646
52.2000 -34.7691 -0.4659
52.2200 -34.7825 -0.4637
52.2400 -34.7958 -0.4620
52.2600 -34.8092 -0.4632
52.2800 -34.8225 -0.4611
52.3000 -34.8358 -0.4604
52.3200 -34.8492 -0.4596
52.3400 -34.8625 -0.4577
52.3600 -34.8758 -0.4563
52.3800 -34.8891 -0.4568
52.4000 -34.9024 -0.4549
52.4200 -34.9157 -0.4515
52.4400 -34.9290 -0.4521
52.4600 -34.9424 -0.4499
52.4800 -34.9557 -0.4478
52.5000 -34.9691 -0.4483
52.5200 -34.9824 -0.4470
52.5400 -34.9958 -0.4470
52.5600 -35.0091 -0.4469
52.5800 -35.0225 -0.4455
52.6000 -35.0358 -0.4438
52.6200 -35.0491 -0.4434
52.6400 -35.0624 -0.4429
52.6600 -35.0757 -0.4402
52.6800 -35.0891 -0.4411
52.7000 -35.1025 -0.4366
52.7200 -35.1158 -0.4370
52.7400 -35.1291 -0.4346
52.7600 -35.1425 -0.4335
52.7800 -35.1558 -0.4334
52.8000 -35.1691 -0.4345
52.8200 -35.1824 -0.4325
52.8400 -35.1957 -0.4319
52.8600 -35.2091 -0.4296
52.8800 -35.2224 -0.4320
52.9000 -35.2357 -0.4314
52.9200 -35.2491 -0.4319
52.9400 -35.2625 -0.4317
52.9600 -35.2758 -0.4302
52.9800 -35.2892 -0.4305
53.0000 -35.3025 -0.4289
53.0200 -35.3158 -0.4298
53.0400 -35.3292 -0.4309
53.0600 -35.3425 -0.4294
53.0800 -35.3558 -0.4272
53.1000 -35.3691 -0.4264
53.1200 -35.3825 -0.4262
53.1400 -35.3958 -0.4246
53.1600 -35.4091 -0.4246
53.1800 -35.4224 -0.4230
53.2000 -35.4357 -0.4220
53.2200 -35.4491 -0.4204
53.2400 -35.4624 -0.4189
53.2600 -35.4757 -0.4179
53.2800 -35.4891 -0.4171
53.3000 -35.5025 -0.4167
53.3200 -35.5158 -0.4145
53.3400 -35.5292 -0.4138
53.3600 -35.5425 -0.4127
53.3800 -35.5558 -0.4128
53.4000 -35.5692 -0.4100
53.4200 -35.5825 -0.4118
53.4400 -35.5958 -0.4105
53.4600 -35.6091 -0.4122
53.4800 -35.6224 -0.4090
53.5000 -35.6358 -0.4082
53.5200 -35.6491 -0.4072
53.5400 -35.6624 -0.4084
53.5600 -35.6757 -0.4044
53.5800 -35.6891 -0.4061
53.6000 -35.7024 -0.4004
53.6200 -35.7157 -0.4023
53.6400 -35.7291 -0.4013
53.6600 -35.7424 -0.4020
53.6800 -35.7558 -0.3999
53.7000 -35.7691 -0.3987
53.7200 -35.7824 -0.3993
53.7400 -35.7958 -0.3987
53.7600 -35.8091 -0.3957
53.7800 -35.8225 -0.3982
53.8000 -35.8358 -0.3939
53.8200 -35.8491 -0.3957
53.8400 -35.8625 -0.3930
53.8600 -35.8758 -0.3926
53.8800 -35.8891 -0.3905
53.9000 -35.9024 -0.3937
53.9200 -35.9157 -0.3903
53.9400 -35.9291 -0.3896
53.9600 -35.9424 -0.3876
53.9800 -35.9558 -0.3843
54.0000 -35.9691 -0.3849
54.0200 -35.9825 -0.3850
54.0400 -35.9958 -0.3824
54.0600 -36.0092 -0.3804
54.0800 -36.0224 -0.3809
54.1000 -36.0357 -0.3774
54.1200 -36.0491 -0.3767
54.1400 -36.0624 -0.3754
54.1600 -36.0758 -0.3772
54.1800 -36.0891 -0.3736
54.2000 -36.1025 -0.3735
54.2200 -36.1158 -0.3681
54.2400 -36.1291 -0.3692
54.2600 -36.1424 -0.3669
54.2800 -36.1557 -0.3648
54.3000 -36.1691 -0.3629
54.3200 -36.1825 -0.3649
54.3400 -36.1958 -0.3582
54.3600 -36.2091 -0.3593
54.3800 -36.2225 -0.3587
54.4000 -36.2358 -0.3563
54.4200 -36.2491 -0.3571
54.4400 -36.2625 -0.3559
54.4600 -36.2758 -0.3550
54.4800 -36.2891 -0.3527
54.5000 -36.3025 -0.3505
54.5200 -36.3158 -0.3485
54.5400 -36.3291 -0.3488
54.5600 -36.3424 -0.3476
54.5800 -36.3558 -0.3447
54.6000 -36.3691 -0.3465
54.6200 -36.3824 -0.3429
54.6400 -36.3957 -0.3416
54.6600 -36.4091 -0.3411
54.6800 -36.4225 -0.3407
54.7000 -36.4358 -0.3382
54.7200 -36.4491 -0.3364
54.7400 -36.4625 -0.3353
54.7600 -36.4758 -0.3342
54.7800 -36.4892 -0.3352
54.8000 -36.5024 -0.3341
54.8200 -36.5158 -0.3314
54.8400 -36.5291 -0.3311
54.8600 -36.5425 -0.3316
54.8800 -36.5558 -0.3277
54.9000 -36.5691 -0.3263
54.9200 -36.5825 -0.3258
54.9400 -36.5958 -0.3244
54.9600 -36.6091 -0.3231
54.9800 -36.6224 -0.3235
55.0000 -36.6357 -0.3230
55.0200 -36.6490 -0.3220
55.0400 -36.6624 -0.3196
55.0600 -36.6757 -0.3173
55.0800 -36.6890 -0.3158
55.1000 -36.7024 -0.3169
55.1200 -36.7158 -0.3138
55.1400 -36.7292 -0.3128
55.1600 -36.7425 -0.3150
55.1800 -36.7558 -0.3121
55.2000 -36.7692 -0.3111
55.2200 -36.7825 -0.3097
55.2400 -36.7958 -0.3102
55.2600 -36.8091 -0.3056
55.2800 -36.8224 -0.3082
55.3000 -36.8358 -0.3039
55.3200 -36.8491 -0.3044
55.3400 -36.8624 -0.3027
55.3600 -36.8757 -0.3004
55.3800 -36.8891 -0.2983
55.4000 -36.9025 -0.2996
55.4200 -36.9158 -0.2950
55.4400 -36.9291 -0.2941
55.4600 -36.9425 -0.2931
55.4800 -36.9558 -0.2892
55.5000 -36.9692 -0.2885
55.5200 -36.9824 -0.2913
55.5400 -36.9958 -0.2864
55.5600 -37.0091 -0.2856
55.5800 -37.0225 -0.2836
55.6000 -37.0358 -0.2819
55.6200 -37.0491 -0.2807
55.6400 -37.0624 -0.2827
55.6600 -37.0758 -0.2795
55.6800 -37.0891 -0.2790
55.7000 -37.1024 -0.2783
55.7200 -37.1157 -0.2774
55.7400 -37.1290 -0.2786
55.7600 -37.1424 -0.2761
55.7800 -37.1558 -0.2751
55.8000 -37.1691 -0.2714
55.8200 -37.1824 -0.2743
55.8400 -37.1958 -0.2707
55.8600 -37.2091 -0.2707
55.8800 -37.2225 -0.2695
55.9000 -37.2358 -0.2671
55.9200 -37.2492 -0.2638
55.9400 -37.2625 -0.2660
55.9600 -37.2758 -0.2612
55.9800 -37.2891 -0.2619
56.0000 -37.3025 -0.2600
56.0200 -37.3158 -0.2599
56.0400 -37.3291 -0.2568
56.0600 -37.3424 -0.2579
56.0800 -37.3557 -0.2538
56.1000 -37.3690 -0.2553
56.1200 -37.3824 -0.2538
56.1400 -37.3957 -0.2507
56.1600 -37.4091 -0.2482
56.1800 -37.4224 -0.2491
56.2000 -37.4358 -0.2452
56.2200 -37.4492 -0.2426
56.2400 -37.4625 -0.2427
56.2600 -37.4758 -0.2401
56.2800 -37.4892 -0.2382
56.3000 -37.5025 -0.2377
56.3200 -37.5158 -0.2344
56.3400 -37.5291 -0.2336
56.3600 -37.5424 -0.2341
56.3800 -37.5558 -0.2315
56.4000 -37.5691 -0.2282
56.4200 -37.5824 -0.2281
56.4400 -37.5957 -0.2262
56.4600 -37.6091 -0.2245
56.4800 -37.6224 -0.2266
56.5000 -37.6358 -0.2238
56.5200 -37.6491 -0.2245
56.5400 -37.6624 -0.2243
56.5600 -37.6758 -0.2213
56.5800 -37.6891 -0.2188
56.6000 -37.7025 -0.2200
56.6200 -37.7158 -0.2178
56.6400 -37.7291 -0.2158
56.6600 -37.7425 -0.2155
56.6800 -37.7558 -0.2131
56.7000 -37.7691 -0.2108
56.7200 -37.7825 -0.2120
56.7400 -37.7958 -0.2081
56.7600 -37.8091 -0.2071
56.7800 -37.8224 -0.2084
56.8000 -37.8357 -0.2059
56.8200 -37.8491 -0.2067
56.8400 -37.8624 -0.2060
56.8600 -37.8757 -0.2040
56.8800 -37.8891 -0.2004
56.9000 -37.9024 -0.2020
56.9200 -37.9158 -0.1993
56.9400 -37.9292 -0.2002
56.9600 -37.9425 -0.2000
56.9800 -37.9557 -0.1964
57.0000 -37.9691 -0.1939
57.0200 -37.9825 -0.1947
57.0400 -37.9958 -0.1920
57.0600 -38.0092 -0.1893
57.0800 -38.0225 -0.1901
57.1000 -38.0358 -0.1844
57.1200 -38.0491 -0.1840
57.1400 -38.0624 -0.1836
57.1600 -38.0757 -0.1817
57.1800 -38.0890 -0.1762
57.2000 -38.1024 -0.1769
57.2200 -38.1158 -0.1763
57.2400 -38.1291 -0.1719
57.2600 -38.1424 -0.1733
57.2800 -38.1558 -0.1711
57.3000 -38.1692 -0.1678
57.3200 -38.1825 -0.1666
57.3400 -38.1958 -0.1631
57.3600 -38.2091 -0.1618
57.3800 -38.2225 -0.1612
57.4000 -38.2358 -0.1588
57.4200 -38.2491 -0.1579
57.4400 -38.2624 -0.1586
57.4600 -38.2757 -0.1542
57.4800 -38.2891 -0.1536
57.5000 -38.3024 -0.1544
57.5200 -38.3157 -0.1524
57.5400 -38.3290 -0.1498
57.5600 -38.3424 -0.1521
57.5800 -38.3557 -0.1483
57.6000 -38.3691 -0.1472
57.6200 -38.3824 -0.1459
57.6400 -38.3958 -0.1447
57.6600 -38.4092 -0.1396
57.6800 -38.4225 -0.1430
57.7000 -38.4358 -0.1406
57.7200 -38.4491 -0.1380
57.7400 -38.4625 -0.1399
57.7600 -38.4758 -0.1373
57.7800 -38.4891 -0.1353
57.8000 -38.5025 -0.1346
57.8200 -38.5158 -0.1309
57.8400 -38.5291 -0.1292
57.8600 -38.5424 -0.1320
57.8800 -38.5557 -0.1277
57.9000 -38.5691 -0.1242
57.9200 -38.5824 -0.1237
57.9400 -38.5958 -0.1209
57.9600 -38.6091 -0.1186
57.9800 -38.6224 -0.1168
58.0000 -38.6358 -0.1156
58.0200 -38.6492 -0.1114
58.0400 -38.6625 -0.1131
58.0600 -38.6758 -0.1097
58.0800 -38.6891 -0.1078
58.1000 -38.7025 -0.1060
58.1200 -38.7158 -0.1032
58.1400 -38.7291 -0.1009
58.1600 -38.7424 -0.1006
58.1800 -38.7558 -0.0988
58.2000 -38.7691 -0.0973
58.2200 -38.7824 -0.0968
58.2400 -38.7957 -0.0925
58.2600 -38.8090 -0.0878
58.2800 -38.8224 -0.0897
58.3000 -38.8358 -0.0897
58.3200 -38.8491 -0.0866
58.3400 -38.8624 -0.0852
58.3600 -38.8758 -0.0825
58.3800 -38.8892 -0.0785
58.4000 -38.9025 -0.0782
58.4200 -38.9158 -0.0777
58.4400 -38.9291 -0.0743
58.4600 -38.9425 -0.0741
58.4800 -38.9558 -0.0721
58.5000 -38.9691 -0.0705
58.5200 -38.9824 -0.0687
58.5400 -38.9958 -0.0690
58.5600 -39.0091 -0.0643
58.5800 -39.0224 -0.0666
58.6000 -39.0357 -0.0624
58.6200 -39.0491 -0.0601
58.6400 -39.0624 -0.0611
58.6600 -39.0758 -0.0599
58.6800 -39.0891 -0.0572
58.7000 -39.1025 -0.0572
58.7200 -39.1158 -0.0548
58.7400 -39.1292 -0.0518
58.7600 -39.1425 -0.0524
58.7800 -39.1558 -0.0506
58.8000 -39.1691 -0.0463
58.8200 -39.1825 -0.0463
58.8400 -39.1958 -0.0451
58.8600 -39.2091 -0.0419
58.8800 -39.2225 -0.0399
58.9000 -39.2358 -0.0381
58.9200 -39.2491 -0.0358
58.9400 -39.2624 -0.0359
58.9600 -39.2757 -0.0342
58.9800 -39.2890 -0.0293
59.0000 -39.3024 -0.0277
59.0200 -39.3158 -0.0251
59.0400 -39.3291 -0.0212
59.0600 -39.3424 -0.0224
59.0800 -39.3558 -0.0212
59.1000 -39.3692 -0.0167
59.1200 -39.3825 -0.0173
59.1400 -39.3958 -0.0159
59.1600 -39.4091 -0.0107
59.1800 -39.4225 -0.0102
59.2000 -39.4358 -0.0081
59.2200 -39.4491 -0.0053
59.2400 -39.4624 -0.0028
59.2600 -39.4758 -0.0020
59.2800 -39.4891 0.0014
59.3000 -39.5024 -0.0001
59.3200 -39.5157 0.0021
59.3400 -39.5290 0.0068
59.3600 -39.5424 0.0060
59.3800 -39.5557 0.0066
59.4000 -39.5691 0.0105
59.4200 -39.5824 0.0120
59.4400 -39.5958 0.0133
59.4600 -39.6092 0.0169
59.4800 -39.6225 0.0153
59.5000 -39.6358 0.0199
59.5200 -39.6491 0.0220
59.5400 -39.6625 0.0245
59.5600 -39.6758 0.0231
59.5800 -39.6891 0.0267
59.6000 -39.7024 0.0266
59.6200 -39.7158 0.0310
59.6400 -39.7291 0.0342
59.6600 -39.7424 0.0355
59.6800 -39.7557 0.0363
59.7000 -39.7690 0.0417
59.7200 -39.7824 0.0410
59.7400 -39.7958 0.0446
59.7600 -39.8091 0.0471
59.7800 -39.8224 0.0492
59.8000 -39.8358 0.0492
59.8200 -39.8492 0.0539
59.8400 -39.8625 0.0549
59.8600 -39.8758 0.0542
59.8800 -39.8891 0.0586
59.9000 -39.9024 0.0598
59.9200 -39.9158 0.0614
59.9400 -39.9291 0.0636
59.9600 -39.9425 0.0654
59.9800 -39.9558 0.0671
60.0000 -39.9691 0.0695
60.0200 -39.9825 0.0718
60.0400 -39.9957 0.0748
60.0470 -40.0003 0.0798
