Raw Data
Time Displacement Force
(s) (mm) (N)
0.0000 0.0000 -0.6831
0.0200 -0.0001 -0.6869
0.0400 -0.0019 -0.6997
0.0600 -0.0093 -0.6981
0.0800 -0.0211 -0.6879
0.1000 -0.0337 -0.6881
0.1200 -0.0465 -0.6843
0.1400 -0.0598 -0.6882
0.1600 -0.0738 -0.6830
0.1800 -0.0879 -0.6843
0.2000 -0.1017 -0.6817
0.2200 -0.1153 -0.6800
0.2400 -0.1287 -0.6796
0.2600 -0.1420 -0.6803
0.2800 -0.1553 -0.6790
0.3000 -0.1686 -0.6751
0.3200 -0.1820 -0.6779
0.3400 -0.1954 -0.6763
0.3600 -0.2087 -0.6741
0.3800 -0.2220 -0.6732
0.4000 -0.2353 -0.6731
0.4200 -0.2486 -0.6695
0.4400 -0.2620 -0.6702
0.4600 -0.2754 -0.6689
0.4800 -0.2887 -0.6682
0.5000 -0.3020 -0.6674
0.5200 -0.3154 -0.6668
0.5400 -0.3288 -0.6639
0.5600 -0.3421 -0.6625
0.5800 -0.3554 -0.6602
0.6000 -0.3688 -0.6586
0.6200 -0.3821 -0.6601
0.6400 -0.3954 -0.6546
0.6600 -0.4087 -0.6540
0.6800 -0.4220 -0.6532
0.7000 -0.4354 -0.6512
0.7200 -0.4487 -0.6475
0.7400 -0.4619 -0.6488
0.7600 -0.4753 -0.6457
0.7800 -0.4887 -0.6457
0.8000 -0.5020 -0.6449
0.8200 -0.5154 -0.6424
0.8400 -0.5287 -0.6403
0.8600 -0.5421 -0.6404
0.8800 -0.5554 -0.6384
0.9000 -0.5688 -0.6364
0.9200 -0.5820 -0.6377
0.9400 -0.5954 -0.6348
0.9600 -0.6087 -0.6326
0.9800 -0.6221 -0.6304
1.0000 -0.6354 -0.6288
1.0200 -0.6487 -0.6266
1.0400 -0.6620 -0.6277
1.0600 -0.6753 -0.6231
1.0800 -0.6886 -0.6219
1.1000 -0.7019 -0.6220
1.1200 -0.7153 -0.6211
1.1400 -0.7286 -0.6184
1.1600 -0.7420 -0.6179
1.1800 -0.7554 -0.6130
1.2000 -0.7687 -0.6120
1.2200 -0.7821 -0.6118
1.2400 -0.7954 -0.6099
1.2600 -0.8088 -0.6081
1.2800 -0.8221 -0.6100
1.3000 -0.8354 -0.6088
1.3200 -0.8488 -0.6089
1.3400 -0.8621 -0.6050
1.3600 -0.8754 -0.6045
1.3800 -0.8887 -0.6026
1.4000 -0.9021 -0.6036
1.4200 -0.9154 -0.6011
1.4400 -0.9287 -0.5985
1.4600 -0.9420 -0.5973
1.4800 -0.9553 -0.5977
1.5000 -0.9686 -0.5955
1.5200 -0.9820 -0.5959
1.5400 -0.9953 -0.5922
1.5600 -1.0087 -0.5904
1.5800 -1.0220 -0.5907
1.6000 -1.0354 -0.5895
1.6200 -1.0488 -0.5873
1.6400 -1.0621 -0.5859
1.6600 -1.0754 -0.5859
1.6800 -1.0888 -0.5839
1.7000 -1.1021 -0.5821
1.7200 -1.1154 -0.5788
1.7400 -1.1287 -0.5782
1.7600 -1.1420 -0.5775
1.7800 -1.1554 -0.5774
1.8000 -1.1687 -0.5742
1.8200 -1.1820 -0.5753
1.8400 -1.1953 -0.5734
1.8600 -1.2087 -0.5718
1.8800 -1.2220 -0.5687
1.9000 -1.2354 -0.5707
1.9200 -1.2487 -0.5694
1.9400 -1.2621 -0.5707
1.9600 -1.2754 -0.5673
1.9800 -1.2888 -0.5639
2.0000 -1.3020 -0.5629
2.0200 -1.3153 -0.5635
2.0400 -1.3287 -0.5583
2.0600 -1.3421 -0.5591
2.0800 -1.3554 -0.5571
2.1000 -1.3687 -0.5559
2.1200 -1.3821 -0.5568
2.1400 -1.3954 -0.5541
2.1600 -1.4087 -0.5520
2.1800 -1.4220 -0.5516
2.2000 -1.4353 -0.5508
2.2200 -1.4487 -0.5501
2.2400 -1.4620 -0.5490
2.2600 -1.4753 -0.5472
2.2800 -1.4887 -0.5449
2.3000 -1.5020 -0.5438
2.3200 -1.5154 -0.5433
2.3400 -1.5288 -0.5408
2.3600 -1.5421 -0.5414
2.3800 -1.5554 -0.5413
2.4000 -1.5688 -0.5377
2.4200 -1.5821 -0.5386
2.4400 -1.5954 -0.5366
2.4600 -1.6087 -0.5359
2.4800 -1.6220 -0.5350
2.5000 -1.6354 -0.5340
2.5200 -1.6487 -0.5299
2.5400 -1.6620 -0.5293
2.5600 -1.6753 -0.5282
2.5800 -1.6886 -0.5263
2.6000 -1.7020 -0.5258
2.6200 -1.7154 -0.5238
2.6400 -1.7287 -0.5223
2.6600 -1.7420 -0.5230
2.6800 -1.7554 -0.5225
2.7000 -1.7688 -0.5198
2.7200 -1.7821 -0.5197
2.7400 -1.7954 -0.5189
2.7600 -1.8087 -0.5171
2.7800 -1.8221 -0.5167
2.8000 -1.8354 -0.5154
2.8200 -1.8487 -0.5132
2.8400 -1.8620 -0.5130
2.8600 -1.8754 -0.5138
2.8800 -1.8887 -0.5095
2.9000 -1.9020 -0.5120
2.9200 -1.9153 -0.5096
2.9400 -1.9287 -0.5074
2.9600 -1.9420 -0.5060
2.9800 -1.9554 -0.5078
3.0000 -1.9687 -0.5052
3.0200 -1.9820 -0.5063
3.0400 -1.9954 -0.5037
3.0600 -2.0087 -0.5007
3.0800 -2.0221 -0.4998
3.1000 -2.0354 -0.5003
3.1200 -2.0487 -0.4972
3.1400 -2.0621 -0.4991
3.1600 -2.0754 -0.4962
3.1800 -2.0887 -0.4949
3.2000 -2.1021 -0.4912
3.2200 -2.1154 -0.4910
3.2400 -2.1288 -0.4902
3.2600 -2.1420 -0.4891
3.2800 -2.1553 -0.4898
3.3000 -2.1687 -0.4875
3.3200 -2.1820 -0.4859
3.3400 -2.1954 -0.4845
3.3600 -2.2087 -0.4839
3.3800 -2.2220 -0.4836
3.4000 -2.2354 -0.4837
3.4200 -2.2488 -0.4811
3.4400 -2.2621 -0.4823
3.4600 -2.2754 -0.4782
3.4800 -2.2887 -0.4772
3.5000 -2.3021 -0.4748
3.5200 -2.3154 -0.4755
3.5400 -2.3287 -0.4735
3.5600 -2.3420 -0.4744
3.5800 -2.3554 -0.4708
3.6000 -2.3687 -0.4683
3.6200 -2.3820 -0.4657
3.6400 -2.3953 -0.4663
3.6600 -2.4087 -0.4649
3.6800 -2.4220 -0.4659
3.7000 -2.4354 -0.4606
3.7200 -2.4487 -0.4615
3.7400 -2.4620 -0.4592
3.7600 -2.4754 -0.4604
3.7800 -2.4888 -0.4574
3.8000 -2.5021 -0.4597
3.8200 -2.5154 -0.4567
3.8400 -2.5287 -0.4570
3.8600 -2.5421 -0.4533
3.8800 -2.5554 -0.4547
3.9000 -2.5687 -0.4514
3.9200 -2.5820 -0.4522
3.9400 -2.5954 -0.4508
3.9600 -2.6087 -0.4497
3.9800 -2.6220 -0.4488
4.0000 -2.6353 -0.4473
4.0200 -2.6487 -0.4475
4.0400 -2.6621 -0.4458
4.0600 -2.6754 -0.4450
4.0800 -2.6887 -0.4452
4.1000 -2.7020 -0.4438
4.1200 -2.7154 -0.4437
4.1400 -2.7287 -0.4426
4.1600 -2.7421 -0.4400
4.1800 -2.7554 -0.4409
4.2000 -2.7687 -0.4387
4.2200 -2.7821 -0.4392
4.2400 -2.7954 -0.4387
4.2600 -2.8087 -0.4407
4.2800 -2.8221 -0.4392
4.3000 -2.8354 -0.4370
4.3200 -2.8488 -0.4355
4.3400 -2.8620 -0.4369
4.3600 -2.8753 -0.4340
4.3800 -2.8886 -0.4332
4.4000 -2.9020 -0.4301
4.4200 -2.9153 -0.4311
4.4400 -2.9286 -0.4305
4.4600 -2.9420 -0.4325
4.4800 -2.9554 -0.4301
4.5000 -2.9688 -0.4281
4.5200 -2.9821 -0.4259
4.5400 -2.9954 -0.4252
4.5600 -3.0087 -0.4245
4.5800 -3.0221 -0.4219
4.6000 -3.0354 -0.4222
4.6200 -3.0487 -0.4202
4.6400 -3.0620 -0.4192
4.6600 -3.0753 -0.4192
4.6800 -3.0887 -0.4192
4.7000 -3.1020 -0.4181
4.7200 -3.1153 -0.4173
4.7400 -3.1287 -0.4162
4.7600 -3.1420 -0.4151
4.7800 -3.1554 -0.4141
4.8000 -3.1687 -0.4134
4.8200 -3.1820 -0.4131
4.8400 -3.1954 -0.4127
4.8600 -3.2088 -0.4127
4.8800 -3.2221 -0.4114
4.9000 -3.2354 -0.4102
4.9200 -3.2487 -0.4080
4.9400 -3.2621 -0.4076
4.9600 -3.2754 -0.4074
4.9800 -3.2887 -0.4054
5.0000 -3.3020 -0.4055
5.0200 -3.3154 -0.4029
5.0400 -3.3287 -0.4025
5.0600 -3.3420 -0.4019
5.0800 -3.3553 -0.4007
5.1000 -3.3687 -0.3995
5.1200 -3.3820 -0.3966
5.1400 -3.3954 -0.3960
5.1600 -3.4087 -0.3977
5.1800 -3.4220 -0.3960
5.2000 -3.4354 -0.3950
5.2200 -3.4487 -0.3939
5.2400 -3.4621 -0.3920
5.2600 -3.4754 -0.3920
5.2800 -3.4887 -0.3900
5.3000 -3.5021 -0.3903
5.3200 -3.5154 -0.3872
5.3400 -3.5287 -0.3864
5.3600 -3.5421 -0.3854
5.3800 -3.5554 -0.3876
5.4000 -3.5687 -0.3856
5.4200 -3.5820 -0.3841
5.4400 -3.5953 -0.3809
5.4600 -3.6086 -0.3829
5.4800 -3.6220 -0.3792
5.5000 -3.6353 -0.3798
5.5200 -3.6487 -0.3793
5.5400 -3.6620 -0.3804
5.5600 -3.6753 -0.3782
5.5800 -3.6887 -0.3763
5.6000 -3.7021 -0.3742
5.6200 -3.7154 -0.3740
5.6400 -3.7288 -0.3736
5.6600 -3.7421 -0.3716
5.6800 -3.7554 -0.3696
5.7000 -3.7687 -0.3689
5.7200 -3.7820 -0.3685
5.7400 -3.7954 -0.3669
5.7600 -3.8087 -0.3663
5.7800 -3.8221 -0.3644
5.8000 -3.8353 -0.3644
5.8200 -3.8487 -0.3635
5.8400 -3.8620 -0.3636
5.8600 -3.8754 -0.3598
5.8800 -3.8887 -0.3607
5.9000 -3.9020 -0.3574
5.9200 -3.9154 -0.3578
5.9400 -3.9287 -0.3560
5.9600 -3.9421 -0.3556
5.9800 -3.9554 -0.3541
6.0000 -3.9687 -0.3559
6.0200 -3.9821 -0.3533
6.0400 -3.9955 -0.3526
6.0600 -4.0088 -0.3508
6.0800 -4.0221 -0.3511
6.1000 -4.0354 -0.3479
6.1200 -4.0487 -0.3473
6.1400 -4.0621 -0.3473
6.1600 -4.0754 -0.3472
6.1800 -4.0887 -0.3484
6.2000 -4.1020 -0.3467
6.2200 -4.1154 -0.3450
6.2400 -4.1287 -0.3438
6.2600 -4.1420 -0.3421
6.2800 -4.1554 -0.3416
6.3000 -4.1687 -0.3426
6.3200 -4.1821 -0.3403
6.3400 -4.1954 -0.3404
6.3600 -4.2087 -0.3399
6.3800 -4.2221 -0.3392
6.4000 -4.2354 -0.3374
6.4200 -4.2488 -0.3384
6.4400 -4.2621 -0.3369
6.4600 -4.2754 -0.3351
6.4800 -4.2888 -0.3356
6.5000 -4.3021 -0.3333
6.5200 -4.3153 -0.3334
6.5400 -4.3286 -0.3342
6.5600 -4.3420 -0.3326
6.5800 -4.3553 -0.3309
6.6000 -4.3687 -0.3299
6.6200 -4.3820 -0.3290
6.6400 -4.3953 -0.3278
6.6600 -4.4087 -0.3257
6.6800 -4.4221 -0.3267
6.7000 -4.4354 -0.3262
6.7200 -4.4488 -0.3268
6.7400 -4.4621 -0.3245
6.7600 -4.4754 -0.3231
6.7800 -4.4888 -0.3231
6.8000 -4.5020 -0.3207
6.8200 -4.5153 -0.3202
6.8400 -4.5287 -0.3199
6.8600 -4.5420 -0.3193
6.8800 -4.5553 -0.3183
6.9000 -4.5686 -0.3162
6.9200 -4.5820 -0.3148
6.9400 -4.5954 -0.3131
6.9600 -4.6087 -0.3118
6.9800 -4.6220 -0.3116
7.0000 -4.6354 -0.3090
7.0200 -4.6488 -0.3085
7.0400 -4.6621 -0.3079
7.0600 -4.6754 -0.3091
7.0800 -4.6887 -0.3088
7.1000 -4.7020 -0.3073
7.1200 -4.7154 -0.3069
7.1400 -4.7288 -0.3054
7.1600 -4.7421 -0.3036
7.1800 -4.7554 -0.3022
7.2000 -4.7687 -0.3035
7.2200 -4.7821 -0.3029
7.2400 -4.7954 -0.3024
7.2600 -4.8087 -0.2990
7.2800 -4.8220 -0.3004
7.3000 -4.8354 -0.2985
7.3200 -4.8487 -0.2997
7.3400 -4.8620 -0.2982
7.3600 -4.8754 -0.2953
7.3800 -4.8887 -0.2948
7.4000 -4.9021 -0.2936
7.4200 -4.9154 -0.2962
7.4400 -4.9287 -0.2947
7.4600 -4.9420 -0.2951
7.4800 -4.9554 -0.2914
7.5000 -4.9688 -0.2931
7.5200 -4.9821 -0.2919
7.5400 -4.9954 -0.2907
7.5600 -5.0087 -0.2900
7.5800 -5.0221 -0.2873
7.6000 -5.0353 -0.2880
7.6200 -5.0486 -0.2884
7.6400 -5.0620 -0.2860
7.6600 -5.0754 -0.2845
7.6800 -5.0887 -0.2830
7.7000 -5.1020 -0.2837
7.7200 -5.1154 -0.2815
7.7400 -5.1287 -0.2826
7.7600 -5.1421 -0.2778
7.7800 -5.1554 -0.2792
7.8000 -5.1687 -0.2754
7.8200 -5.1821 -0.2774
7.8400 -5.1954 -0.2745
7.8600 -5.2087 -0.2765
7.8800 -5.2220 -0.2743
7.9000 -5.2353 -0.2746
7.9200 -5.2487 -0.2737
7.9400 -5.2620 -0.2735
7.9600 -5.2753 -0.2727
7.9800 -5.2886 -0.2730
8.0000 -5.3020 -0.2724
8.0200 -5.3154 -0.2697
8.0400 -5.3287 -0.2689
8.0600 -5.3420 -0.2688
8.0800 -5.3554 -0.2680
8.1000 -5.3687 -0.2668
8.1200 -5.3821 -0.2664
8.1400 -5.3954 -0.2657
8.1600 -5.4087 -0.2652
8.1800 -5.4221 -0.2648
8.2000 -5.4355 -0.2647
8.2200 -5.4488 -0.2630
8.2400 -5.4621 -0.2632
8.2600 -5.4754 -0.2609
8.2800 -5.4887 -0.2599
8.3000 -5.5020 -0.2598
8.3200 -5.5153 -0.2596
8.3400 -5.5286 -0.2581
8.3600 -5.5420 -0.2569
8.3800 -5.5554 -0.2536
8.4000 -5.5687 -0.2554
8.4200 -5.5820 -0.2547
8.4400 -5.5953 -0.2549
8.4600 -5.6087 -0.2532
8.4800 -5.6221 -0.2537
8.5000 -5.6354 -0.2505
8.5200 -5.6487 -0.2495
8.5400 -5.6621 -0.2494
8.5600 -5.6754 -0.2480
8.5800 -5.6887 -0.2475
8.6000 -5.7021 -0.2475
8.6200 -5.7154 -0.2457
8.6400 -5.7287 -0.2450
8.6600 -5.7420 -0.2438
8.6800 -5.7553 -0.2432
8.7000 -5.7686 -0.2435
8.7200 -5.7820 -0.2429
8.7400 -5.7954 -0.2429
8.7600 -5.8087 -0.2392
8.7800 -5.8220 -0.2397
8.8000 -5.8354 -0.2374
8.8200 -5.8487 -0.2365
8.8400 -5.8621 -0.2368
8.8600 -5.8755 -0.2346
8.8800 -5.8888 -0.2342
8.9000 -5.9021 -0.2371
8.9200 -5.9154 -0.2337
8.9400 -5.9288 -0.2353
8.9600 -5.9421 -0.2307
8.9800 -5.9553 -0.2297
9.0000 -5.9687 -0.2292
9.0200 -5.9820 -0.2286
9.0400 -5.9954 -0.2267
9.0600 -6.0087 -0.2271
9.0800 -6.0220 -0.2255
9.1000 -6.0354 -0.2239
9.1200 -6.0487 -0.2224
9.1400 -6.0621 -0.2228
9.1600 -6.0754 -0.2245
9.1800 -6.0887 -0.2229
9.2000 -6.1021 -0.2227
9.2200 -6.1154 -0.2194
9.2400 -6.1287 -0.2211
9.2600 -6.1420 -0.2188
9.2800 -6.1554 -0.2192
9.3000 -6.1687 -0.2161
9.3200 -6.1821 -0.2183
9.3400 -6.1954 -0.2146
9.3600 -6.2087 -0.2162
9.3800 -6.2221 -0.2153
9.4000 -6.2354 -0.2122
9.4200 -6.2486 -0.2109
9.4400 -6.2620 -0.2117
9.4600 -6.2753 -0.2116
9.4800 -6.2887 -0.2116
9.5000 -6.3020 -0.2102
9.5200 -6.3154 -0.2093
9.5400 -6.3288 -0.2076
9.5600 -6.3421 -0.2082
9.5800 -6.3555 -0.2066
9.6000 -6.3688 -0.2048
9.6200 -6.3821 -0.2058
9.6400 -6.3954 -0.2036
9.6600 -6.4088 -0.2020
9.6800 -6.4221 -0.2043
9.7000 -6.4354 -0.2011
9.7200 -6.4487 -0.1986
9.7400 -6.4621 -0.2005
9.7600 -6.4754 -0.1983
9.7800 -6.4887 -0.1963
9.8000 -6.5020 -0.1980
9.8200 -6.5153 -0.1958
9.8400 -6.5287 -0.1950
9.8600 -6.5420 -0.1949
9.8800 -6.5554 -0.1926
9.9000 -6.5687 -0.1927
9.9200 -6.5821 -0.1948
9.9400 -6.5954 -0.1920
9.9600 -6.6087 -0.1921
9.9800 -6.6221 -0.1903
10.0000 -6.6354 -0.1885
10.0200 -6.6488 -0.1888
10.0400 -6.6621 -0.1888
10.0600 -6.6754 -0.1881
10.0800 -6.6887 -0.1869
10.1000 -6.7021 -0.1881
10.1200 -6.7154 -0.1865
10.1400 -6.7287 -0.1861
10.1600 -6.7420 -0.1858
10.1800 -6.7553 -0.1834
10.2000 -6.7687 -0.1810
10.2200 -6.7820 -0.1842
10.2400 -6.7953 -0.1800
10.2600 -6.8087 -0.1797
10.2800 -6.8221 -0.1800
10.3000 -6.8354 -0.1806
10.3200 -6.8487 -0.1802
10.3400 -6.8621 -0.1785
10.3600 -6.8754 -0.1766
10.3800 -6.8888 -0.1739
10.4000 -6.9021 -0.1746
10.4200 -6.9154 -0.1736
10.4400 -6.9287 -0.1720
10.4600 -6.9421 -0.1728
10.4800 -6.9554 -0.1693
10.5000 -6.9687 -0.1692
10.5200 -6.9820 -0.1702
10.5400 -6.9953 -0.1689
10.5600 -7.0087 -0.1696
10.5800 -7.0220 -0.1664
10.6000 -7.0354 -0.1648
10.6200 -7.0487 -0.1637
10.6400 -7.0621 -0.1663
10.6600 -7.0754 -0.1640
10.6800 -7.0887 -0.1625
10.7000 -7.1020 -0.1656
10.7200 -7.1154 -0.1640
10.7400 -7.1287 -0.1614
10.7600 -7.1421 -0.1627
10.7800 -7.1554 -0.1610
10.8000 -7.1687 -0.1593
10.8200 -7.1820 -0.1591
10.8400 -7.1953 -0.1574
10.8600 -7.2087 -0.1586
10.8800 -7.2220 -0.1584
10.9000 -7.2354 -0.1560
10.9200 -7.2487 -0.1544
10.9400 -7.2621 -0.1563
10.9600 -7.2754 -0.1565
10.9800 -7.2887 -0.1525
11.0000 -7.3021 -0.1551
11.0200 -7.3154 -0.1516
11.0400 -7.3287 -0.1522
11.0600 -7.3420 -0.1520
11.0800 -7.3554 -0.1493
11.1000 -7.3687 -0.1489
11.1200 -7.3821 -0.1505
11.1400 -7.3954 -0.1486
11.1600 -7.4087 -0.1473
11.1800 -7.4220 -0.1466
11.2000 -7.4354 -0.1433
11.2200 -7.4487 -0.1411
11.2400 -7.4620 -0.1424
11.2600 -7.4754 -0.1422
11.2800 -7.4887 -0.1411
11.3000 -7.5021 -0.1439
11.3200 -7.5154 -0.1393
11.3400 -7.5287 -0.1395
11.3600 -7.5421 -0.1398
11.3800 -7.5554 -0.1379
11.4000 -7.5688 -0.1360
11.4200 -7.5821 -0.1370
11.4400 -7.5954 -0.1357
11.4600 -7.6088 -0.1355
11.4800 -7.6221 -0.1361
11.5000 -7.6354 -0.1327
11.5200 -7.6487 -0.1329
11.5400 -7.6621 -0.1322
11.5600 -7.6754 -0.1311
11.5800 -7.6887 -0.1285
11.6000 -7.7020 -0.1308
11.6200 -7.7153 -0.1285
11.6400 -7.7287 -0.1282
11.6600 -7.7420 -0.1259
11.6800 -7.7553 -0.1278
11.7000 -7.7687 -0.1249
11.7200 -7.7821 -0.1271
11.7400 -7.7954 -0.1242
11.7600 -7.8088 -0.1261
11.7800 -7.8221 -0.1285
11.8000 -7.8354 -0.1263
11.8200 -7.8488 -0.1211
11.8400 -7.8621 -0.1209
11.8600 -7.8754 -0.1194
11.8800 -7.8887 -0.1194
11.9000 -7.9020 -0.1204
11.9200 -7.9154 -0.1198
11.9400 -7.9287 -0.1189
11.9600 -7.9420 -0.1176
11.9800 -7.9553 -0.1173
12.0000 -7.9687 -0.1169
12.0200 -7.9821 -0.1167
12.0400 -7.9954 -0.1169
12.0600 -8.0087 -0.1176
12.0800 -8.0221 -0.1166
12.1000 -8.0354 -0.1144
12.1200 -8.0488 -0.1135
12.1400 -8.0620 -0.1139
12.1600 -8.0754 -0.1134
12.1800 -8.0887 -0.1123
12.2000 -8.1021 -0.1130
12.2200 -8.1154 -0.1123
12.2400 -8.1287 -0.1094
12.2600 -8.1421 -0.1108
12.2800 -8.1554 -0.1080
12.3000 -8.1687 -0.1071
12.3200 -8.1820 -0.1071
12.3400 -8.1953 -0.1045
12.3600 -8.2087 -0.1031
12.3800 -8.2220 -0.1054
12.4000 -8.2353 -0.1018
12.4200 -8.2487 -0.1020
12.4400 -8.2620 -0.1021
12.4600 -8.2754 -0.1018
12.4800 -8.2887 -0.0978
12.5000 -8.3021 -0.0973
12.5200 -8.3154 -0.0966
12.5400 -8.3288 -0.0962
12.5600 -8.3421 -0.0953
12.5800 -8.3554 -0.0980
12.6000 -8.3687 -0.0928
12.6200 -8.3820 -0.0951
12.6400 -8.3954 -0.0921
12.6600 -8.4087 -0.0917
12.6800 -8.4220 -0.0912
12.7000 -8.4353 -0.0916
12.7200 -8.4487 -0.0878
12.7400 -8.4620 -0.0923
12.7600 -8.4753 -0.0921
12.7800 -8.4887 -0.0885
12.8000 -8.5020 -0.0887
12.8200 -8.5154 -0.0860
12.8400 -8.5287 -0.0854
12.8600 -8.5420 -0.0869
12.8800 -8.5554 -0.0869
12.9000 -8.5688 -0.0821
12.9200 -8.5821 -0.0854
12.9400 -8.5954 -0.0842
12.9600 -8.6087 -0.0833
12.9800 -8.6221 -0.0826
13.0000 -8.6354 -0.0814
13.0200 -8.6487 -0.0806
13.0400 -8.6620 -0.0823
13.0600 -8.6754 -0.0809
13.0800 -8.6887 -0.0781
13.1000 -8.7020 -0.0787
13.1200 -8.7153 -0.0790
13.1400 -8.7287 -0.0753
13.1600 -8.7420 -0.0776
13.1800 -8.7554 -0.0764
13.2000 -8.7688 -0.0747
13.2200 -8.7821 -0.0739
13.2400 -8.7954 -0.0746
13.2600 -8.8088 -0.0708
13.2800 -8.8221 -0.0733
13.3000 -8.8354 -0.0721
13.3200 -8.8488 -0.0710
13.3400 -8.8621 -0.0684
13.3600 -8.8754 -0.0698
13.3800 -8.8887 -0.0655
13.4000 -8.9020 -0.0667
13.4200 -8.9153 -0.0663
13.4400 -8.9287 -0.0651
13.4600 -8.9420 -0.0647
13.4800 -8.9553 -0.0637
13.5000 -8.9687 -0.0598
13.5200 -8.9820 -0.0603
13.5400 -8.9954 -0.0609
13.5600 -9.0087 -0.0596
13.5800 -9.0220 -0.0617
13.6000 -9.0354 -0.0605
13.6200 -9.0487 -0.0587
13.6400 -9.0621 -0.0571
13.6600 -9.0754 -0.0599
13.6800 -9.0887 -0.0573
13.7000 -9.1021 -0.0574
13.7200 -9.1154 -0.0553
13.7400 -9.1287 -0.0532
13.7600 -9.1420 -0.0544
13.7800 -9.1553 -0.0545
13.8000 -9.1687 -0.0515
13.8200 -9.1820 -0.0519
13.8400 -9.1953 -0.0513
13.8600 -9.2087 -0.0483
13.8800 -9.2220 -0.0493
13.9000 -9.2354 -0.0500
13.9200 -9.2488 -0.0485
13.9400 -9.2621 -0.0493
13.9600 -9.2754 -0.0481
13.9800 -9.2888 -0.0459
14.0000 -9.3021 -0.0455
14.0200 -9.3154 -0.0450
14.0400 -9.3287 -0.0431
14.0600 -9.3420 -0.0455
14.0800 -9.3553 -0.0435
14.1000 -9.3687 -0.0415
14.1200 -9.3820 -0.0423
14.1400 -9.3953 -0.0420
14.1600 -9.4087 -0.0399
14.1800 -9.4220 -0.0399
14.2000 -9.4354 -0.0424
14.2200 -9.4487 -0.0381
14.2400 -9.4621 -0.0403
14.2600 -9.4754 -0.0374
14.2800 -9.4888 -0.0364
14.3000 -9.5020 -0.0363
14.3200 -9.5154 -0.0371
14.3400 -9.5287 -0.0324
14.3600 -9.5421 -0.0334
14.3800 -9.5554 -0.0333
14.4000 -9.5687 -0.0311
14.4200 -9.5821 -0.0308
14.4400 -9.5954 -0.0299
14.4600 -9.6087 -0.0280
14.4800 -9.6220 -0.0281
14.5000 -9.6353 -0.0283
14.5200 -9.6487 -0.0236
14.5400 -9.6620 -0.0269
14.5600 -9.6753 -0.0255
14.5800 -9.6887 -0.0246
14.6000 -9.7020 -0.0237
14.6200 -9.7154 -0.0238
14.6400 -9.7288 -0.0216
14.6600 -9.7421 -0.0229
14.6800 -9.7554 -0.0209
14.7000 -9.7687 -0.0194
14.7200 -9.7821 -0.0193
14.7400 -9.7954 -0.0214
14.7600 -9.8087 -0.0175
14.7800 -9.8220 -0.0187
14.8000 -9.8354 -0.0164
14.8200 -9.8487 -0.0150
14.8400 -9.8620 -0.0133
14.8600 -9.8753 -0.0145
14.8800 -9.8887 -0.0120
14.9000 -9.9020 -0.0137
14.9200 -9.9154 -0.0112
14.9400 -9.9287 -0.0101
14.9600 -9.9420 -0.0108
14.9800 -9.9554 -0.0126
15.0000 -9.9688 -0.0084
15.0200 -9.9821 -0.0069
15.0400 -9.9954 -0.0075
15.0600 -10.0087 -0.0058
15.0800 -10.0221 -0.0043
15.1000 -10.0354 -0.0061
15.1200 -10.0487 -0.0043
15.1400 -10.0620 -0.0044
15.1600 -10.0754 -0.0043
15.1800 -10.0887 -0.0023
15.2000 -10.1020 -0.0017
15.2200 -10.1153 -0.0021
15.2400 -10.1287 0.0023
15.2600 -10.1421 0.0023
15.2800 -10.1554 -0.0003
15.3000 -10.1687 0.0023
15.3200 -10.1820 0.0024
15.3400 -10.1954 0.0027
15.3600 -10.2088 0.0037
15.3800 -10.2221 0.0031
15.4000 -10.2354 0.0029
15.4200 -10.2488 0.0068
15.4400 -10.2621 0.0071
15.4600 -10.2754 0.0066
15.4800 -10.2887 0.0081
15.5000 -10.3021 0.0104
15.5200 -10.3154 0.0086
15.5400 -10.3287 0.0113
15.5600 -10.3420 0.0110
15.5800 -10.3553 0.0086
15.6000 -10.3686 0.0128
15.6200 -10.3820 0.0137
15.6400 -10.3953 0.0109
15.6600 -10.4087 0.0141
15.6800 -10.4220 0.0149
15.7000 -10.4354 0.0144
15.7200 -10.4488 0.0163
15.7400 -10.4621 0.0153
15.7600 -10.4754 0.0146
15.7800 -10.4887 0.0164
15.8000 -10.5021 0.0174
15.8200 -10.5154 0.0179
15.8400 -10.5287 0.0194
15.8600 -10.5421 0.0201
15.8800 -10.5554 0.0194
15.9000 -10.5687 0.0197
15.9200 -10.5820 0.0194
15.9400 -10.5953 0.0201
15.9600 -10.6086 0.0229
15.9800 -10.6220 0.0234
16.0000 -10.6353 0.0216
16.0200 -10.6487 0.0254
16.0400 -10.6620 0.0281
16.0600 -10.6754 0.0265
16.0800 -10.6888 0.0280
16.1000 -10.7021 0.0289
16.1200 -10.7154 0.0294
16.1400 -10.7287 0.0319
16.1600 -10.7421 0.0311
16.1800 -10.7554 0.0299
16.2000 -10.7687 0.0324
16.2200 -10.7820 0.0345
16.2400 -10.7954 0.0331
16.2600 -10.8087 0.0354
16.2800 -10.8220 0.0335
16.3000 -10.8353 0.0359
16.3200 -10.8486 0.0359
16.3400 -10.8620 0.0390
16.3600 -10.8754 0.0370
16.3800 -10.8887 0.0405
16.4000 -10.9020 0.0411
16.4200 -10.9154 0.0396
16.4400 -10.9288 0.0416
16.4600 -10.9421 0.0421
16.4800 -10.9553 0.0409
16.5000 -10.9687 0.0419
16.5200 -10.9821 0.0448
16.5400 -10.9954 0.0439
16.5600 -11.0087 0.0464
16.5800 -11.0221 0.0482
16.6000 -11.0354 0.0465
16.6200 -11.0487 0.0486
16.6400 -11.0620 0.0481
16.6600 -11.0753 0.0487
16.6800 -11.0887 0.0518
16.7000 -11.1020 0.0527
16.7200 -11.1153 0.0520
16.7400 -11.1287 0.0528
16.7600 -11.1420 0.0525
16.7800 -11.1554 0.0536
16.8000 -11.1688 0.0559
16.8200 -11.1821 0.0566
16.8400 -11.1954 0.0544
16.8600 -11.2088 0.0555
16.8800 -11.2221 0.0589
16.9000 -11.2355 0.0567
16.9200 -11.2487 0.0620
16.9400 -11.2621 0.0598
16.9600 -11.2754 0.0578
16.9800 -11.2887 0.0586
17.0000 -11.3020 0.0622
17.0200 -11.3153 0.0588
17.0400 -11.3287 0.0625
17.0600 -11.3420 0.0610
17.0800 -11.3554 0.0623
17.1000 -11.3687 0.0624
17.1200 -11.3820 0.0671
17.1400 -11.3954 0.0636
17.1600 -11.4088 0.0662
17.1800 -11.4221 0.0643
17.2000 -11.4354 0.0659
17.2200 -11.4487 0.0671
17.2400 -11.4621 0.0703
17.2600 -11.4754 0.0676
17.2800 -11.4887 0.0700
17.3000 -11.5020 0.0700
17.3200 -11.5154 0.0708
17.3400 -11.5287 0.0694
17.3600 -11.5420 0.0713
17.3800 -11.5553 0.0703
17.4000 -11.5686 0.0746
17.4200 -11.5820 0.0766
17.4400 -11.5954 0.0753
17.4600 -11.6087 0.0764
17.4800 -11.6220 0.0780
17.5000 -11.6354 0.0770
17.5200 -11.6487 0.0807
17.5400 -11.6621 0.0798
17.5600 -11.6754 0.0768
17.5800 -11.6887 0.0784
17.6000 -11.7021 0.0818
17.6200 -11.7154 0.0816
17.6400 -11.7288 0.0816
17.6600 -11.7421 0.0839
17.6800 -11.7554 0.0819
17.7000 -11.7688 0.0849
17.7200 -11.7820 0.0855
17.7400 -11.7953 0.0836
17.7600 -11.8087 0.0850
17.7800 -11.8220 0.0892
17.8000 -11.8354 0.0878
17.8200 -11.8487 0.0892
17.8400 -11.8620 0.0903
17.8600 -11.8754 0.0905
17.8800 -11.8888 0.0901
17.9000 -11.9021 0.0929
17.9200 -11.9154 0.0910
17.9400 -11.9287 0.0924
17.9600 -11.9421 0.0929
17.9800 -11.9554 0.0928
18.0000 -11.9687 0.0923
18.0200 -11.9820 0.0961
18.0400 -11.9954 0.0954
18.0600 -12.0087 0.0970
18.0800 -12.0220 0.0967
18.1000 -12.0353 0.0970
18.1200 -12.0487 0.0974
18.1400 -12.0620 0.1014
18.1600 -12.0754 0.1000
18.1800 -12.0887 0.1000
18.2000 -12.1020 0.1014
18.2200 -12.1154 0.1013
18.2400 -12.1288 0.1027
18.2600 -12.1421 0.1063
18.2800 -12.1554 0.1034
18.3000 -12.1687 0.1063
18.3200 -12.1821 0.1068
18.3400 -12.1954 0.1092
18.3600 -12.2087 0.1088
18.3800 -12.2220 0.1089
18.4000 -12.2354 0.1095
18.4200 -12.2487 0.1106
18.4400 -12.2620 0.1134
18.4600 -12.2753 0.1119
18.4800 -12.2887 0.1127
18.5000 -12.3020 0.1120
18.5200 -12.3154 0.1140
18.5400 -12.3287 0.1119
18.5600 -12.3420 0.1159
18.5800 -12.3554 0.1141
18.6000 -12.3688 0.1152
18.6200 -12.3821 0.1163
18.6400 -12.3954 0.1164
18.6600 -12.4087 0.1191
18.6800 -12.4221 0.1223
18.7000 -12.4354 0.1212
18.7200 -12.4487 0.1207
18.7400 -12.4621 0.1247
18.7600 -12.4754 0.1221
18.7800 -12.4888 0.1248
18.8000 -12.5021 0.1254
18.8200 -12.5153 0.1247
18.8400 -12.5287 0.1260
18.8600 -12.5420 0.1299
18.8800 -12.5553 0.1278
18.9000 -12.5687 0.1286
18.9200 -12.5820 0.1291
18.9400 -12.5954 0.1287
18.9600 -12.6088 0.1300
18.9800 -12.6221 0.1323
19.0000 -12.6354 0.1319
19.0200 -12.6487 0.1301
19.0400 -12.6621 0.1335
19.0600 -12.6755 0.1321
19.0800 -12.6888 0.1349
19.1000 -12.7020 0.1366
19.1200 -12.7154 0.1357
19.1400 -12.7287 0.1361
19.1600 -12.7420 0.1388
19.1800 -12.7553 0.1391
19.2000 -12.7687 0.1377
19.2200 -12.7820 0.1388
19.2400 -12.7954 0.1375
19.2600 -12.8087 0.1395
19.2800 -12.8220 0.1405
19.3000 -12.8354 0.1387
19.3200 -12.8488 0.1400
19.3400 -12.8621 0.1430
19.3600 -12.8754 0.1434
19.3800 -12.8887 0.1441
19.4000 -12.9021 0.1452
19.4200 -12.9154 0.1436
19.4400 -12.9287 0.1445
19.4600 -12.9420 0.1459
19.4800 -12.9554 0.1469
19.5000 -12.9687 0.1474
19.5200 -12.9820 0.1504
19.5400 -12.9953 0.1474
19.5600 -13.0086 0.1481
19.5800 -13.0220 0.1491
19.6000 -13.0354 0.1508
19.6200 -13.0487 0.1487
19.6400 -13.0620 0.1524
19.6600 -13.0754 0.1521
19.6800 -13.0887 0.1523
19.7000 -13.1021 0.1520
19.7200 -13.1154 0.1528
19.7400 -13.1287 0.1513
19.7600 -13.1421 0.1553
19.7800 -13.1555 0.1552
19.8000 -13.1688 0.1546
19.8200 -13.1821 0.1575
19.8400 -13.1954 0.1586
19.8600 -13.2087 0.1586
19.8800 -13.2220 0.1619
19.9000 -13.2353 0.1608
19.9200 -13.2486 0.1620
19.9400 -13.2620 0.1624
19.9600 -13.2753 0.1640
19.9800 -13.2887 0.1647
20.0000 -13.3020 0.1654
20.0200 -13.3154 0.1676
20.0400 -13.3288 0.1661
20.0600 -13.3421 0.1711
20.0800 -13.3554 0.1680
20.1000 -13.3687 0.1694
20.1200 -13.3821 0.1713
20.1400 -13.3954 0.1700
20.1600 -13.4088 0.1699
20.1800 -13.4221 0.1745
20.2000 -13.4354 0.1739
20.2200 -13.4487 0.1745
20.2400 -13.4621 0.1755
20.2600 -13.4753 0.1759
20.2800 -13.4887 0.1742
20.3000 -13.5020 0.1759
20.3200 -13.5154 0.1762
20.3400 -13.5287 0.1754
20.3600 -13.5420 0.1785
20.3800 -13.5553 0.1781
20.4000 -13.5687 0.1781
20.4200 -13.5821 0.1803
20.4400 -13.5954 0.1803
20.4600 -13.6087 0.1829
20.4800 -13.6221 0.1837
20.5000 -13.6354 0.1829
20.5200 -13.6488 0.1838
20.5400 -13.6621 0.1864
20.5600 -13.6754 0.1851
20.5800 -13.6887 0.1876
20.6000 -13.7020 0.1902
20.6200 -13.7153 0.1886
20.6400 -13.7286 0.1892
20.6600 -13.7420 0.1935
20.6800 -13.7554 0.1917
20.7000 -13.7687 0.1915
20.7200 -13.7820 0.1948
20.7400 -13.7953 0.1937
20.7600 -13.8087 0.1948
20.7800 -13.8221 0.1954
20.8000 -13.8354 0.1963
20.8200 -13.8487 0.1978
20.8400 -13.8621 0.1990
20.8600 -13.8754 0.2012
20.8800 -13.8888 0.2002
20.9000 -13.9021 0.2026
20.9200 -13.9154 0.2013
20.9400 -13.9287 0.2020
20.9600 -13.9421 0.2036
20.9800 -13.9554 0.2025
21.0000 -13.9687 0.2050
21.0200 -13.9820 0.2048
21.0400 -13.9954 0.2055
21.0600 -14.0087 0.2043
21.0800 -14.0220 0.2057
21.1000 -14.0353 0.2087
21.1200 -14.0487 0.2089
21.1400 -14.0621 0.2108
21.1600 -14.0754 0.2117
21.1800 -14.0888 0.2127
21.2000 -14.1021 0.2134
21.2200 -14.1155 0.2138
21.2400 -14.1288 0.2120
21.2600 -14.1421 0.2140
21.2800 -14.1554 0.2133
21.3000 -14.1687 0.2124
21.3200 -14.1820 0.2150
21.3400 -14.1953 0.2135
21.3600 -14.2086 0.2146
21.3800 -14.2220 0.2170
21.4000 -14.2354 0.2162
21.4200 -14.2487 0.2164
21.4400 -14.2620 0.2172
21.4600 -14.2754 0.2205
21.4800 -14.2887 0.2173
21.5000 -14.3021 0.2197
21.5200 -14.3154 0.2206
21.5400 -14.3287 0.2215
21.5600 -14.3420 0.2234
21.5800 -14.3554 0.2249
21.6000 -14.3688 0.2261
21.6200 -14.3821 0.2251
21.6400 -14.3954 0.2281
21.6600 -14.4087 0.2250
21.6800 -14.4220 0.2277
21.7000 -14.4354 0.2275
21.7200 -14.4487 0.2294
21.7400 -14.4620 0.2299
21.7600 -14.4754 0.2326
21.7800 -14.4887 0.2309
21.8000 -14.5020 0.2345
21.8200 -14.5153 0.2339
21.8400 -14.5287 0.2335
21.8600 -14.5421 0.2338
21.8800 -14.5554 0.2367
21.9000 -14.5687 0.2358
21.9200 -14.5820 0.2390
21.9400 -14.5954 0.2399
21.9600 -14.6087 0.2419
21.9800 -14.6220 0.2422
22.0000 -14.6353 0.2432
22.0200 -14.6487 0.2412
22.0400 -14.6621 0.2464
22.0600 -14.6753 0.2446
22.0800 -14.6886 0.2446
22.1000 -14.7020 0.2457
22.1200 -14.7154 0.2485
22.1400 -14.7287 0.2491
22.1600 -14.7421 0.2525
22.1800 -14.7554 0.2536
22.2000 -14.7688 0.2540
22.2200 -14.7821 0.2547
22.2400 -14.7955 0.2544
22.2600 -14.8087 0.2534
22.2800 -14.8221 0.2550
22.3000 -14.8354 0.2564
22.3200 -14.8488 0.2559
22.3400 -14.8620 0.2582
22.3600 -14.8754 0.2600
22.3800 -14.8887 0.2612
22.4000 -14.9020 0.2605
22.4200 -14.9153 0.2643
22.4400 -14.9286 0.2636
22.4600 -14.9420 0.2644
22.4800 -14.9554 0.2636
22.5000 -14.9687 0.2644
22.5200 -14.9821 0.2659
22.5400 -14.9954 0.2685
22.5600 -15.0088 0.2684
22.5800 -15.0221 0.2687
22.6000 -15.0354 0.2680
22.6200 -15.0487 0.2700
22.6400 -15.0621 0.2706
22.6600 -15.0754 0.2719
22.6800 -15.0888 0.2719
22.7000 -15.1021 0.2713
22.7200 -15.1154 0.2724
22.7400 -15.1287 0.2728
22.7600 -15.1420 0.2718
22.7800 -15.1553 0.2743
22.8000 -15.1686 0.2723
22.8200 -15.1820 0.2741
22.8400 -15.1953 0.2742
22.8600 -15.2087 0.2763
22.8800 -15.2220 0.2771
22.9000 -15.2353 0.2763
22.9200 -15.2487 0.2759
22.9400 -15.2621 0.2776
22.9600 -15.2755 0.2772
22.9800 -15.2888 0.2788
23.0000 -15.3021 0.2793
23.0200 -15.3154 0.2785
23.0400 -15.3288 0.2790
23.0600 -15.3421 0.2788
23.0800 -15.3554 0.2817
23.1000 -15.3687 0.2836
23.1200 -15.3820 0.2844
23.1400 -15.3953 0.2833
23.1600 -15.4086 0.2844
23.1800 -15.4220 0.2834
23.2000 -15.4353 0.2871
23.2200 -15.4487 0.2880
23.2400 -15.4620 0.2891
23.2600 -15.4753 0.2876
23.2800 -15.4887 0.2881
23.3000 -15.5021 0.2884
23.3200 -15.5155 0.2877
23.3400 -15.5288 0.2910
23.3600 -15.5421 0.2892
23.3800 -15.5554 0.2907
23.4000 -15.5688 0.2905
23.4200 -15.5821 0.2938
23.4400 -15.5954 0.2955
23.4600 -15.6087 0.2944
23.4800 -15.6220 0.2939
23.5000 -15.6353 0.2990
23.5200 -15.6486 0.2969
23.5400 -15.6620 0.2978
23.5600 -15.6753 0.2980
23.5800 -15.6887 0.2997
23.6000 -15.7021 0.3008
23.6200 -15.7154 0.3022
23.6400 -15.7287 0.3003
23.6600 -15.7421 0.3030
23.6800 -15.7554 0.3041
23.7000 -15.7687 0.3039
23.7200 -15.7820 0.3060
23.7400 -15.7954 0.3053
23.7600 -15.8088 0.3069
23.7800 -15.8221 0.3065
23.8000 -15.8354 0.3081
23.8200 -15.8487 0.3078
23.8400 -15.8621 0.3102
23.8600 -15.8754 0.3117
23.8800 -15.8887 0.3108
23.9000 -15.9020 0.3128
23.9200 -15.9153 0.3116
23.9400 -15.9287 0.3118
23.9600 -15.9420 0.3121
23.9800 -15.9553 0.3147
24.0000 -15.9687 0.3145
24.0200 -15.9821 0.3178
24.0400 -15.9955 0.3180
24.0600 -16.0088 0.3160
24.0800 -16.0221 0.3207
24.1000 -16.0354 0.3202
24.1200 -16.0488 0.3189
24.1400 -16.0621 0.3189
24.1600 -16.0754 0.3218
24.1800 -16.0887 0.3218
24.2000 -16.1021 0.3242
24.2200 -16.1154 0.3227
24.2400 -16.1287 0.3256
24.2600 -16.1420 0.3244
24.2800 -16.1553 0.3258
24.3000 -16.1687 0.3285
24.3200 -16.1820 0.3279
24.3400 -16.1953 0.3283
24.3600 -16.2087 0.3293
24.3800 -16.2221 0.3286
24.4000 -16.2354 0.3319
24.4200 -16.2487 0.3330
24.4400 -16.2621 0.3345
24.4600 -16.2754 0.3343
24.4800 -16.2888 0.3353
24.5000 -16.3021 0.3380
24.5200 -16.3154 0.3373
24.5400 -16.3287 0.3394
24.5600 -16.3421 0.3404
24.5800 -16.3554 0.3416
24.6000 -16.3687 0.3419
24.6200 -16.3820 0.3421
24.6400 -16.3953 0.3427
24.6600 -16.4087 0.3438
24.6800 -16.4220 0.3447
24.7000 -16.4353 0.3432
24.7200 -16.4487 0.3456
24.7400 -16.4621 0.3497
24.7600 -16.4754 0.3486
24.7800 -16.4887 0.3495
24.8000 -16.5020 0.3486
24.8200 -16.5154 0.3510
24.8400 -16.5287 0.3472
24.8600 -16.5421 0.3505
24.8800 -16.5554 0.3486
24.9000 -16.5687 0.3510
24.9200 -16.5821 0.3508
24.9400 -16.5954 0.3550
24.9600 -16.6087 0.3522
24.9800 -16.6220 0.3543
25.0000 -16.6354 0.3543
25.0200 -16.6487 0.3566
25.0400 -16.6621 0.3565
25.0600 -16.6754 0.3587
25.0800 -16.6887 0.3602
25.1000 -16.7021 0.3610
25.1200 -16.7155 0.3619
25.1400 -16.7288 0.3632
25.1600 -16.7421 0.3622
25.1800 -16.7554 0.3620
25.2000 -16.7687 0.3630
25.2200 -16.7821 0.3641
25.2400 -16.7954 0.3646
25.2600 -16.8087 0.3666
25.2800 -16.8220 0.3663
25.3000 -16.8354 0.3655
25.3200 -16.8487 0.3672
25.3400 -16.8620 0.3677
25.3600 -16.8753 0.3695
25.3800 -16.8887 0.3698
25.4000 -16.9021 0.3696
25.4200 -16.9154 0.3692
25.4400 -16.9287 0.3701
25.4600 -16.9421 0.3698
25.4800 -16.9554 0.3739
25.5000 -16.9687 0.3719
25.5200 -16.9820 0.3746
25.5400 -16.9953 0.3727
25.5600 -17.0087 0.3763
25.5800 -17.0220 0.3757
25.6000 -17.0353 0.3764
25.6200 -17.0486 0.3796
25.6400 -17.0620 0.3778
25.6600 -17.0753 0.3786
25.6800 -17.0887 0.3791
25.7000 -17.1020 0.3811
25.7200 -17.1154 0.3807
25.7400 -17.1287 0.3834
25.7600 -17.1421 0.3826
25.7800 -17.1554 0.3839
25.8000 -17.1687 0.3841
25.8200 -17.1821 0.3873
25.8400 -17.1954 0.3863
25.8600 -17.2088 0.3878
25.8800 -17.2221 0.3864
25.9000 -17.2354 0.3892
25.9200 -17.2487 0.3904
25.9400 -17.2621 0.3877
25.9600 -17.2754 0.3912
25.9800 -17.2887 0.3911
26.0000 -17.3021 0.3927
26.0200 -17.3154 0.3936
26.0400 -17.3287 0.3948
26.0600 -17.3420 0.3963
26.0800 -17.3553 0.3943
26.1000 -17.3687 0.3967
26.1200 -17.3820 0.3953
26.1400 -17.3953 0.3970
26.1600 -17.4087 0.3992
26.1800 -17.4221 0.3993
26.2000 -17.4354 0.4014
26.2200 -17.4488 0.4043
26.2400 -17.4621 0.4017
26.2600 -17.4754 0.4020
26.2800 -17.4888 0.4042
26.3000 -17.5021 0.4063
26.3200 -17.5154 0.4076
26.3400 -17.5287 0.4081
26.3600 -17.5420 0.4059
26.3800 -17.5554 0.4070
26.4000 -17.5687 0.4083
26.4200 -17.5820 0.4102
26.4400 -17.5953 0.4113
26.4600 -17.6087 0.4114
26.4800 -17.6221 0.4116
26.5000 -17.6354 0.4136
26.5200 -17.6487 0.4144
26.5400 -17.6621 0.4160
26.5600 -17.6755 0.4160
26.5800 -17.6888 0.4161
26.6000 -17.7021 0.4163
26.6200 -17.7154 0.4147
26.6400 -17.7287 0.4168
26.6600 -17.7421 0.4168
26.6800 -17.7554 0.4176
26.7000 -17.7687 0.4179
26.7200 -17.7821 0.4201
26.7400 -17.7954 0.4194
26.7600 -17.8087 0.4188
26.7800 -17.8220 0.4170
26.8000 -17.8353 0.4190
26.8200 -17.8487 0.4199
26.8400 -17.8620 0.4221
26.8600 -17.8754 0.4212
26.8800 -17.8887 0.4228
26.9000 -17.9020 0.4218
26.9200 -17.9154 0.4255
26.9400 -17.9287 0.4271
26.9600 -17.9421 0.4281
26.9800 -17.9554 0.4284
27.0000 -17.9688 0.4284
27.0200 -17.9821 0.4280
27.0400 -17.9954 0.4299
27.0600 -18.0087 0.4326
27.0800 -18.0221 0.4331
27.1000 -18.0354 0.4326
27.1200 -18.0487 0.4343
27.1400 -18.0620 0.4346
27.1600 -18.0753 0.4342
27.1800 -18.0887 0.4367
27.2000 -18.1020 0.4380
27.2200 -18.1153 0.4375
27.2400 -18.1286 0.4391
27.2600 -18.1420 0.4396
27.2800 -18.1554 0.4403
27.3000 -18.1688 0.4420
27.3200 -18.1821 0.4410
27.3400 -18.1954 0.4413
27.3600 -18.2088 0.4426
27.3800 -18.2221 0.4428
27.4000 -18.2354 0.4424
27.4200 -18.2487 0.4448
27.4400 -18.2620 0.4466
27.4600 -18.2754 0.4487
27.4800 -18.2887 0.4509
27.5000 -18.3020 0.4507
27.5200 -18.3153 0.4491
27.5400 -18.3287 0.4500
27.5600 -18.3420 0.4495
27.5800 -18.3553 0.4520
27.6000 -18.3686 0.4542
27.6200 -18.3820 0.4556
27.6400 -18.3954 0.4569
27.6600 -18.4087 0.4578
27.6800 -18.4221 0.4565
27.7000 -18.4354 0.4568
27.7200 -18.4487 0.4578
27.7400 -18.4621 0.4610
27.7600 -18.4754 0.4604
27.7800 -18.4888 0.4632
27.8000 -18.5021 0.4640
27.8200 -18.5154 0.4642
27.8400 -18.5287 0.4655
27.8600 -18.5420 0.4675
27.8800 -18.5553 0.4678
27.9000 -18.5687 0.4678
27.9200 -18.5820 0.4689
27.9400 -18.5954 0.4684
27.9600 -18.6087 0.4696
27.9800 -18.6220 0.4691
28.0000 -18.6354 0.4694
28.0200 -18.6487 0.4713
28.0400 -18.6620 0.4730
28.0600 -18.6754 0.4713
28.0800 -18.6887 0.4724
28.1000 -18.7021 0.4740
28.1200 -18.7154 0.4733
28.1400 -18.7287 0.4742
28.1600 -18.7421 0.4758
28.1800 -18.7554 0.4757
28.2000 -18.7687 0.4768
28.2200 -18.7820 0.4782
28.2400 -18.7953 0.4787
28.2600 -18.8087 0.4810
28.2800 -18.8220 0.4817
28.3000 -18.8353 0.4832
28.3200 -18.8487 0.4837
28.3400 -18.8620 0.4832
28.3600 -18.8754 0.4835
28.3800 -18.8888 0.4879
28.4000 -18.9021 0.4871
28.4200 -18.9154 0.4878
28.4400 -18.9288 0.4886
28.4600 -18.9421 0.4896
28.4800 -18.9554 0.4907
28.5000 -18.9687 0.4919
28.5200 -18.9820 0.4906
28.5400 -18.9953 0.4918
28.5600 -19.0087 0.4949
28.5800 -19.0220 0.4936
28.6000 -19.0353 0.4957
28.6200 -19.0487 0.4955
28.6400 -19.0621 0.4941
28.6600 -19.0754 0.4953
28.6800 -19.0887 0.4967
28.7000 -19.1021 0.4997
28.7200 -19.1154 0.5014
28.7400 -19.1288 0.4989
28.7600 -19.1421 0.5020
28.7800 -19.1554 0.5019
28.8000 -19.1687 0.5021
28.8200 -19.1821 0.5028
28.8400 -19.1954 0.5028
28.8600 -19.2087 0.5045
28.8800 -19.2221 0.5071
28.9000 -19.2354 0.5057
28.9200 -19.2487 0.5091
28.9400 -19.2620 0.5105
28.9600 -19.2753 0.5107
28.9800 -19.2887 0.5084
29.0000 -19.3020 0.5111
29.0200 -19.3154 0.5111
29.0400 -19.3287 0.5094
29.0600 -19.3420 0.5117
29.0800 -19.3554 0.5107
29.1000 -19.3688 0.5120
29.1200 -19.3821 0.5134
29.1400 -19.3954 0.5139
29.1600 -19.4087 0.5172
29.1800 -19.4221 0.5159
29.2000 -19.4354 0.5174
29.2200 -19.4487 0.5154
29.2400 -19.4620 0.5225
29.2600 -19.4754 0.5175
29.2800 -19.4887 0.5230
29.3000 -19.5020 0.5209
29.3200 -19.5153 0.5246
29.3400 -19.5287 0.5257
29.3600 -19.5420 0.5298
29.3800 -19.5554 0.5266
29.4000 -19.5687 0.5300
29.4200 -19.5820 0.5299
29.4400 -19.5954 0.5322
29.4600 -19.6088 0.5333
29.4800 -19.6221 0.5348
29.5000 -19.6354 0.5364
29.5200 -19.6487 0.5354
29.5400 -19.6621 0.5376
29.5600 -19.6754 0.5359
29.5800 -19.6887 0.5380
29.6000 -19.7020 0.5410
29.6200 -19.7154 0.5433
29.6400 -19.7287 0.5435
29.6600 -19.7420 0.5465
29.6800 -19.7553 0.5462
29.7000 -19.7687 0.5487
29.7200 -19.7820 0.5492
29.7400 -19.7954 0.5509
29.7600 -19.8087 0.5498
29.7800 -19.8220 0.5529
29.8000 -19.8354 0.5534
29.8200 -19.8488 0.5549
29.8400 -19.8621 0.5575
29.8600 -19.8754 0.5578
29.8800 -19.8887 0.5577
29.9000 -19.9021 0.5590
29.9200 -19.9154 0.5581
29.9400 -19.9287 0.5304
29.9600 -19.9421 0.4512
29.9800 -19.9554 0.3460
30.0000 -19.9687 0.2433
30.0200 -19.9820 0.1487
30.0400 -19.9953 0.0573
30.0600 -20.0086 -0.0381
30.0800 -20.0220 -0.1375
30.1000 -20.0353 -0.2386
30.1200 -20.0487 -0.3382
30.1400 -20.0620 -0.3985
30.1600 -20.0754 -0.4624
30.1800 -20.0888 -0.5344
30.2000 -20.1021 -0.6054
30.2200 -20.1154 -0.6662
30.2400 -20.1287 -0.7249
30.2600 -20.1421 -0.7844
30.2800 -20.1554 -0.8453
30.3000 -20.1687 -0.9065
30.3200 -20.1821 -0.9767
30.3400 -20.1954 -1.0580
30.3600 -20.2087 -1.1417
30.3800 -20.2220 -1.2207
30.4000 -20.2353 -1.2700
30.4200 -20.2486 -1.2827
30.4400 -20.2620 -1.2794
30.4600 -20.2753 -1.2802
30.4800 -20.2887 -1.2798
30.5000 -20.3020 -1.2779
30.5200 -20.3154 -1.2786
30.5400 -20.3288 -1.2794
30.5600 -20.3421 -1.2803
30.5800 -20.3554 -1.2826
30.6000 -20.3687 -1.2827
30.6200 -20.3821 -1.2816
30.6400 -20.3954 -1.2830
30.6600 -20.4087 -1.2836
30.6800 -20.4220 -1.2846
30.7000 -20.4354 -1.2844
30.7200 -20.4487 -1.2854
30.7400 -20.4620 -1.2839
30.7600 -20.4753 -1.2863
30.7800 -20.4887 -1.2837
30.8000 -20.5020 -1.2834
30.8200 -20.5154 -1.2827
30.8400 -20.5287 -1.2837
30.8600 -20.5420 -1.2787
30.8800 -20.5554 -1.2798
30.9000 -20.5688 -1.2786
30.9200 -20.5821 -1.2764
30.9400 -20.5953 -1.2752
30.9600 -20.6087 -1.2774
30.9800 -20.6220 -1.2728
31.0000 -20.6354 -1.2726
31.0200 -20.6487 -1.2693
31.0400 -20.6620 -1.2701
31.0600 -20.6754 -1.2699
31.0800 -20.6888 -1.2678
31.1000 -20.7021 -1.2647
31.1200 -20.7153 -1.2655
31.1400 -20.7287 -1.2618
31.1600 -20.7420 -1.2596
31.1800 -20.7553 -1.2584
31.2000 -20.7687 -1.2606
31.2200 -20.7820 -1.2576
31.2400 -20.7954 -1.2578
31.2600 -20.8088 -1.2563
31.2800 -20.8221 -1.2517
31.3000 -20.8354 -1.2523
31.3200 -20.8488 -1.2490
31.3400 -20.8621 -1.2465
31.3600 -20.8755 -1.2459
31.3800 -20.8888 -1.2484
31.4000 -20.9021 -1.2432
31.4200 -20.9154 -1.2449
31.4400 -20.9287 -1.2411
31.4600 -20.9420 -1.2393
31.4800 -20.9553 -1.2372
31.5000 -20.9687 -1.2407
31.5200 -20.9820 -1.2358
31.5400 -20.9954 -1.2366
31.5600 -21.0087 -1.2351
31.5800 -21.0220 -1.2337
31.6000 -21.0354 -1.2311
31.6200 -21.0488 -1.2299
31.6400 -21.0621 -1.2289
31.6600 -21.0754 -1.2277
31.6800 -21.0887 -1.2282
31.7000 -21.1021 -1.2254
31.7200 -21.1154 -1.2260
31.7400 -21.1287 -1.2262
31.7600 -21.1420 -1.2257
31.7800 -21.1554 -1.2226
31.8000 -21.1688 -1.2227
31.8200 -21.1821 -1.2202
31.8400 -21.1953 -1.2197
31.8600 -21.2087 -1.2183
31.8800 -21.2220 -1.2175
31.9000 -21.2354 -1.2157
31.9200 -21.2487 -1.2143
31.9400 -21.2620 -1.2129
31.9600 -21.2754 -1.2086
31.9800 -21.2887 -1.2118
32.0000 -21.3021 -1.2086
32.0200 -21.3154 -1.2091
32.0400 -21.3287 -1.2084
32.0600 -21.3420 -1.2051
32.0800 -21.3554 -1.2038
32.1000 -21.3687 -1.2049
32.1200 -21.3821 -1.2030
32.1400 -21.3954 -1.2015
32.1600 -21.4088 -1.2000
32.1800 -21.4220 -1.1974
32.2000 -21.4353 -1.1964
32.2200 -21.4487 -1.1948
32.2400 -21.4620 -1.1915
32.2600 -21.4754 -1.1889
32.2800 -21.4887 -1.1888
32.3000 -21.5020 -1.1851
32.3200 -21.5154 -1.1861
32.3400 -21.5288 -1.1859
32.3600 -21.5421 -1.1814
32.3800 -21.5554 -1.1813
32.4000 -21.5687 -1.1811
32.4200 -21.5820 -1.1763
32.4400 -21.5954 -1.1747
32.4600 -21.6087 -1.1748
32.4800 -21.6220 -1.1741
32.5000 -21.6354 -1.1731
32.5200 -21.6487 -1.1737
32.5400 -21.6620 -1.1697
32.5600 -21.6753 -1.1682
32.5800 -21.6887 -1.1694
32.6000 -21.7020 -1.1656
32.6200 -21.7154 -1.1677
32.6400 -21.7287 -1.1681
32.6600 -21.7420 -1.1654
32.6800 -21.7554 -1.1647
32.7000 -21.7688 -1.1666
32.7200 -21.7821 -1.1633
32.7400 -21.7954 -1.1644
32.7600 -21.8087 -1.1649
32.7800 -21.8221 -1.1641
32.8000 -21.8354 -1.1642
32.8200 -21.8487 -1.1675
32.8400 -21.8620 -1.1654
32.8600 -21.8754 -1.1662
32.8800 -21.8887 -1.1677
32.9000 -21.9020 -1.1649
32.9200 -21.9153 -1.1634
32.9400 -21.9287 -1.1635
32.9600 -21.9420 -1.1633
32.9800 -21.9554 -1.1609
33.0000 -21.9687 -1.1640
33.0200 -21.9820 -1.1601
33.0400 -21.9954 -1.1608
33.0600 -22.0087 -1.1627
33.0800 -22.0221 -1.1610
33.1000 -22.0354 -1.1592
33.1200 -22.0487 -1.1596
33.1400 -22.0621 -1.1571
33.1600 -22.0754 -1.1574
33.1800 -22.0887 -1.1567
33.2000 -22.1021 -1.1562
33.2200 -22.1154 -1.1540
33.2400 -22.1288 -1.1565
33.2600 -22.1421 -1.1539
33.2800 -22.1553 -1.1520
33.3000 -22.1686 -1.1508
33.3200 -22.1820 -1.1499
33.3400 -22.1953 -1.1480
33.3600 -22.2086 -1.1503
33.3800 -22.2220 -1.1451
33.4000 -22.2353 -1.1436
33.4200 -22.2487 -1.1443
33.4400 -22.2621 -1.1424
33.4600 -22.2754 -1.1429
33.4800 -22.2887 -1.1418
33.5000 -22.3021 -1.1408
33.5200 -22.3154 -1.1398
33.5400 -22.3288 -1.1398
33.5600 -22.3421 -1.1362
33.5800 -22.3554 -1.1346
33.6000 -22.3687 -1.1345
33.6200 -22.3820 -1.1320
33.6400 -22.3953 -1.1294
33.6600 -22.4087 -1.1309
33.6800 -22.4220 -1.1277
33.7000 -22.4354 -1.1282
33.7200 -22.4487 -1.1270
33.7400 -22.4620 -1.1267
33.7600 -22.4754 -1.1241
33.7800 -22.4888 -1.1251
33.8000 -22.5021 -1.1217
33.8200 -22.5154 -1.1201
33.8400 -22.5287 -1.1223
33.8600 -22.5420 -1.1207
33.8800 -22.5554 -1.1146
33.9000 -22.5687 -1.1173
33.9200 -22.5820 -1.1137
33.9400 -22.5954 -1.1149
33.9600 -22.6087 -1.1133
33.9800 -22.6221 -1.1136
34.0000 -22.6354 -1.1103
34.0200 -22.6487 -1.1122
34.0400 -22.6620 -1.1104
34.0600 -22.6754 -1.1099
34.0800 -22.6887 -1.1098
34.1000 -22.7020 -1.1094
34.1200 -22.7154 -1.1067
34.1400 -22.7287 -1.1082
34.1600 -22.7421 -1.1060
34.1800 -22.7554 -1.1042
34.2000 -22.7687 -1.1052
34.2200 -22.7821 -1.1039
34.2400 -22.7955 -1.0998
34.2600 -22.8088 -1.1008
34.2800 -22.8221 -1.0991
34.3000 -22.8354 -1.0978
34.3200 -22.8487 -1.0984
34.3400 -22.8621 -1.0973
34.3600 -22.8753 -1.0934
34.3800 -22.8886 -1.0956
34.4000 -22.9020 -1.0921
34.4200 -22.9154 -1.0901
34.4400 -22.9287 -1.0924
34.4600 -22.9420 -1.0900
34.4800 -22.9554 -1.0874
34.5000 -22.9687 -1.0861
34.5200 -22.9821 -1.0851
34.5400 -22.9954 -1.0829
34.5600 -23.0088 -1.0851
34.5800 -23.0221 -1.0814
34.6000 -23.0354 -1.0803
34.6200 -23.0488 -1.0798
34.6400 -23.0621 -1.0811
34.6600 -23.0754 -1.0776
34.6800 -23.0887 -1.0813
34.7000 -23.1020 -1.0775
34.7200 -23.1153 -1.0762
34.7400 -23.1286 -1.0785
34.7600 -23.1420 -1.0764
34.7800 -23.1554 -1.0759
34.8000 -23.1687 -1.0753
34.8200 -23.1820 -1.0764
34.8400 -23.1953 -1.0738
34.8600 -23.2087 -1.0745
34.8800 -23.2221 -1.0735
34.9000 -23.2354 -1.0718
34.9200 -23.2487 -1.0740
34.9400 -23.2620 -1.0731
34.9600 -23.2754 -1.0705
34.9800 -23.2888 -1.0686
35.0000 -23.3021 -1.0709
35.0200 -23.3154 -1.0682
35.0400 -23.3287 -1.0696
35.0600 -23.3421 -1.0672
35.0800 -23.3554 -1.0651
35.1000 -23.3686 -1.0646
35.1200 -23.3820 -1.0652
35.1400 -23.3953 -1.0617
35.1600 -23.4087 -1.0624
35.1800 -23.4220 -1.0635
35.2000 -23.4354 -1.0592
35.2200 -23.4487 -1.0628
35.2400 -23.4621 -1.0599
35.2600 -23.4754 -1.0604
35.2800 -23.4887 -1.0600
35.3000 -23.5020 -1.0589
35.3200 -23.5154 -1.0545
35.3400 -23.5288 -1.0560
35.3600 -23.5421 -1.0552
35.3800 -23.5554 -1.0553
35.4000 -23.5688 -1.0543
35.4200 -23.5821 -1.0522
35.4400 -23.5954 -1.0490
35.4600 -23.6087 -1.0533
35.4800 -23.6220 -1.0525
35.5000 -23.6354 -1.0497
35.5200 -23.6487 -1.0491
35.5400 -23.6620 -1.0477
35.5600 -23.6753 -1.0473
35.5800 -23.6887 -1.0486
35.6000 -23.7021 -1.0472
35.6200 -23.7154 -1.0454
35.6400 -23.7287 -1.0466
35.6600 -23.7421 -1.0444
35.6800 -23.7554 -1.0438
35.7000 -23.7688 -1.0444
35.7200 -23.7821 -1.0419
35.7400 -23.7954 -1.0381
35.7600 -23.8087 -1.0395
35.7800 -23.8220 -1.0393
35.8000 -23.8353 -1.0384
35.8200 -23.8486 -1.0388
35.8400 -23.8620 -1.0375
35.8600 -23.8754 -1.0343
35.8800 -23.8887 -1.0353
35.9000 -23.9020 -1.0346
35.9200 -23.9154 -1.0327
35.9400 -23.9287 -1.0323
35.9600 -23.9421 -1.0338
35.9800 -23.9554 -1.0280
36.0000 -23.9687 -1.0300
36.0200 -23.9820 -1.0313
36.0400 -23.9954 -1.0257
36.0600 -24.0088 -1.0257
36.0800 -24.0221 -1.0259
36.1000 -24.0354 -1.0242
36.1200 -24.0487 -1.0233
36.1400 -24.0621 -1.0233
36.1600 -24.0754 -1.0215
36.1800 -24.0887 -1.0236
36.2000 -24.1020 -1.0184
36.2200 -24.1154 -1.0171
36.2400 -24.1287 -1.0159
36.2600 -24.1420 -1.0182
36.2800 -24.1553 -1.0109
36.3000 -24.1687 -1.0159
36.3200 -24.1821 -1.0153
36.3400 -24.1954 -1.0104
36.3600 -24.2087 -1.0113
36.3800 -24.2220 -1.0130
36.4000 -24.2354 -1.0114
36.4200 -24.2487 -1.0088
36.4400 -24.2621 -1.0083
36.4600 -24.2754 -1.0063
36.4800 -24.2887 -1.0061
36.5000 -24.3021 -1.0071
36.5200 -24.3154 -1.0036
36.5400 -24.3286 -1.0031
36.5600 -24.3420 -1.0017
36.5800 -24.3553 -1.0015
36.6000 -24.3687 -1.0017
36.6200 -24.3821 -1.0025
36.6400 -24.3954 -1.0000
36.6600 -24.4087 -1.0017
36.6800 -24.4221 -0.9976
36.7000 -24.4354 -0.9974
36.7200 -24.4487 -0.9972
36.7400 -24.4621 -0.9973
36.7600 -24.4754 -0.9937
36.7800 -24.4887 -0.9965
36.8000 -24.5021 -0.9975
36.8200 -24.5154 -0.9928
36.8400 -24.5287 -0.9911
36.8600 -24.5420 -0.9913
36.8800 -24.5553 -0.9910
36.9000 -24.5686 -0.9908
36.9200 -24.5820 -0.9914
36.9400 -24.5954 -0.9879
36.9600 -24.6088 -0.9917
36.9800 -24.6221 -0.9899
37.0000 -24.6354 -0.9895
37.0200 -24.6487 -0.9888
37.0400 -24.6621 -0.9919
37.0600 -24.6754 -0.9862
37.0800 -24.6887 -0.9902
37.1000 -24.7021 -0.9884
37.1200 -24.7154 -0.9884
37.1400 -24.7288 -0.9875
37.1600 -24.7421 -0.9890
37.1800 -24.7554 -0.9864
37.2000 -24.7687 -0.9883
37.2200 -24.7820 -0.9850
37.2400 -24.7954 -0.9842
37.2600 -24.8086 -0.9867
37.2800 -24.8220 -0.9875
37.3000 -24.8353 -0.9839
37.3200 -24.8487 -0.9844
37.3400 -24.8620 -0.9859
37.3600 -24.8753 -0.9830
37.3800 -24.8887 -0.9842
37.4000 -24.9021 -0.9829
37.4200 -24.9154 -0.9828
37.4400 -24.9288 -0.9810
37.4600 -24.9421 -0.9823
37.4800 -24.9554 -0.9779
37.5000 -24.9688 -0.9787
37.5200 -24.9821 -0.9767
37.5400 -24.9954 -0.9752
37.5600 -25.0087 -0.9746
37.5800 -25.0220 -0.9748
37.6000 -25.0353 -0.9697
37.6200 -25.0486 -0.9705
37.6400 -25.0620 -0.9725
37.6600 -25.0753 -0.9699
37.6800 -25.0887 -0.9691
37.7000 -25.1020 -0.9686
37.7200 -25.1153 -0.9655
37.7400 -25.1287 -0.9644
37.7600 -25.1421 -0.9638
37.7800 -25.1555 -0.9620
37.8000 -25.1688 -0.9610
37.8200 -25.1821 -0.9613
37.8400 -25.1954 -0.9592
37.8600 -25.2088 -0.9581
37.8800 -25.2221 -0.9583
37.9000 -25.2354 -0.9581
37.9200 -25.2487 -0.9574
37.9400 -25.2621 -0.9571
37.9600 -25.2754 -0.9539
37.9800 -25.2887 -0.9522
38.0000 -25.3020 -0.9544
38.0200 -25.3153 -0.9522
38.0400 -25.3287 -0.9512
38.0600 -25.3420 -0.9502
38.0800 -25.3554 -0.9504
38.1000 -25.3687 -0.9484
38.1200 -25.3821 -0.9503
38.1400 -25.3954 -0.9458
38.1600 -25.4087 -0.9465
38.1800 -25.4220 -0.9458
38.2000 -25.4354 -0.9442
38.2200 -25.4488 -0.9432
38.2400 -25.4621 -0.9442
38.2600 -25.4754 -0.9405
38.2800 -25.4887 -0.9414
38.3000 -25.5020 -0.9427
38.3200 -25.5154 -0.9414
38.3400 -25.5287 -0.9401
38.3600 -25.5420 -0.9411
38.3800 -25.5553 -0.9386
38.4000 -25.5687 -0.9374
38.4200 -25.5820 -0.9395
38.4400 -25.5953 -0.9373
38.4600 -25.6087 -0.9375
38.4800 -25.6221 -0.9377
38.5000 -25.6354 -0.9349
38.5200 -25.6488 -0.9338
38.5400 -25.6621 -0.9348
38.5600 -25.6754 -0.9325
38.5800 -25.6888 -0.9337
38.6000 -25.7021 -0.9330
38.6200 -25.7154 -0.9335
38.6400 -25.7287 -0.9313
38.6600 -25.7420 -0.9326
38.6800 -25.7554 -0.9294
38.7000 -25.7687 -0.9325
38.7200 -25.7820 -0.9316
38.7400 -25.7953 -0.9288
38.7600 -25.8087 -0.9279
38.7800 -25.8220 -0.9274
38.8000 -25.8354 -0.9260
38.8200 -25.8487 -0.9263
38.8400 -25.8621 -0.9265
38.8600 -25.8754 -0.9257
38.8800 -25.8887 -0.9245
38.9000 -25.9021 -0.9281
38.9200 -25.9154 -0.9246
38.9400 -25.9288 -0.9259
38.9600 -25.9421 -0.9255
38.9800 -25.9554 -0.9244
39.0000 -25.9687 -0.9211
39.0200 -25.9821 -0.9253
39.0400 -25.9954 -0.9206
39.0600 -26.0087 -0.9223
39.0800 -26.0220 -0.9229
39.1000 -26.0353 -0.9233
39.1200 -26.0487 -0.9240
39.1400 -26.0620 -0.9248
39.1600 -26.0753 -0.9221
39.1800 -26.0887 -0.9209
39.2000 -26.1020 -0.9240
39.2200 -26.1154 -0.9175
39.2400 -26.1287 -0.9195
39.2600 -26.1420 -0.9209
39.2800 -26.1554 -0.9194
39.3000 -26.1687 -0.9169
39.3200 -26.1821 -0.9181
39.3400 -26.1954 -0.9148
39.3600 -26.2087 -0.9148
39.3800 -26.2221 -0.9157
39.4000 -26.2354 -0.9160
39.4200 -26.2487 -0.9147
39.4400 -26.2620 -0.9150
39.4600 -26.2753 -0.9127
39.4800 -26.2887 -0.9118
39.5000 -26.3020 -0.9139
39.5200 -26.3154 -0.9130
39.5400 -26.3287 -0.9113
39.5600 -26.3421 -0.9105
39.5800 -26.3555 -0.9076
39.6000 -26.3688 -0.9074
39.6200 -26.3820 -0.9073
39.6400 -26.3954 -0.9069
39.6600 -26.4087 -0.9040
39.6800 -26.4221 -0.9032
39.7000 -26.4354 -0.8997
39.7200 -26.4487 -0.9036
39.7400 -26.4621 -0.9025
39.7600 -26.4754 -0.9002
39.7800 -26.4887 -0.8970
39.8000 -26.5020 -0.9005
39.8200 -26.5153 -0.8970
39.8400 -26.5287 -0.8942
39.8600 -26.5421 -0.8945
39.8800 -26.5554 -0.8925
39.9000 -26.5687 -0.8923
39.9200 -26.5821 -0.8927
39.9400 -26.5954 -0.8891
39.9600 -26.6087 -0.8891
39.9800 -26.6221 -0.8912
40.0000 -26.6354 -0.8890
40.0200 -26.6488 -0.8872
40.0400 -26.6621 -0.8892
40.0600 -26.6754 -0.8878
40.0800 -26.6887 -0.8868
40.1000 -26.7020 -0.8861
40.1200 -26.7154 -0.8841
40.1400 -26.7287 -0.8844
40.1600 -26.7420 -0.8842
40.1800 -26.7553 -0.8828
40.2000 -26.7687 -0.8825
40.2200 -26.7821 -0.8813
40.2400 -26.7954 -0.8827
40.2600 -26.8087 -0.8821
40.2800 -26.8220 -0.8812
40.3000 -26.8354 -0.8794
40.3200 -26.8487 -0.8786
40.3400 -26.8620 -0.8786
40.3600 -26.8754 -0.8781
40.3800 -26.8887 -0.8784
40.4000 -26.9021 -0.8770
40.4200 -26.9154 -0.8765
40.4400 -26.9287 -0.8766
40.4600 -26.9421 -0.8751
40.4800 -26.9554 -0.8751
40.5000 -26.9687 -0.8724
40.5200 -26.9820 -0.8738
40.5400 -26.9953 -0.8734
40.5600 -27.0087 -0.8715
40.5800 -27.0220 -0.8703
40.6000 -27.0353 -0.8689
40.6200 -27.0486 -0.8676
40.6400 -27.0620 -0.8692
40.6600 -27.0754 -0.8665
40.6800 -27.0888 -0.8656
40.7000 -27.1021 -0.8641
40.7200 -27.1154 -0.8648
40.7400 -27.1288 -0.8645
40.7600 -27.1421 -0.8643
40.7800 -27.1554 -0.8628
40.8000 -27.1687 -0.8614
40.8200 -27.1820 -0.8611
40.8400 -27.1954 -0.8609
40.8600 -27.2087 -0.8595
40.8800 -27.2220 -0.8607
40.9000 -27.2353 -0.8600
40.9200 -27.2487 -0.8578
40.9400 -27.2621 -0.8550
40.9600 -27.2754 -0.8561
40.9800 -27.2887 -0.8563
41.0000 -27.3021 -0.8568
41.0200 -27.3155 -0.8557
41.0400 -27.3288 -0.8524
41.0600 -27.3421 -0.8525
41.0800 -27.3554 -0.8526
41.1000 -27.3687 -0.8533
41.1200 -27.3821 -0.8524
41.1400 -27.3954 -0.8534
41.1600 -27.4087 -0.8498
41.1800 -27.4221 -0.8535
41.2000 -27.4354 -0.8516
41.2200 -27.4487 -0.8495
41.2400 -27.4620 -0.8504
41.2600 -27.4753 -0.8507
41.2800 -27.4887 -0.8496
41.3000 -27.5020 -0.8504
41.3200 -27.5154 -0.8509
41.3400 -27.5287 -0.8491
41.3600 -27.5420 -0.8493
41.3800 -27.5554 -0.8475
41.4000 -27.5687 -0.8470
41.4200 -27.5821 -0.8482
41.4400 -27.5954 -0.8479
41.4600 -27.6088 -0.8481
41.4800 -27.6221 -0.8467
41.5000 -27.6354 -0.8481
41.5200 -27.6487 -0.8461
41.5400 -27.6621 -0.8469
41.5600 -27.6754 -0.8456
41.5800 -27.6887 -0.8435
41.6000 -27.7020 -0.8438
41.6200 -27.7153 -0.8439
41.6400 -27.7286 -0.8427
41.6600 -27.7420 -0.8447
41.6800 -27.7554 -0.8443
41.7000 -27.7687 -0.8424
41.7200 -27.7820 -0.8441
41.7400 -27.7954 -0.8397
41.7600 -27.8088 -0.8391
41.7800 -27.8221 -0.8388
41.8000 -27.8354 -0.8377
41.8200 -27.8488 -0.8384
41.8400 -27.8621 -0.8360
41.8600 -27.8754 -0.8362
41.8800 -27.8887 -0.8353
41.9000 -27.9021 -0.8359
41.9200 -27.9154 -0.8361
41.9400 -27.9287 -0.8350
41.9600 -27.9420 -0.8335
41.9800 -27.9553 -0.8338
42.0000 -27.9687 -0.8301
42.0200 -27.9820 -0.8305
42.0400 -27.9954 -0.8322
42.0600 -28.0087 -0.8305
42.0800 -28.0220 -0.8326
42.1000 -28.0354 -0.8311
42.1200 -28.0487 -0.8291
42.1400 -28.0621 -0.8279
42.1600 -28.0754 -0.8265
42.1800 -28.0887 -0.8245
42.2000 -28.1021 -0.8255
42.2200 -28.1154 -0.8240
42.2400 -28.1288 -0.8237
42.2600 -28.1421 -0.8226
42.2800 -28.1554 -0.8201
42.3000 -28.1687 -0.8187
42.3200 -28.1820 -0.8188
42.3400 -28.1953 -0.8200
42.3600 -28.2087 -0.8178
42.3800 -28.2220 -0.8170
42.4000 -28.2354 -0.8184
42.4200 -28.2487 -0.8152
42.4400 -28.2620 -0.8148
42.4600 -28.2754 -0.8155
42.4800 -28.2887 -0.8125
42.5000 -28.3020 -0.8133
42.5200 -28.3153 -0.8102
42.5400 -28.3287 -0.8099
42.5600 -28.3421 -0.8089
42.5800 -28.3554 -0.8092
42.6000 -28.3687 -0.8085
42.6200 -28.3821 -0.8075
42.6400 -28.3954 -0.8087
42.6600 -28.4087 -0.8065
42.6800 -28.4220 -0.8048
42.7000 -28.4353 -0.8039
42.7200 -28.4487 -0.8040
42.7400 -28.4620 -0.8022
42.7600 -28.4753 -0.8023
42.7800 -28.4886 -0.8006
42.8000 -28.5020 -0.8003
42.8200 -28.5154 -0.8003
42.8400 -28.5288 -0.7973
42.8600 -28.5421 -0.7980
42.8800 -28.5554 -0.7968
42.9000 -28.5688 -0.7956
42.9200 -28.5821 -0.7959
42.9400 -28.5954 -0.7942
42.9600 -28.6087 -0.7938
42.9800 -28.6220 -0.7908
43.0000 -28.6353 -0.7895
43.0200 -28.6487 -0.7858
43.0400 -28.6620 -0.7903
43.0600 -28.6753 -0.7871
43.0800 -28.6887 -0.7872
43.1000 -28.7021 -0.7850
43.1200 -28.7154 -0.7855
43.1400 -28.7287 -0.7829
43.1600 -28.7420 -0.7850
43.1800 -28.7554 -0.7821
43.2000 -28.7688 -0.7825
43.2200 -28.7821 -0.7817
43.2400 -28.7954 -0.7826
43.2600 -28.8087 -0.7799
43.2800 -28.8221 -0.7804
43.3000 -28.8354 -0.7784
43.3200 -28.8487 -0.7765
43.3400 -28.8621 -0.7776
43.3600 -28.8754 -0.7760
43.3800 -28.8888 -0.7753
43.4000 -28.9021 -0.7744
43.4200 -28.9153 -0.7743
43.4400 -28.9287 -0.7745
43.4600 -28.9420 -0.7732
43.4800 -28.9554 -0.7727
43.5000 -28.9687 -0.7717
43.5200 -28.9820 -0.7723
43.5400 -28.9954 -0.7742
43.5600 -29.0088 -0.7721
43.5800 -29.0221 -0.7739
43.6000 -29.0354 -0.7717
43.6200 -29.0487 -0.7749
43.6400 -29.0621 -0.7730
43.6600 -29.0754 -0.7754
43.6800 -29.0887 -0.7728
43.7000 -29.1020 -0.7733
43.7200 -29.1154 -0.7734
43.7400 -29.1287 -0.7713
43.7600 -29.1420 -0.7700
43.7800 -29.1553 -0.7733
43.8000 -29.1687 -0.7708
43.8200 -29.1820 -0.7750
43.8400 -29.1954 -0.7707
43.8600 -29.2087 -0.7721
43.8800 -29.2220 -0.7731
43.9000 -29.2354 -0.7734
43.9200 -29.2488 -0.7717
43.9400 -29.2621 -0.7722
43.9600 -29.2754 -0.7722
43.9800 -29.2887 -0.7730
44.0000 -29.3021 -0.7729
44.0200 -29.3154 -0.7712
44.0400 -29.3287 -0.7695
44.0600 -29.3420 -0.7715
44.0800 -29.3554 -0.7713
44.1000 -29.3687 -0.7710
44.1200 -29.3820 -0.7688
44.1400 -29.3953 -0.7700
44.1600 -29.4087 -0.7697
44.1800 -29.4220 -0.7697
44.2000 -29.4354 -0.7667
44.2200 -29.4487 -0.7673
44.2400 -29.4620 -0.7671
44.2600 -29.4754 -0.7680
44.2800 -29.4888 -0.7672
44.3000 -29.5021 -0.7651
44.3200 -29.5154 -0.7651
44.3400 -29.5287 -0.7631
44.3600 -29.5421 -0.7623
44.3800 -29.5554 -0.7604
44.4000 -29.5687 -0.7632
44.4200 -29.5820 -0.7594
44.4400 -29.5954 -0.7608
44.4600 -29.6087 -0.7609
44.4800 -29.6220 -0.7589
44.5000 -29.6353 -0.7579
44.5200 -29.6486 -0.7576
44.5400 -29.6620 -0.7556
44.5600 -29.6754 -0.7569
44.5800 -29.6887 -0.7553
44.6000 -29.7020 -0.7531
44.6200 -29.7154 -0.7534
44.6400 -29.7288 -0.7492
44.6600 -29.7421 -0.7518
44.6800 -29.7554 -0.7491
44.7000 -29.7687 -0.7505
44.7200 -29.7821 -0.7490
44.7400 -29.7954 -0.7501
44.7600 -29.8087 -0.7479
44.7800 -29.8220 -0.7434
44.8000 -29.8354 -0.7430
44.8200 -29.8487 -0.7431
44.8400 -29.8620 -0.7423
44.8600 -29.8753 -0.7421
44.8800 -29.8886 -0.7408
44.9000 -29.9020 -0.7399
44.9200 -29.9153 -0.7393
44.9400 -29.9287 -0.7361
44.9600 -29.9420 -0.7360
44.9800 -29.9554 -0.7343
45.0000 -29.9688 -0.7337
45.0200 -29.9821 -0.7334
45.0400 -29.9954 -0.7319
45.0600 -30.0087 -0.7326
45.0800 -30.0221 -0.7294
45.1000 -30.0354 -0.7259
45.1200 -30.0487 -0.7255
45.1400 -30.0620 -0.7252
45.1600 -30.0754 -0.7247
45.1800 -30.0887 -0.7231
45.2000 -30.1020 -0.7250
45.2200 -30.1153 -0.7230
45.2400 -30.1287 -0.7222
45.2600 -30.1420 -0.7209
45.2800 -30.1554 -0.7205
45.3000 -30.1687 -0.7205
45.3200 -30.1820 -0.7194
45.3400 -30.1954 -0.7171
45.3600 -30.2088 -0.7181
45.3800 -30.2221 -0.7167
45.4000 -30.2353 -0.7182
45.4200 -30.2487 -0.7166
45.4400 -30.2620 -0.7184
45.4600 -30.2754 -0.7173
45.4800 -30.2887 -0.7203
45.5000 -30.3021 -0.7173
45.5200 -30.3154 -0.7194
45.5400 -30.3287 -0.7176
45.5600 -30.3421 -0.7178
45.5800 -30.3553 -0.7150
45.6000 -30.3687 -0.7194
45.6200 -30.3820 -0.7177
45.6400 -30.3953 -0.7189
45.6600 -30.4087 -0.7187
45.6800 -30.4220 -0.7183
45.7000 -30.4354 -0.7180
45.7200 -30.4488 -0.7163
45.7400 -30.4621 -0.7161
45.7600 -30.4754 -0.7149
45.7800 -30.4888 -0.7168
45.8000 -30.5021 -0.7148
45.8200 -30.5155 -0.7151
45.8400 -30.5288 -0.7137
45.8600 -30.5421 -0.7121
45.8800 -30.5554 -0.7117
45.9000 -30.5687 -0.7122
45.9200 -30.5820 -0.7105
45.9400 -30.5953 -0.7100
45.9600 -30.6086 -0.7079
45.9800 -30.6220 -0.7069
46.0000 -30.6353 -0.7063
46.0200 -30.6487 -0.7043
46.0400 -30.6620 -0.7036
46.0600 -30.6754 -0.7030
46.0800 -30.6887 -0.7007
46.1000 -30.7021 -0.7015
46.1200 -30.7154 -0.6978
46.1400 -30.7287 -0.6995
46.1600 -30.7421 -0.6954
46.1800 -30.7554 -0.6961
46.2000 -30.7687 -0.6940
46.2200 -30.7820 -0.6936
46.2400 -30.7954 -0.6913
46.2600 -30.8087 -0.6932
46.2800 -30.8221 -0.6892
46.3000 -30.8353 -0.6903
46.3200 -30.8486 -0.6887
46.3400 -30.8620 -0.6900
46.3600 -30.8753 -0.6880
46.3800 -30.8887 -0.6886
46.4000 -30.9020 -0.6863
46.4200 -30.9154 -0.6858
46.4400 -30.9288 -0.6851
46.4600 -30.9421 -0.6847
46.4800 -30.9554 -0.6856
46.5000 -30.9687 -0.6843
46.5200 -30.9821 -0.6859
46.5400 -30.9954 -0.6863
46.5600 -31.0088 -0.6851
46.5800 -31.0221 -0.6834
46.6000 -31.0354 -0.6837
46.6200 -31.0488 -0.6848
46.6400 -31.0621 -0.6841
46.6600 -31.0754 -0.6832
46.6800 -31.0887 -0.6834
46.7000 -31.1020 -0.6800
46.7200 -31.1154 -0.6800
46.7400 -31.1287 -0.6784
46.7600 -31.1420 -0.6777
46.7800 -31.1554 -0.6778
46.8000 -31.1688 -0.6759
46.8200 -31.1821 -0.6752
46.8400 -31.1954 -0.6756
46.8600 -31.2087 -0.6747
46.8800 -31.2221 -0.6774
46.9000 -31.2354 -0.6730
46.9200 -31.2487 -0.6746
46.9400 -31.2620 -0.6741
46.9600 -31.2754 -0.6747
46.9800 -31.2887 -0.6722
47.0000 -31.3020 -0.6717
47.0200 -31.3153 -0.6699
47.0400 -31.3286 -0.6702
47.0600 -31.3420 -0.6734
47.0800 -31.3554 -0.6707
47.1000 -31.3687 -0.6690
47.1200 -31.3820 -0.6680
47.1400 -31.3954 -0.6702
47.1600 -31.4088 -0.6707
47.1800 -31.4221 -0.6698
47.2000 -31.4354 -0.6648
47.2200 -31.4487 -0.6652
47.2400 -31.4621 -0.6656
47.2600 -31.4754 -0.6645
47.2800 -31.4887 -0.6630
47.3000 -31.5020 -0.6641
47.3200 -31.5154 -0.6624
47.3400 -31.5287 -0.6624
47.3600 -31.5420 -0.6632
47.3800 -31.5553 -0.6621
47.4000 -31.5686 -0.6624
47.4200 -31.5820 -0.6607
47.4400 -31.5954 -0.6584
47.4600 -31.6087 -0.6577
47.4800 -31.6220 -0.6575
47.5000 -31.6354 -0.6563
47.5200 -31.6487 -0.6574
47.5400 -31.6621 -0.6540
47.5600 -31.6754 -0.6528
47.5800 -31.6887 -0.6519
47.6000 -31.7020 -0.6520
47.6200 -31.7154 -0.6494
47.6400 -31.7287 -0.6497
47.6600 -31.7421 -0.6487
47.6800 -31.7554 -0.6492
47.7000 -31.7688 -0.6484
47.7200 -31.7821 -0.6476
47.7400 -31.7954 -0.6453
47.7600 -31.8087 -0.6459
47.7800 -31.8220 -0.6445
47.8000 -31.8353 -0.6441
47.8200 -31.8486 -0.6430
47.8400 -31.8620 -0.6430
47.8600 -31.8753 -0.6424
47.8800 -31.8887 -0.6425
47.9000 -31.9021 -0.6414
47.9200 -31.9154 -0.6420
47.9400 -31.9287 -0.6402
47.9600 -31.9421 -0.6410
47.9800 -31.9555 -0.6384
48.0000 -31.9688 -0.6367
48.0200 -31.9821 -0.6361
48.0400 -31.9954 -0.6350
48.0600 -32.0087 -0.6327
48.0800 -32.0220 -0.6342
48.1000 -32.0353 -0.6336
48.1200 -32.0487 -0.6300
48.1400 -32.0620 -0.6298
48.1600 -32.0754 -0.6313
48.1800 -32.0887 -0.6289
48.2000 -32.1020 -0.6276
48.2200 -32.1154 -0.6247
48.2400 -32.1287 -0.6258
48.2600 -32.1421 -0.6233
48.2800 -32.1554 -0.6219
48.3000 -32.1687 -0.6218
48.3200 -32.1821 -0.6201
48.3400 -32.1954 -0.6191
48.3600 -32.2087 -0.6152
48.3800 -32.2220 -0.6168
48.4000 -32.2354 -0.6138
48.4200 -32.2487 -0.6145
48.4400 -32.2621 -0.6121
48.4600 -32.2753 -0.6114
48.4800 -32.2886 -0.6091
48.5000 -32.3020 -0.6093
48.5200 -32.3153 -0.6056
48.5400 -32.3287 -0.6072
48.5600 -32.3420 -0.6064
48.5800 -32.3554 -0.6073
48.6000 -32.3687 -0.6068
48.6200 -32.3821 -0.6058
48.6400 -32.3954 -0.6024
48.6600 -32.4087 -0.6009
48.6800 -32.4221 -0.6023
48.7000 -32.4354 -0.6023
48.7200 -32.4488 -0.6011
48.7400 -32.4621 -0.6023
48.7600 -32.4754 -0.5988
48.7800 -32.4887 -0.5981
48.8000 -32.5021 -0.5989
48.8200 -32.5154 -0.5953
48.8400 -32.5286 -0.5972
48.8600 -32.5420 -0.5950
48.8800 -32.5553 -0.5936
48.9000 -32.5687 -0.5923
48.9200 -32.5820 -0.5945
48.9400 -32.5953 -0.5909
48.9600 -32.6087 -0.5918
48.9800 -32.6221 -0.5920
49.0000 -32.6354 -0.5916
49.0200 -32.6488 -0.5901
49.0400 -32.6621 -0.5893
49.0600 -32.6755 -0.5876
49.0800 -32.6888 -0.5879
49.1000 -32.7021 -0.5874
49.1200 -32.7154 -0.5866
49.1400 -32.7287 -0.5889
49.1600 -32.7421 -0.5885
49.1800 -32.7554 -0.5877
49.2000 -32.7687 -0.5859
49.2200 -32.7820 -0.5863
49.2400 -32.7954 -0.5859
49.2600 -32.8087 -0.5855
49.2800 -32.8220 -0.5884
49.3000 -32.8353 -0.5860
49.3200 -32.8487 -0.5863
49.3400 -32.8621 -0.5855
49.3600 -32.8754 -0.5863
49.3800 -32.8887 -0.5871
49.4000 -32.9020 -0.5887
49.4200 -32.9154 -0.5879
49.4400 -32.9288 -0.5908
49.4600 -32.9421 -0.5910
49.4800 -32.9554 -0.5884
49.5000 -32.9688 -0.5855
49.5200 -32.9821 -0.5890
49.5400 -32.9954 -0.5898
49.5600 -33.0087 -0.5899
49.5800 -33.0220 -0.5888
49.6000 -33.0353 -0.5879
49.6200 -33.0487 -0.5879
49.6400 -33.0620 -0.5892
49.6600 -33.0753 -0.5897
49.6800 -33.0887 -0.5868
49.7000 -33.1021 -0.5874
49.7200 -33.1154 -0.5859
49.7400 -33.1287 -0.5853
49.7600 -33.1420 -0.5847
49.7800 -33.1554 -0.5863
49.8000 -33.1688 -0.5817
49.8200 -33.1821 -0.5837
49.8400 -33.1954 -0.5811
49.8600 -33.2087 -0.5810
49.8800 -33.2221 -0.5807
49.9000 -33.2354 -0.5789
49.9200 -33.2487 -0.5778
49.9400 -33.2620 -0.5765
49.9600 -33.2753 -0.5741
49.9800 -33.2887 -0.5720
50.0000 -33.3020 -0.5740
50.0200 -33.3153 -0.5718
50.0400 -33.3287 -0.5667
50.0600 -33.3421 -0.5675
50.0800 -33.3554 -0.5677
50.1000 -33.3687 -0.5656
50.1200 -33.3821 -0.5658
50.1400 -33.3954 -0.5598
50.1600 -33.4088 -0.5598
50.1800 -33.4221 -0.5595
50.2000 -33.4354 -0.5580
50.2200 -33.4487 -0.5562
50.2400 -33.4620 -0.5561
50.2600 -33.4753 -0.5525
50.2800 -33.4886 -0.5517
50.3000 -33.5020 -0.5503
50.3200 -33.5153 -0.5476
50.3400 -33.5287 -0.5449
50.3600 -33.5420 -0.5458
50.3800 -33.5554 -0.5423
50.4000 -33.5687 -0.5414
50.4200 -33.5821 -0.5404
50.4400 -33.5955 -0.5391
50.4600 -33.6087 -0.5385
50.4800 -33.6221 -0.5386
50.5000 -33.6354 -0.5370
50.5200 -33.6488 -0.5349
50.5400 -33.6621 -0.5337
50.5600 -33.6754 -0.5308
50.5800 -33.6887 -0.5295
50.6000 -33.7021 -0.5285
50.6200 -33.7154 -0.5252
50.6400 -33.7287 -0.5272
50.6600 -33.7420 -0.5276
50.6800 -33.7554 -0.5279
50.7000 -33.7687 -0.5273
50.7200 -33.7820 -0.5265
50.7400 -33.7953 -0.5245
50.7600 -33.8087 -0.5231
50.7800 -33.8221 -0.5241
50.8000 -33.8354 -0.5214
50.8200 -33.8487 -0.5202
50.8400 -33.8620 -0.5206
50.8600 -33.8754 -0.5225
50.8800 -33.8887 -0.5181
50.9000 -33.9021 -0.5212
50.9200 -33.9154 -0.5193
50.9400 -33.9287 -0.5186
50.9600 -33.9420 -0.5187
50.9800 -33.9553 -0.5190
51.0000 -33.9686 -0.5164
51.0200 -33.9819 -0.5185
51.0400 -33.9953 -0.5162
51.0600 -34.0087 -0.5161
51.0800 -34.0220 -0.5165
51.1000 -34.0354 -0.5172
51.1200 -34.0487 -0.5148
51.1400 -34.0621 -0.5174
51.1600 -34.0754 -0.5141
51.1800 -34.0887 -0.5141
51.2000 -34.1020 -0.5143
51.2200 -34.1154 -0.5126
51.2400 -34.1287 -0.5131
51.2600 -34.1420 -0.5150
51.2800 -34.1554 -0.5161
51.3000 -34.1687 -0.5142
51.3200 -34.1820 -0.5156
51.3400 -34.1953 -0.5150
51.3600 -34.2086 -0.5129
51.3800 -34.2220 -0.5136
51.4000 -34.2354 -0.5123
51.4200 -34.2487 -0.5106
51.4400 -34.2621 -0.5119
51.4600 -34.2754 -0.5138
51.4800 -34.2887 -0.5094
51.5000 -34.3021 -0.5117
51.5200 -34.3155 -0.5099
51.5400 -34.3287 -0.5095
51.5600 -34.3421 -0.5103
51.5800 -34.3554 -0.5081
51.6000 -34.3688 -0.5061
51.6200 -34.3821 -0.5041
51.6400 -34.3954 -0.5052
51.6600 -34.4087 -0.5020
51.6800 -34.4220 -0.5038
51.7000 -34.4354 -0.5023
51.7200 -34.4486 -0.5004
51.7400 -34.4620 -0.4985
51.7600 -34.4753 -0.4985
51.7800 -34.4887 -0.4936
51.8000 -34.5020 -0.4960
51.8200 -34.5154 -0.4945
51.8400 -34.5287 -0.4913
51.8600 -34.5421 -0.4908
51.8800 -34.5555 -0.4885
51.9000 -34.5688 -0.4858
51.9200 -34.5821 -0.4873
51.9400 -34.5954 -0.4862
51.9600 -34.6088 -0.4825
51.9800 -34.6221 -0.4824
52.0000 -34.6354 -0.4788
52.0200 -34.6487 -0.4776
52.0400 -34.6620 -0.4790
52.0600 -34.6753 -0.4765
52.0800 -34.6886 -0.4744
52.1000 -34.7019 -0.4732
52.1200 -34.7153 -0.4727
52.1400 -34.7287 -0.4675
52.1600 -34.7420 -0.4698
52.1800 -34.7554 -0.4688
52.2000 -34.7687 -0.4654
52.2200 -34.7821 -0.4643
52.2400 -34.7955 -0.4626
52.2600 -34.8088 -0.4622
52.2800 -34.8221 -0.4620
52.3000 -34.8354 -0.4609
52.3200 -34.8488 -0.4582
52.3400 -34.8621 -0.4593
52.3600 -34.8754 -0.4571
52.3800 -34.8887 -0.4570
52.4000 -34.9020 -0.4542
52.4200 -34.9154 -0.4540
52.4400 -34.9286 -0.4498
52.4600 -34.9420 -0.4515
52.4800 -34.9553 -0.4504
52.5000 -34.9687 -0.4471
52.5200 -34.9821 -0.4480
52.5400 -34.9954 -0.4469
52.5600 -35.0087 -0.4466
52.5800 -35.0221 -0.4450
52.6000 -35.0354 -0.4433
52.6200 -35.0487 -0.4399
52.6400 -35.0620 -0.4413
52.6600 -35.0753 -0.4393
52.6800 -35.0887 -0.4370
52.7000 -35.1021 -0.4343
52.7200 -35.1154 -0.4352
52.7400 -35.1287 -0.4323
52.7600 -35.1421 -0.4327
52.7800 -35.1554 -0.4331
52.8000 -35.1687 -0.4318
52.8200 -35.1820 -0.4313
52.8400 -35.1954 -0.4310
52.8600 -35.2087 -0.4285
52.8800 -35.2220 -0.4284
52.9000 -35.2353 -0.4294
52.9200 -35.2487 -0.4268
52.9400 -35.2621 -0.4271
52.9600 -35.2755 -0.4273
52.9800 -35.2888 -0.4242
53.0000 -35.3021 -0.4256
53.0200 -35.3154 -0.4263
53.0400 -35.3288 -0.4249
53.0600 -35.3421 -0.4230
53.0800 -35.3554 -0.4249
53.1000 -35.3687 -0.4190
53.1200 -35.3821 -0.4224
53.1400 -35.3954 -0.4198
53.1600 -35.4087 -0.4209
53.1800 -35.4220 -0.4183
53.2000 -35.4353 -0.4211
53.2200 -35.4487 -0.4164
53.2400 -35.4620 -0.4172
53.2600 -35.4754 -0.4171
53.2800 -35.4887 -0.4142
53.3000 -35.5021 -0.4130
53.3200 -35.5154 -0.4129
53.3400 -35.5287 -0.4121
53.3600 -35.5420 -0.4114
53.3800 -35.5554 -0.4136
53.4000 -35.5688 -0.4090
53.4200 -35.5821 -0.4110
53.4400 -35.5954 -0.4068
53.4600 -35.6087 -0.4064
53.4800 -35.6220 -0.4063
53.5000 -35.6354 -0.4106
53.5200 -35.6487 -0.4028
53.5400 -35.6620 -0.4069
53.5600 -35.6753 -0.4053
53.5800 -35.6887 -0.4035
53.6000 -35.7020 -0.4012
53.6200 -35.7154 -0.4037
53.6400 -35.7287 -0.4003
53.6600 -35.7420 -0.4006
53.6800 -35.7554 -0.3995
53.7000 -35.7687 -0.3971
53.7200 -35.7820 -0.3987
53.7400 -35.7954 -0.3990
53.7600 -35.8087 -0.3963
53.7800 -35.8221 -0.3947
53.8000 -35.8354 -0.3969
53.8200 -35.8487 -0.3921
53.8400 -35.8621 -0.3920
53.8600 -35.8754 -0.3916
53.8800 -35.8887 -0.3897
53.9000 -35.9020 -0.3904
53.9200 -35.9153 -0.3913
53.9400 -35.9287 -0.3883
53.9600 -35.9420 -0.3879
53.9800 -35.9554 -0.3890
54.0000 -35.9687 -0.3865
54.0200 -35.9821 -0.3861
54.0400 -35.9954 -0.3845
54.0600 -36.0088 -0.3816
54.0800 -36.0221 -0.3806
54.1000 -36.0354 -0.3815
54.1200 -36.0487 -0.3778
54.1400 -36.0621 -0.3795
54.1600 -36.0754 -0.3773
54.1800 -36.0887 -0.3766
54.2000 -36.1020 -0.3762
54.2200 -36.1154 -0.3754
54.2400 -36.1287 -0.3724
54.2600 -36.1420 -0.3717
54.2800 -36.1553 -0.3711
54.3000 -36.1687 -0.3667
54.3200 -36.1821 -0.3662
54.3400 -36.1954 -0.3660
54.3600 -36.2087 -0.3628
54.3800 -36.2221 -0.3623
54.4000 -36.2354 -0.3641
54.4200 -36.2488 -0.3602
54.4400 -36.2621 -0.3607
54.4600 -36.2754 -0.3597
54.4800 -36.2887 -0.3562
54.5000 -36.3021 -0.3549
54.5200 -36.3154 -0.3556
54.5400 -36.3287 -0.3521
54.5600 -36.3420 -0.3525
54.5800 -36.3553 -0.3510
54.6000 -36.3687 -0.3473
54.6200 -36.3820 -0.3456
54.6400 -36.3953 -0.3472
54.6600 -36.4087 -0.3433
54.6800 -36.4221 -0.3438
54.7000 -36.4354 -0.3432
54.7200 -36.4487 -0.3392
54.7400 -36.4621 -0.3391
54.7600 -36.4754 -0.3374
54.7800 -36.4888 -0.3360
54.8000 -36.5021 -0.3351
54.8200 -36.5154 -0.3361
54.8400 -36.5287 -0.3311
54.8600 -36.5421 -0.3310
54.8800 -36.5554 -0.3295
54.9000 -36.5687 -0.3288
54.9200 -36.5821 -0.3249
54.9400 -36.5954 -0.3268
54.9600 -36.6087 -0.3249
54.9800 -36.6220 -0.3238
55.0000 -36.6353 -0.3239
55.0200 -36.6487 -0.3186
55.0400 -36.6620 -0.3169
55.0600 -36.6753 -0.3161
55.0800 -36.6887 -0.3139
55.1000 -36.7020 -0.3111
55.1200 -36.7154 -0.3140
55.1400 -36.7288 -0.3099
55.1600 -36.7421 -0.3103
55.1800 -36.7554 -0.3091
55.2000 -36.7688 -0.3086
55.2200 -36.7821 -0.3037
55.2400 -36.7954 -0.3052
55.2600 -36.8087 -0.3015
55.2800 -36.8220 -0.3040
55.3000 -36.8354 -0.3006
55.3200 -36.8487 -0.2989
55.3400 -36.8620 -0.2960
55.3600 -36.8753 -0.2978
55.3800 -36.8887 -0.2947
55.4000 -36.9021 -0.2928
55.4200 -36.9154 -0.2939
55.4400 -36.9287 -0.2907
55.4600 -36.9421 -0.2886
55.4800 -36.9554 -0.2892
55.5000 -36.9688 -0.2840
55.5200 -36.9821 -0.2847
55.5400 -36.9954 -0.2848
55.5600 -37.0087 -0.2833
55.5800 -37.0221 -0.2817
55.6000 -37.0354 -0.2813
55.6200 -37.0487 -0.2810
55.6400 -37.0621 -0.2776
55.6600 -37.0754 -0.2796
55.6800 -37.0887 -0.2767
55.7000 -37.1020 -0.2767
55.7200 -37.1153 -0.2764
55.7400 -37.1287 -0.2743
55.7600 -37.1420 -0.2701
55.7800 -37.1554 -0.2728
55.8000 -37.1687 -0.2701
55.8200 -37.1820 -0.2697
55.8400 -37.1954 -0.2701
55.8600 -37.2088 -0.2690
55.8800 -37.2221 -0.2672
55.9000 -37.2354 -0.2671
55.9200 -37.2488 -0.2631
55.9400 -37.2621 -0.2615
55.9600 -37.2754 -0.2594
55.9800 -37.2887 -0.2589
56.0000 -37.3021 -0.2566
56.0200 -37.3154 -0.2590
56.0400 -37.3287 -0.2542
56.0600 -37.3420 -0.2526
56.0800 -37.3553 -0.2527
56.1000 -37.3687 -0.2511
56.1200 -37.3820 -0.2460
56.1400 -37.3953 -0.2482
56.1600 -37.4087 -0.2461
56.1800 -37.4220 -0.2438
56.2000 -37.4354 -0.2438
56.2200 -37.4488 -0.2415
56.2400 -37.4621 -0.2392
56.2600 -37.4754 -0.2410
56.2800 -37.4888 -0.2372
56.3000 -37.5021 -0.2350
56.3200 -37.5154 -0.2345
56.3400 -37.5287 -0.2313
56.3600 -37.5421 -0.2289
56.3800 -37.5554 -0.2299
56.4000 -37.5687 -0.2288
56.4200 -37.5820 -0.2256
56.4400 -37.5953 -0.2278
56.4600 -37.6087 -0.2261
56.4800 -37.6220 -0.2209
56.5000 -37.6354 -0.2218
56.5200 -37.6487 -0.2209
56.5400 -37.6620 -0.2191
56.5600 -37.6754 -0.2182
56.5800 -37.6888 -0.2173
56.6000 -37.7021 -0.2133
56.6200 -37.7154 -0.2135
56.6400 -37.7287 -0.2130
56.6600 -37.7421 -0.2107
56.6800 -37.7554 -0.2109
56.7000 -37.7687 -0.2090
56.7200 -37.7821 -0.2064
56.7400 -37.7954 -0.2082
56.7600 -37.8087 -0.2078
56.7800 -37.8220 -0.2038
56.8000 -37.8353 -0.2060
56.8200 -37.8487 -0.2011
56.8400 -37.8620 -0.1988
56.8600 -37.8754 -0.2018
56.8800 -37.8887 -0.1999
56.9000 -37.9020 -0.1950
56.9200 -37.9154 -0.1960
56.9400 -37.9287 -0.1954
56.9600 -37.9420 -0.1929
56.9800 -37.9554 -0.1935
57.0000 -37.9687 -0.1921
57.0200 -37.9821 -0.1887
57.0400 -37.9955 -0.1886
57.0600 -38.0088 -0.1891
57.0800 -38.0221 -0.1855
57.1000 -38.0354 -0.1855
57.1200 -38.0487 -0.1828
57.1400 -38.0620 -0.1811
57.1600 -38.0753 -0.1804
57.1800 -38.0886 -0.1785
57.2000 -38.1020 -0.1749
57.2200 -38.1154 -0.1776
57.2400 -38.1287 -0.1754
57.2600 -38.1420 -0.1710
57.2800 -38.1554 -0.1726
57.3000 -38.1688 -0.1699
57.3200 -38.1821 -0.1662
57.3400 -38.1954 -0.1687
57.3600 -38.2087 -0.1654
57.3800 -38.2221 -0.1614
57.4000 -38.2354 -0.1608
57.4200 -38.2487 -0.1594
57.4400 -38.2620 -0.1589
57.4600 -38.2753 -0.1581
57.4800 -38.2887 -0.1562
57.5000 -38.3020 -0.1506
57.5200 -38.3153 -0.1518
57.5400 -38.3286 -0.1496
57.5600 -38.3420 -0.1478
57.5800 -38.3554 -0.1469
57.6000 -38.3687 -0.1455
57.6200 -38.3820 -0.1428
57.6400 -38.3954 -0.1444
57.6600 -38.4088 -0.1413
57.6800 -38.4221 -0.1388
57.7000 -38.4354 -0.1374
57.7200 -38.4487 -0.1380
57.7400 -38.4621 -0.1346
57.7600 -38.4754 -0.1338
57.7800 -38.4887 -0.1322
57.8000 -38.5021 -0.1310
57.8200 -38.5154 -0.1311
57.8400 -38.5287 -0.1292
57.8600 -38.5420 -0.1243
57.8800 -38.5553 -0.1253
57.9000 -38.5687 -0.1196
57.9200 -38.5820 -0.1179
57.9400 -38.5954 -0.1162
57.9600 -38.6087 -0.1161
57.9800 -38.6220 -0.1123
58.0000 -38.6354 -0.1123
58.0200 -38.6488 -0.1090
58.0400 -38.6621 -0.1049
58.0600 -38.6754 -0.1060
58.0800 -38.6887 -0.1055
58.1000 -38.7021 -0.1013
58.1200 -38.7154 -0.1012
58.1400 -38.7287 -0.0972
58.1600 -38.7420 -0.0940
58.1800 -38.7554 -0.0960
58.2000 -38.7687 -0.0937
58.2200 -38.7820 -0.0929
58.2400 -38.7953 -0.0917
58.2600 -38.8086 -0.0907
58.2800 -38.8220 -0.0872
58.3000 -38.8354 -0.0882
58.3200 -38.8487 -0.0864
58.3400 -38.8620 -0.0847
58.3600 -38.8754 -0.0829
58.3800 -38.8888 -0.0842
58.4000 -38.9021 -0.0795
58.4200 -38.9154 -0.0824
58.4400 -38.9287 -0.0785
58.4600 -38.9421 -0.0752
58.4800 -38.9554 -0.0738
58.5000 -38.9687 -0.0748
58.5200 -38.9820 -0.0694
58.5400 -38.9954 -0.0695
58.5600 -39.0087 -0.0689
58.5800 -39.0220 -0.0649
58.6000 -39.0353 -0.0629
58.6200 -39.0487 -0.0627
58.6400 -39.0620 -0.0562
58.6600 -39.0754 -0.0597
58.6800 -39.0887 -0.0553
58.7000 -39.1020 -0.0522
58.7200 -39.1154 -0.0509
58.7400 -39.1288 -0.0476
58.7600 -39.1421 -0.0437
58.7800 -39.1554 -0.0421
58.8000 -39.1687 -0.0401
58.8200 -39.1821 -0.0387
58.8400 -39.1954 -0.0383
58.8600 -39.2087 -0.0378
58.8800 -39.2221 -0.0330
58.9000 -39.2354 -0.0321
58.9200 -39.2487 -0.0295
58.9400 -39.2620 -0.0245
58.9600 -39.2753 -0.0249
58.9800 -39.2886 -0.0227
59.0000 -39.3020 -0.0222
59.0200 -39.3154 -0.0206
59.0400 -39.3287 -0.0204
59.0600 -39.3420 -0.0166
59.0800 -39.3554 -0.0167
59.1000 -39.3688 -0.0130
59.1200 -39.3821 -0.0104
59.1400 -39.3954 -0.0080
59.1600 -39.4087 -0.0094
59.1800 -39.4221 -0.0043
59.2000 -39.4354 -0.0041
59.2200 -39.4487 -0.0007
59.2400 -39.4620 0.0025
59.2600 -39.4754 0.0014
59.2800 -39.4887 0.0032
59.3000 -39.5020 0.0073
59.3200 -39.5153 0.0086
59.3400 -39.5286 0.0109
59.3600 -39.5420 0.0143
59.3800 -39.5553 0.0150
59.4000 -39.5687 0.0150
59.4200 -39.5820 0.0178
59.4400 -39.5954 0.0169
59.4600 -39.6088 0.0176
59.4800 -39.6221 0.0220
59.5000 -39.6354 0.0238
59.5200 -39.6487 0.0240
59.5400 -39.6621 0.0261
59.5600 -39.6754 0.0270
59.5800 -39.6887 0.0272
59.6000 -39.7020 0.0301
59.6200 -39.7154 0.0309
59.6400 -39.7287 0.0326
59.6600 -39.7420 0.0371
59.6800 -39.7553 0.0394
59.7000 -39.7686 0.0387
59.7200 -39.7820 0.0429
59.7400 -39.7954 0.0435
59.7600 -39.8087 0.0449
59.7800 -39.8220 0.0494
59.8000 -39.8354 0.0511
59.8200 -39.8488 0.0529
59.8400 -39.8621 0.0558
59.8600 -39.8754 0.0573
59.8800 -39.8887 0.0594
59.9000 -39.9020 0.0622
59.9200 -39.9154 0.0634
59.9400 -39.9287 0.0649
59.9600 -39.9421 0.0693
59.9800 -39.9554 0.0713
60.0000 -39.9687 0.0735
60.0200 -39.9821 0.0770
60.0400 -39.9954 0.0782
60.0480 -40.0005 0.0828
