Raw Data
Time Displacement Force
(s) (mm) (N)
0.0000 0.0000 -0.3345
0.0200 -0.0001 -0.3380
0.0400 -0.0019 -0.3542
0.0600 -0.0093 -0.3520
0.0800 -0.0211 -0.3384
0.1000 -0.0337 -0.3411
0.1200 -0.0464 -0.3405
0.1400 -0.0598 -0.3419
0.1600 -0.0738 -0.3408
0.1800 -0.0879 -0.3384
0.2000 -0.1017 -0.3376
0.2200 -0.1153 -0.3402
0.2400 -0.1287 -0.3388
0.2600 -0.1420 -0.3398
0.2800 -0.1553 -0.3431
0.3000 -0.1686 -0.3412
0.3200 -0.1819 -0.3405
0.3400 -0.1953 -0.3387
0.3600 -0.2086 -0.3402
0.3800 -0.2219 -0.3378
0.4000 -0.2353 -0.3393
0.4200 -0.2486 -0.3355
0.4400 -0.2620 -0.3354
0.4600 -0.2753 -0.3357
0.4800 -0.2887 -0.3369
0.5000 -0.3020 -0.3341
0.5200 -0.3154 -0.3372
0.5400 -0.3287 -0.3332
0.5600 -0.3420 -0.3314
0.5800 -0.3554 -0.3324
0.6000 -0.3687 -0.3310
0.6200 -0.3821 -0.3302
0.6400 -0.3954 -0.3322
0.6600 -0.4087 -0.3307
0.6800 -0.4220 -0.3284
0.7000 -0.4353 -0.3297
0.7200 -0.4486 -0.3266
0.7400 -0.4619 -0.3252
0.7600 -0.4753 -0.3271
0.7800 -0.4886 -0.3245
0.8000 -0.5020 -0.3252
0.8200 -0.5153 -0.3247
0.8400 -0.5287 -0.3234
0.8600 -0.5420 -0.3216
0.8800 -0.5554 -0.3210
0.9000 -0.5687 -0.3204
0.9200 -0.5820 -0.3193
0.9400 -0.5953 -0.3216
0.9600 -0.6087 -0.3195
0.9800 -0.6221 -0.3161
1.0000 -0.6354 -0.3162
1.0200 -0.6487 -0.3163
1.0400 -0.6620 -0.3156
1.0600 -0.6753 -0.3172
1.0800 -0.6886 -0.3131
1.1000 -0.7019 -0.3141
1.1200 -0.7152 -0.3140
1.1400 -0.7286 -0.3141
1.1600 -0.7420 -0.3093
1.1800 -0.7553 -0.3134
1.2000 -0.7686 -0.3120
1.2200 -0.7820 -0.3122
1.2400 -0.7954 -0.3100
1.2600 -0.8088 -0.3089
1.2800 -0.8221 -0.3075
1.3000 -0.8354 -0.3081
1.3200 -0.8487 -0.3079
1.3400 -0.8621 -0.3049
1.3600 -0.8754 -0.3057
1.3800 -0.8887 -0.3045
1.4000 -0.9020 -0.3074
1.4200 -0.9154 -0.3047
1.4400 -0.9287 -0.3035
1.4600 -0.9419 -0.3001
1.4800 -0.9552 -0.3021
1.5000 -0.9686 -0.3013
1.5200 -0.9820 -0.3009
1.5400 -0.9953 -0.3026
1.5600 -1.0086 -0.3008
1.5800 -1.0220 -0.2984
1.6000 -1.0354 -0.2995
1.6200 -1.0488 -0.2972
1.6400 -1.0621 -0.2969
1.6600 -1.0754 -0.2995
1.6800 -1.0887 -0.2989
1.7000 -1.1021 -0.2957
1.7200 -1.1154 -0.2957
1.7400 -1.1287 -0.2961
1.7600 -1.1420 -0.2928
1.7800 -1.1553 -0.2927
1.8000 -1.1687 -0.2939
1.8200 -1.1820 -0.2918
1.8400 -1.1953 -0.2923
1.8600 -1.2086 -0.2911
1.8800 -1.2220 -0.2888
1.9000 -1.2354 -0.2901
1.9200 -1.2487 -0.2885
1.9400 -1.2620 -0.2870
1.9600 -1.2754 -0.2863
1.9800 -1.2887 -0.2868
2.0000 -1.3020 -0.2845
2.0200 -1.3153 -0.2860
2.0400 -1.3287 -0.2849
2.0600 -1.3420 -0.2842
2.0800 -1.3554 -0.2839
2.1000 -1.3687 -0.2850
2.1200 -1.3820 -0.2817
2.1400 -1.3954 -0.2842
2.1600 -1.4087 -0.2821
2.1800 -1.4220 -0.2814
2.2000 -1.4353 -0.2831
2.2200 -1.4487 -0.2842
2.2400 -1.4620 -0.2808
2.2600 -1.4753 -0.2827
2.2800 -1.4886 -0.2803
2.3000 -1.5020 -0.2762
2.3200 -1.5154 -0.2781
2.3400 -1.5288 -0.2766
2.3600 -1.5421 -0.2744
2.3800 -1.5554 -0.2754
2.4000 -1.5687 -0.2760
2.4200 -1.5821 -0.2733
2.4400 -1.5954 -0.2748
2.4600 -1.6087 -0.2738
2.4800 -1.6220 -0.2724
2.5000 -1.6353 -0.2721
2.5200 -1.6487 -0.2725
2.5400 -1.6619 -0.2713
2.5600 -1.6753 -0.2712
2.5800 -1.6886 -0.2711
2.6000 -1.7020 -0.2683
2.6200 -1.7153 -0.2698
2.6400 -1.7286 -0.2682
2.6600 -1.7420 -0.2645
2.6800 -1.7554 -0.2646
2.7000 -1.7687 -0.2639
2.7200 -1.7820 -0.2648
2.7400 -1.7954 -0.2641
2.7600 -1.8087 -0.2665
2.7800 -1.8221 -0.2623
2.8000 -1.8354 -0.2656
2.8200 -1.8487 -0.2632
2.8400 -1.8620 -0.2618
2.8600 -1.8754 -0.2603
2.8800 -1.8887 -0.2616
2.9000 -1.9020 -0.2555
2.9200 -1.9153 -0.2595
2.9400 -1.9286 -0.2569
2.9600 -1.9420 -0.2555
2.9800 -1.9553 -0.2571
3.0000 -1.9687 -0.2574
3.0200 -1.9820 -0.2563
3.0400 -1.9953 -0.2566
3.0600 -2.0087 -0.2557
3.0800 -2.0220 -0.2508
3.1000 -2.0353 -0.2557
3.1200 -2.0487 -0.2536
3.1400 -2.0620 -0.2539
3.1600 -2.0754 -0.2532
3.1800 -2.0887 -0.2543
3.2000 -2.1020 -0.2497
3.2200 -2.1154 -0.2539
3.2400 -2.1287 -0.2520
3.2600 -2.1420 -0.2503
3.2800 -2.1553 -0.2507
3.3000 -2.1686 -0.2505
3.3200 -2.1820 -0.2498
3.3400 -2.1953 -0.2497
3.3600 -2.2087 -0.2490
3.3800 -2.2220 -0.2461
3.4000 -2.2354 -0.2479
3.4200 -2.2487 -0.2484
3.4400 -2.2621 -0.2475
3.4600 -2.2754 -0.2485
3.4800 -2.2887 -0.2500
3.5000 -2.3020 -0.2472
3.5200 -2.3154 -0.2464
3.5400 -2.3287 -0.2430
3.5600 -2.3420 -0.2417
3.5800 -2.3553 -0.2419
3.6000 -2.3687 -0.2440
3.6200 -2.3820 -0.2418
3.6400 -2.3953 -0.2383
3.6600 -2.4086 -0.2396
3.6800 -2.4220 -0.2348
3.7000 -2.4354 -0.2332
3.7200 -2.4487 -0.2279
3.7400 -2.4620 -0.2251
3.7600 -2.4754 -0.2221
3.7800 -2.4888 -0.2227
3.8000 -2.5021 -0.2218
3.8200 -2.5154 -0.2239
3.8400 -2.5287 -0.2260
3.8600 -2.5421 -0.2239
3.8800 -2.5554 -0.2232
3.9000 -2.5687 -0.2221
3.9200 -2.5820 -0.2221
3.9400 -2.5953 -0.2218
3.9600 -2.6087 -0.2255
3.9800 -2.6220 -0.2222
4.0000 -2.6353 -0.2232
4.0200 -2.6486 -0.2225
4.0400 -2.6620 -0.2204
4.0600 -2.6754 -0.2185
4.0800 -2.6887 -0.2211
4.1000 -2.7020 -0.2193
4.1200 -2.7154 -0.2204
4.1400 -2.7287 -0.2187
4.1600 -2.7420 -0.2188
4.1800 -2.7554 -0.2181
4.2000 -2.7687 -0.2192
4.2200 -2.7820 -0.2145
4.2400 -2.7954 -0.2188
4.2600 -2.8087 -0.2205
4.2800 -2.8220 -0.2162
4.3000 -2.8354 -0.2164
4.3200 -2.8487 -0.2133
4.3400 -2.8620 -0.2136
4.3600 -2.8753 -0.2129
4.3800 -2.8886 -0.2147
4.4000 -2.9020 -0.2092
4.4200 -2.9153 -0.2126
4.4400 -2.9286 -0.2115
4.4600 -2.9419 -0.2122
4.4800 -2.9553 -0.2113
4.5000 -2.9687 -0.2139
4.5200 -2.9821 -0.2094
4.5400 -2.9954 -0.2114
4.5600 -3.0087 -0.2102
4.5800 -3.0221 -0.2070
4.6000 -3.0354 -0.2070
4.6200 -3.0487 -0.2084
4.6400 -3.0620 -0.2068
4.6600 -3.0753 -0.2060
4.6800 -3.0887 -0.2078
4.7000 -3.1020 -0.2054
4.7200 -3.1153 -0.2053
4.7400 -3.1286 -0.2058
4.7600 -3.1420 -0.2038
4.7800 -3.1554 -0.2013
4.8000 -3.1687 -0.2053
4.8200 -3.1820 -0.2051
4.8400 -3.1954 -0.2056
4.8600 -3.2087 -0.2026
4.8800 -3.2221 -0.2037
4.9000 -3.2354 -0.1999
4.9200 -3.2487 -0.2040
4.9400 -3.2620 -0.2014
4.9600 -3.2754 -0.2028
4.9800 -3.2887 -0.2008
5.0000 -3.3020 -0.2006
5.0200 -3.3153 -0.1976
5.0400 -3.3287 -0.2027
5.0600 -3.3420 -0.1969
5.0800 -3.3553 -0.1983
5.1000 -3.3686 -0.1961
5.1200 -3.3820 -0.1966
5.1400 -3.3953 -0.1942
5.1600 -3.4087 -0.1979
5.1800 -3.4220 -0.1959
5.2000 -3.4353 -0.1937
5.2200 -3.4487 -0.1980
5.2400 -3.4621 -0.1968
5.2600 -3.4754 -0.1946
5.2800 -3.4887 -0.1937
5.3000 -3.5021 -0.1912
5.3200 -3.5154 -0.1916
5.3400 -3.5287 -0.1928
5.3600 -3.5420 -0.1902
5.3800 -3.5554 -0.1927
5.4000 -3.5687 -0.1933
5.4200 -3.5820 -0.1882
5.4400 -3.5953 -0.1897
5.4600 -3.6086 -0.1911
5.4800 -3.6220 -0.1880
5.5000 -3.6353 -0.1852
5.5200 -3.6486 -0.1901
5.5400 -3.6620 -0.1878
5.5600 -3.6753 -0.1848
5.5800 -3.6887 -0.1882
5.6000 -3.7021 -0.1847
5.6200 -3.7154 -0.1858
5.6400 -3.7287 -0.1855
5.6600 -3.7421 -0.1859
5.6800 -3.7554 -0.1836
5.7000 -3.7687 -0.1839
5.7200 -3.7820 -0.1819
5.7400 -3.7953 -0.1831
5.7600 -3.8087 -0.1849
5.7800 -3.8220 -0.1819
5.8000 -3.8353 -0.1816
5.8200 -3.8486 -0.1838
5.8400 -3.8620 -0.1798
5.8600 -3.8753 -0.1804
5.8800 -3.8887 -0.1815
5.9000 -3.9020 -0.1806
5.9200 -3.9153 -0.1792
5.9400 -3.9287 -0.1806
5.9600 -3.9421 -0.1804
5.9800 -3.9554 -0.1778
6.0000 -3.9687 -0.1796
6.0200 -3.9820 -0.1784
6.0400 -3.9954 -0.1764
6.0600 -4.0087 -0.1791
6.0800 -4.0221 -0.1763
6.1000 -4.0354 -0.1762
6.1200 -4.0487 -0.1774
6.1400 -4.0620 -0.1754
6.1600 -4.0753 -0.1779
6.1800 -4.0886 -0.1756
6.2000 -4.1020 -0.1739
6.2200 -4.1153 -0.1735
6.2400 -4.1287 -0.1773
6.2600 -4.1420 -0.1725
6.2800 -4.1553 -0.1710
6.3000 -4.1687 -0.1734
6.3200 -4.1821 -0.1718
6.3400 -4.1953 -0.1734
6.3600 -4.2087 -0.1697
6.3800 -4.2220 -0.1688
6.4000 -4.2354 -0.1695
6.4200 -4.2487 -0.1704
6.4400 -4.2620 -0.1680
6.4600 -4.2754 -0.1684
6.4800 -4.2887 -0.1675
6.5000 -4.3020 -0.1677
6.5200 -4.3153 -0.1705
6.5400 -4.3286 -0.1689
6.5600 -4.3420 -0.1655
6.5800 -4.3553 -0.1649
6.6000 -4.3687 -0.1669
6.6200 -4.3820 -0.1661
6.6400 -4.3953 -0.1639
6.6600 -4.4087 -0.1631
6.6800 -4.4221 -0.1637
6.7000 -4.4354 -0.1629
6.7200 -4.4487 -0.1613
6.7400 -4.4620 -0.1618
6.7600 -4.4754 -0.1620
6.7800 -4.4887 -0.1641
6.8000 -4.5020 -0.1619
6.8200 -4.5153 -0.1613
6.8400 -4.5286 -0.1605
6.8600 -4.5420 -0.1584
6.8800 -4.5553 -0.1597
6.9000 -4.5686 -0.1612
6.9200 -4.5820 -0.1586
6.9400 -4.5953 -0.1573
6.9600 -4.6087 -0.1588
6.9800 -4.6220 -0.1574
7.0000 -4.6353 -0.1582
7.0200 -4.6487 -0.1567
7.0400 -4.6621 -0.1568
7.0600 -4.6754 -0.1549
7.0800 -4.6887 -0.1565
7.1000 -4.7020 -0.1566
7.1200 -4.7154 -0.1555
7.1400 -4.7287 -0.1543
7.1600 -4.7420 -0.1553
7.1800 -4.7554 -0.1518
7.2000 -4.7687 -0.1548
7.2200 -4.7820 -0.1517
7.2400 -4.7953 -0.1523
7.2600 -4.8086 -0.1516
7.2800 -4.8220 -0.1542
7.3000 -4.8353 -0.1498
7.3200 -4.8487 -0.1506
7.3400 -4.8620 -0.1489
7.3600 -4.8753 -0.1505
7.3800 -4.8887 -0.1510
7.4000 -4.9021 -0.1514
7.4200 -4.9154 -0.1485
7.4400 -4.9287 -0.1505
7.4600 -4.9420 -0.1509
7.4800 -4.9554 -0.1506
7.5000 -4.9687 -0.1504
7.5200 -4.9820 -0.1480
7.5400 -4.9953 -0.1451
7.5600 -5.0087 -0.1456
7.5800 -5.0220 -0.1497
7.6000 -5.0353 -0.1463
7.6200 -5.0486 -0.1468
7.6400 -5.0620 -0.1449
7.6600 -5.0753 -0.1457
7.6800 -5.0887 -0.1458
7.7000 -5.1020 -0.1470
7.7200 -5.1154 -0.1429
7.7400 -5.1287 -0.1436
7.7600 -5.1421 -0.1412
7.7800 -5.1554 -0.1425
7.8000 -5.1687 -0.1413
7.8200 -5.1820 -0.1425
7.8400 -5.1954 -0.1412
7.8600 -5.2087 -0.1417
7.8800 -5.2220 -0.1404
7.9000 -5.2353 -0.1386
7.9200 -5.2487 -0.1403
7.9400 -5.2620 -0.1397
7.9600 -5.2753 -0.1398
7.9800 -5.2886 -0.1381
8.0000 -5.3020 -0.1370
8.0200 -5.3153 -0.1367
8.0400 -5.3287 -0.1380
8.0600 -5.3420 -0.1381
8.0800 -5.3554 -0.1349
8.1000 -5.3687 -0.1358
8.1200 -5.3821 -0.1339
8.1400 -5.3954 -0.1335
8.1600 -5.4087 -0.1322
8.1800 -5.4220 -0.1327
8.2000 -5.4354 -0.1307
8.2200 -5.4487 -0.1325
8.2400 -5.4621 -0.1322
8.2600 -5.4754 -0.1305
8.2800 -5.4887 -0.1324
8.3000 -5.5020 -0.1315
8.3200 -5.5153 -0.1308
8.3400 -5.5286 -0.1303
8.3600 -5.5419 -0.1319
8.3800 -5.5553 -0.1294
8.4000 -5.5687 -0.1291
8.4200 -5.5820 -0.1289
8.4400 -5.5953 -0.1278
8.4600 -5.6087 -0.1284
8.4800 -5.6221 -0.1293
8.5000 -5.6354 -0.1287
8.5200 -5.6487 -0.1288
8.5400 -5.6620 -0.1269
8.5600 -5.6754 -0.1257
8.5800 -5.6887 -0.1258
8.6000 -5.7020 -0.1276
8.6200 -5.7153 -0.1278
8.6400 -5.7287 -0.1254
8.6600 -5.7420 -0.1257
8.6800 -5.7553 -0.1260
8.7000 -5.7686 -0.1257
8.7200 -5.7819 -0.1245
8.7400 -5.7953 -0.1242
8.7600 -5.8087 -0.1236
8.7800 -5.8220 -0.1245
8.8000 -5.8353 -0.1208
8.8200 -5.8487 -0.1249
8.8400 -5.8621 -0.1221
8.8600 -5.8754 -0.1220
8.8800 -5.8887 -0.1224
8.9000 -5.9021 -0.1237
8.9200 -5.9154 -0.1224
8.9400 -5.9288 -0.1212
8.9600 -5.9420 -0.1175
8.9800 -5.9553 -0.1184
9.0000 -5.9687 -0.1186
9.0200 -5.9820 -0.1213
9.0400 -5.9953 -0.1161
9.0600 -6.0086 -0.1151
9.0800 -6.0220 -0.1170
9.1000 -6.0353 -0.1137
9.1200 -6.0487 -0.1144
9.1400 -6.0620 -0.1156
9.1600 -6.0753 -0.1162
9.1800 -6.0887 -0.1133
9.2000 -6.1021 -0.1155
9.2200 -6.1154 -0.1130
9.2400 -6.1287 -0.1131
9.2600 -6.1420 -0.1124
9.2800 -6.1553 -0.1111
9.3000 -6.1687 -0.1112
9.3200 -6.1820 -0.1126
9.3400 -6.1953 -0.1115
9.3600 -6.2087 -0.1132
9.3800 -6.2220 -0.1115
9.4000 -6.2353 -0.1090
9.4200 -6.2486 -0.1097
9.4400 -6.2620 -0.1096
9.4600 -6.2753 -0.1064
9.4800 -6.2887 -0.1090
9.5000 -6.3020 -0.1095
9.5200 -6.3153 -0.1103
9.5400 -6.3287 -0.1068
9.5600 -6.3421 -0.1091
9.5800 -6.3554 -0.1060
9.6000 -6.3687 -0.1079
9.6200 -6.3821 -0.1035
9.6400 -6.3954 -0.1050
9.6600 -6.4088 -0.1046
9.6800 -6.4221 -0.1080
9.7000 -6.4354 -0.1036
9.7200 -6.4487 -0.1057
9.7400 -6.4620 -0.1050
9.7600 -6.4753 -0.1049
9.7800 -6.4886 -0.1026
9.8000 -6.5019 -0.1030
9.8200 -6.5153 -0.1055
9.8400 -6.5287 -0.1027
9.8600 -6.5420 -0.1049
9.8800 -6.5553 -0.1026
9.9000 -6.5687 -0.1016
9.9200 -6.5821 -0.1027
9.9400 -6.5954 -0.1014
9.9600 -6.6087 -0.1023
9.9800 -6.6220 -0.1025
10.0000 -6.6354 -0.0979
10.0200 -6.6487 -0.0976
10.0400 -6.6620 -0.1006
10.0600 -6.6753 -0.0992
10.0800 -6.6887 -0.0991
10.1000 -6.7021 -0.0955
10.1200 -6.7154 -0.0958
10.1400 -6.7286 -0.0963
10.1600 -6.7420 -0.0967
10.1800 -6.7553 -0.0954
10.2000 -6.7687 -0.0940
10.2200 -6.7820 -0.0950
10.2400 -6.7953 -0.0944
10.2600 -6.8087 -0.0943
10.2800 -6.8220 -0.0953
10.3000 -6.8354 -0.0950
10.3200 -6.8487 -0.0925
10.3400 -6.8620 -0.0925
10.3600 -6.8754 -0.0898
10.3800 -6.8887 -0.0894
10.4000 -6.9021 -0.0916
10.4200 -6.9154 -0.0913
10.4400 -6.9287 -0.0925
10.4600 -6.9421 -0.0901
10.4800 -6.9554 -0.0918
10.5000 -6.9686 -0.0909
10.5200 -6.9820 -0.0900
10.5400 -6.9953 -0.0897
10.5600 -7.0087 -0.0888
10.5800 -7.0220 -0.0874
10.6000 -7.0353 -0.0888
10.6200 -7.0487 -0.0861
10.6400 -7.0621 -0.0872
10.6600 -7.0754 -0.0856
10.6800 -7.0887 -0.0860
10.7000 -7.1020 -0.0837
10.7200 -7.1154 -0.0829
10.7400 -7.1287 -0.0839
10.7600 -7.1420 -0.0838
10.7800 -7.1553 -0.0853
10.8000 -7.1687 -0.0848
10.8200 -7.1820 -0.0848
10.8400 -7.1953 -0.0809
10.8600 -7.2086 -0.0790
10.8800 -7.2220 -0.0797
10.9000 -7.2353 -0.0821
10.9200 -7.2487 -0.0817
10.9400 -7.2620 -0.0813
10.9600 -7.2753 -0.0798
10.9800 -7.2887 -0.0803
11.0000 -7.3021 -0.0763
11.0200 -7.3154 -0.0794
11.0400 -7.3287 -0.0774
11.0600 -7.3420 -0.0783
11.0800 -7.3554 -0.0774
11.1000 -7.3687 -0.0781
11.1200 -7.3820 -0.0744
11.1400 -7.3953 -0.0769
11.1600 -7.4086 -0.0737
11.1800 -7.4220 -0.0779
11.2000 -7.4353 -0.0731
11.2200 -7.4486 -0.0757
11.2400 -7.4620 -0.0748
11.2600 -7.4753 -0.0749
11.2800 -7.4887 -0.0765
11.3000 -7.5020 -0.0760
11.3200 -7.5153 -0.0731
11.3400 -7.5287 -0.0723
11.3600 -7.5421 -0.0734
11.3800 -7.5554 -0.0728
11.4000 -7.5687 -0.0751
11.4200 -7.5820 -0.0719
11.4400 -7.5954 -0.0699
11.4600 -7.6087 -0.0710
11.4800 -7.6221 -0.0709
11.5000 -7.6354 -0.0737
11.5200 -7.6487 -0.0724
11.5400 -7.6621 -0.0728
11.5600 -7.6754 -0.0711
11.5800 -7.6887 -0.0722
11.6000 -7.7020 -0.0711
11.6200 -7.7153 -0.0708
11.6400 -7.7286 -0.0708
11.6600 -7.7420 -0.0697
11.6800 -7.7553 -0.0705
11.7000 -7.7687 -0.0669
11.7200 -7.7820 -0.0704
11.7400 -7.7954 -0.0664
11.7600 -7.8087 -0.0702
11.7800 -7.8220 -0.0679
11.8000 -7.8354 -0.0678
11.8200 -7.8488 -0.0651
11.8400 -7.8621 -0.0670
11.8600 -7.8754 -0.0655
11.8800 -7.8887 -0.0645
11.9000 -7.9020 -0.0629
11.9200 -7.9153 -0.0633
11.9400 -7.9286 -0.0621
11.9600 -7.9420 -0.0624
11.9800 -7.9553 -0.0606
12.0000 -7.9687 -0.0610
12.0200 -7.9820 -0.0610
12.0400 -7.9953 -0.0607
12.0600 -8.0087 -0.0621
12.0800 -8.0220 -0.0606
12.1000 -8.0354 -0.0610
12.1200 -8.0487 -0.0604
12.1400 -8.0620 -0.0623
12.1600 -8.0754 -0.0611
12.1800 -8.0887 -0.0604
12.2000 -8.1021 -0.0584
12.2200 -8.1154 -0.0597
12.2400 -8.1287 -0.0604
12.2600 -8.1420 -0.0576
12.2800 -8.1554 -0.0585
12.3000 -8.1687 -0.0578
12.3200 -8.1820 -0.0556
12.3400 -8.1953 -0.0587
12.3600 -8.2087 -0.0580
12.3800 -8.2220 -0.0569
12.4000 -8.2353 -0.0559
12.4200 -8.2487 -0.0554
12.4400 -8.2620 -0.0533
12.4600 -8.2754 -0.0542
12.4800 -8.2887 -0.0530
12.5000 -8.3020 -0.0535
12.5200 -8.3154 -0.0519
12.5400 -8.3288 -0.0522
12.5600 -8.3421 -0.0521
12.5800 -8.3554 -0.0528
12.6000 -8.3687 -0.0528
12.6200 -8.3820 -0.0492
12.6400 -8.3954 -0.0493
12.6600 -8.4086 -0.0481
12.6800 -8.4219 -0.0480
12.7000 -8.4353 -0.0498
12.7200 -8.4486 -0.0510
12.7400 -8.4620 -0.0495
12.7600 -8.4753 -0.0509
12.7800 -8.4886 -0.0481
12.8000 -8.5020 -0.0473
12.8200 -8.5154 -0.0491
12.8400 -8.5287 -0.0497
12.8600 -8.5420 -0.0463
12.8800 -8.5553 -0.0479
12.9000 -8.5687 -0.0465
12.9200 -8.5821 -0.0474
12.9400 -8.5954 -0.0476
12.9600 -8.6087 -0.0480
12.9800 -8.6220 -0.0451
13.0000 -8.6354 -0.0470
13.0200 -8.6487 -0.0431
13.0400 -8.6620 -0.0444
13.0600 -8.6753 -0.0430
13.0800 -8.6887 -0.0445
13.1000 -8.7020 -0.0418
13.1200 -8.7153 -0.0424
13.1400 -8.7286 -0.0413
13.1600 -8.7420 -0.0407
13.1800 -8.7554 -0.0434
13.2000 -8.7687 -0.0423
13.2200 -8.7820 -0.0386
13.2400 -8.7954 -0.0410
13.2600 -8.8087 -0.0408
13.2800 -8.8221 -0.0400
13.3000 -8.8354 -0.0418
13.3200 -8.8487 -0.0375
13.3400 -8.8621 -0.0372
13.3600 -8.8754 -0.0367
13.3800 -8.8887 -0.0384
13.4000 -8.9020 -0.0356
13.4200 -8.9153 -0.0364
13.4400 -8.9287 -0.0342
13.4600 -8.9420 -0.0351
13.4800 -8.9553 -0.0340
13.5000 -8.9686 -0.0373
13.5200 -8.9820 -0.0355
13.5400 -8.9954 -0.0360
13.5600 -9.0087 -0.0331
13.5800 -9.0220 -0.0326
13.6000 -9.0353 -0.0333
13.6200 -9.0487 -0.0350
13.6400 -9.0621 -0.0346
13.6600 -9.0754 -0.0349
13.6800 -9.0887 -0.0336
13.7000 -9.1021 -0.0316
13.7200 -9.1154 -0.0326
13.7400 -9.1287 -0.0319
13.7600 -9.1420 -0.0316
13.7800 -9.1553 -0.0324
13.8000 -9.1686 -0.0317
13.8200 -9.1820 -0.0298
13.8400 -9.1953 -0.0310
13.8600 -9.2086 -0.0300
13.8800 -9.2220 -0.0311
13.9000 -9.2354 -0.0290
13.9200 -9.2487 -0.0293
13.9400 -9.2621 -0.0281
13.9600 -9.2754 -0.0277
13.9800 -9.2887 -0.0272
14.0000 -9.3021 -0.0258
14.0200 -9.3154 -0.0261
14.0400 -9.3287 -0.0254
14.0600 -9.3420 -0.0245
14.0800 -9.3553 -0.0239
14.1000 -9.3686 -0.0245
14.1200 -9.3819 -0.0241
14.1400 -9.3953 -0.0214
14.1600 -9.4086 -0.0218
14.1800 -9.4220 -0.0208
14.2000 -9.4353 -0.0214
14.2200 -9.4487 -0.0216
14.2400 -9.4620 -0.0205
14.2600 -9.4754 -0.0210
14.2800 -9.4887 -0.0199
14.3000 -9.5020 -0.0197
14.3200 -9.5153 -0.0216
14.3400 -9.5287 -0.0188
14.3600 -9.5421 -0.0175
14.3800 -9.5554 -0.0188
14.4000 -9.5687 -0.0162
14.4200 -9.5820 -0.0178
14.4400 -9.5954 -0.0173
14.4600 -9.6087 -0.0170
14.4800 -9.6220 -0.0134
14.5000 -9.6353 -0.0153
14.5200 -9.6487 -0.0143
14.5400 -9.6620 -0.0153
14.5600 -9.6753 -0.0134
14.5800 -9.6886 -0.0142
14.6000 -9.7020 -0.0142
14.6200 -9.7154 -0.0147
14.6400 -9.7287 -0.0116
14.6600 -9.7420 -0.0118
14.6800 -9.7554 -0.0117
14.7000 -9.7687 -0.0142
14.7200 -9.7821 -0.0130
14.7400 -9.7954 -0.0107
14.7600 -9.8087 -0.0110
14.7800 -9.8220 -0.0087
14.8000 -9.8354 -0.0110
14.8200 -9.8487 -0.0107
14.8400 -9.8619 -0.0098
14.8600 -9.8753 -0.0089
14.8800 -9.8886 -0.0098
14.9000 -9.9020 -0.0081
14.9200 -9.9154 -0.0085
14.9400 -9.9287 -0.0080
14.9600 -9.9420 -0.0078
14.9800 -9.9554 -0.0061
15.0000 -9.9687 -0.0073
15.0200 -9.9820 -0.0068
15.0400 -9.9954 -0.0077
15.0600 -10.0087 -0.0076
15.0800 -10.0221 -0.0050
15.1000 -10.0354 -0.0032
15.1200 -10.0487 -0.0062
15.1400 -10.0620 -0.0040
15.1600 -10.0753 -0.0044
15.1800 -10.0886 -0.0030
15.2000 -10.1019 -0.0052
15.2200 -10.1153 -0.0030
15.2400 -10.1287 -0.0048
15.2600 -10.1420 -0.0024
15.2800 -10.1554 -0.0030
15.3000 -10.1687 -0.0029
15.3200 -10.1820 -0.0012
15.3400 -10.1954 0.0009
15.3600 -10.2087 -0.0014
15.3800 -10.2220 0.0005
15.4000 -10.2354 0.0007
15.4200 -10.2487 -0.0005
15.4400 -10.2621 0.0023
15.4600 -10.2754 -0.0009
15.4800 -10.2887 -0.0001
15.5000 -10.3020 -0.0005
15.5200 -10.3154 0.0037
15.5400 -10.3287 0.0026
15.5600 -10.3420 0.0044
15.5800 -10.3553 0.0034
15.6000 -10.3686 0.0057
15.6200 -10.3820 0.0050
15.6400 -10.3953 0.0063
15.6600 -10.4086 0.0051
15.6800 -10.4220 0.0072
15.7000 -10.4354 0.0068
15.7200 -10.4488 0.0064
15.7400 -10.4621 0.0061
15.7600 -10.4754 0.0056
15.7800 -10.4887 0.0060
15.8000 -10.5021 0.0079
15.8200 -10.5154 0.0080
15.8400 -10.5287 0.0074
15.8600 -10.5420 0.0090
15.8800 -10.5554 0.0106
15.9000 -10.5687 0.0080
15.9200 -10.5820 0.0089
15.9400 -10.5953 0.0072
15.9600 -10.6086 0.0092
15.9800 -10.6220 0.0097
16.0000 -10.6353 0.0110
16.0200 -10.6486 0.0097
16.0400 -10.6620 0.0118
16.0600 -10.6754 0.0125
16.0800 -10.6888 0.0114
16.1000 -10.7021 0.0135
16.1200 -10.7154 0.0151
16.1400 -10.7287 0.0145
16.1600 -10.7421 0.0142
16.1800 -10.7554 0.0169
16.2000 -10.7687 0.0143
16.2200 -10.7820 0.0173
16.2400 -10.7953 0.0151
16.2600 -10.8087 0.0169
16.2800 -10.8219 0.0163
16.3000 -10.8353 0.0192
16.3200 -10.8486 0.0181
16.3400 -10.8620 0.0195
16.3600 -10.8754 0.0216
16.3800 -10.8887 0.0184
16.4000 -10.9020 0.0191
16.4200 -10.9154 0.0197
16.4400 -10.9287 0.0195
16.4600 -10.9420 0.0219
16.4800 -10.9553 0.0219
16.5000 -10.9686 0.0187
16.5200 -10.9820 0.0214
16.5400 -10.9954 0.0209
16.5600 -11.0087 0.0205
16.5800 -11.0220 0.0235
16.6000 -11.0354 0.0246
16.6200 -11.0487 0.0220
16.6400 -11.0620 0.0251
16.6600 -11.0753 0.0263
16.6800 -11.0887 0.0232
16.7000 -11.1020 0.0250
16.7200 -11.1153 0.0276
16.7400 -11.1287 0.0244
16.7600 -11.1420 0.0262
16.7800 -11.1554 0.0273
16.8000 -11.1688 0.0263
16.8200 -11.1821 0.0264
16.8400 -11.1954 0.0277
16.8600 -11.2087 0.0262
16.8800 -11.2221 0.0304
16.9000 -11.2354 0.0312
16.9200 -11.2487 0.0304
16.9400 -11.2620 0.0298
16.9600 -11.2754 0.0293
16.9800 -11.2887 0.0276
17.0000 -11.3020 0.0283
17.0200 -11.3153 0.0298
17.0400 -11.3286 0.0286
17.0600 -11.3420 0.0313
17.0800 -11.3553 0.0301
17.1000 -11.3687 0.0317
17.1200 -11.3820 0.0295
17.1400 -11.3954 0.0326
17.1600 -11.4087 0.0314
17.1800 -11.4220 0.0323
17.2000 -11.4354 0.0314
17.2200 -11.4487 0.0340
17.2400 -11.4621 0.0337
17.2600 -11.4754 0.0366
17.2800 -11.4887 0.0321
17.3000 -11.5020 0.0340
17.3200 -11.5154 0.0344
17.3400 -11.5287 0.0347
17.3600 -11.5420 0.0352
17.3800 -11.5553 0.0348
17.4000 -11.5686 0.0334
17.4200 -11.5820 0.0364
17.4400 -11.5953 0.0385
17.4600 -11.6087 0.0372
17.4800 -11.6220 0.0381
17.5000 -11.6353 0.0412
17.5200 -11.6487 0.0377
17.5400 -11.6620 0.0388
17.5600 -11.6753 0.0402
17.5800 -11.6887 0.0397
17.6000 -11.7020 0.0404
17.6200 -11.7154 0.0417
17.6400 -11.7287 0.0414
17.6600 -11.7420 0.0428
17.6800 -11.7554 0.0454
17.7000 -11.7687 0.0415
17.7200 -11.7820 0.0412
17.7400 -11.7953 0.0435
17.7600 -11.8086 0.0444
17.7800 -11.8220 0.0428
17.8000 -11.8354 0.0466
17.8200 -11.8487 0.0430
17.8400 -11.8620 0.0468
17.8600 -11.8754 0.0482
17.8800 -11.8887 0.0478
17.9000 -11.9021 0.0461
17.9200 -11.9154 0.0490
17.9400 -11.9287 0.0476
17.9600 -11.9420 0.0489
17.9800 -11.9554 0.0509
18.0000 -11.9687 0.0490
18.0200 -11.9820 0.0521
18.0400 -11.9954 0.0535
18.0600 -12.0087 0.0516
18.0800 -12.0220 0.0525
18.1000 -12.0353 0.0549
18.1200 -12.0486 0.0525
18.1400 -12.0620 0.0539
18.1600 -12.0754 0.0556
18.1800 -12.0887 0.0543
18.2000 -12.1020 0.0535
18.2200 -12.1154 0.0568
18.2400 -12.1287 0.0538
18.2600 -12.1421 0.0544
18.2800 -12.1554 0.0552
18.3000 -12.1687 0.0544
18.3200 -12.1820 0.0552
18.3400 -12.1954 0.0564
18.3600 -12.2087 0.0542
18.3800 -12.2220 0.0553
18.4000 -12.2353 0.0581
18.4200 -12.2487 0.0587
18.4400 -12.2620 0.0573
18.4600 -12.2753 0.0598
18.4800 -12.2886 0.0577
18.5000 -12.3020 0.0597
18.5200 -12.3154 0.0604
18.5400 -12.3287 0.0570
18.5600 -12.3420 0.0585
18.5800 -12.3554 0.0600
18.6000 -12.3687 0.0602
18.6200 -12.3821 0.0603
18.6400 -12.3954 0.0622
18.6600 -12.4087 0.0601
18.6800 -12.4220 0.0606
18.7000 -12.4354 0.0620
18.7200 -12.4487 0.0629
18.7400 -12.4620 0.0603
18.7600 -12.4754 0.0641
18.7800 -12.4887 0.0639
18.8000 -12.5020 0.0640
18.8200 -12.5153 0.0654
18.8400 -12.5286 0.0654
18.8600 -12.5420 0.0638
18.8800 -12.5553 0.0661
18.9000 -12.5686 0.0648
18.9200 -12.5819 0.0657
18.9400 -12.5953 0.0670
18.9600 -12.6087 0.0668
18.9800 -12.6221 0.0660
19.0000 -12.6354 0.0689
19.0200 -12.6487 0.0675
19.0400 -12.6621 0.0677
19.0600 -12.6754 0.0705
19.0800 -12.6887 0.0688
19.1000 -12.7020 0.0694
19.1200 -12.7153 0.0702
19.1400 -12.7287 0.0697
19.1600 -12.7420 0.0706
19.1800 -12.7553 0.0704
19.2000 -12.7686 0.0716
19.2200 -12.7820 0.0706
19.2400 -12.7954 0.0736
19.2600 -12.8087 0.0719
19.2800 -12.8220 0.0723
19.3000 -12.8354 0.0750
19.3200 -12.8487 0.0719
19.3400 -12.8621 0.0714
19.3600 -12.8754 0.0745
19.3800 -12.8887 0.0727
19.4000 -12.9020 0.0730
19.4200 -12.9154 0.0780
19.4400 -12.9287 0.0745
19.4600 -12.9420 0.0788
19.4800 -12.9553 0.0786
19.5000 -12.9687 0.0792
19.5200 -12.9820 0.0761
19.5400 -12.9953 0.0810
19.5600 -13.0086 0.0778
19.5800 -13.0220 0.0799
19.6000 -13.0353 0.0824
19.6200 -13.0487 0.0822
19.6400 -13.0620 0.0814
19.6600 -13.0753 0.0853
19.6800 -13.0887 0.0838
19.7000 -13.1021 0.0827
19.7200 -13.1154 0.0842
19.7400 -13.1287 0.0844
19.7600 -13.1421 0.0847
19.7800 -13.1554 0.0876
19.8000 -13.1687 0.0848
19.8200 -13.1820 0.0863
19.8400 -13.1954 0.0888
19.8600 -13.2087 0.0882
19.8800 -13.2220 0.0876
19.9000 -13.2353 0.0911
19.9200 -13.2486 0.0888
19.9400 -13.2619 0.0917
19.9600 -13.2753 0.0935
19.9800 -13.2886 0.0928
20.0000 -13.3019 0.0908
20.0200 -13.3153 0.0931
20.0400 -13.3287 0.0928
20.0600 -13.3421 0.0931
20.0800 -13.3554 0.0950
20.1000 -13.3687 0.0925
20.1200 -13.3821 0.0949
20.1400 -13.3954 0.0955
20.1600 -13.4087 0.0971
20.1800 -13.4220 0.0951
20.2000 -13.4354 0.0989
20.2200 -13.4487 0.0950
20.2400 -13.4620 0.0982
20.2600 -13.4753 0.0970
20.2800 -13.4886 0.0989
20.3000 -13.5020 0.0960
20.3200 -13.5154 0.0966
20.3400 -13.5287 0.0966
20.3600 -13.5420 0.0965
20.3800 -13.5553 0.1003
20.4000 -13.5687 0.0997
20.4200 -13.5821 0.0989
20.4400 -13.5954 0.1004
20.4600 -13.6087 0.0997
20.4800 -13.6220 0.0980
20.5000 -13.6354 0.1006
20.5200 -13.6487 0.0988
20.5400 -13.6620 0.1004
20.5600 -13.6754 0.1020
20.5800 -13.6887 0.1036
20.6000 -13.7020 0.1012
20.6200 -13.7153 0.1031
20.6400 -13.7286 0.1014
20.6600 -13.7420 0.1007
20.6800 -13.7553 0.1039
20.7000 -13.7687 0.1037
20.7200 -13.7820 0.1029
20.7400 -13.7953 0.1054
20.7600 -13.8087 0.1061
20.7800 -13.8221 0.1040
20.8000 -13.8354 0.1072
20.8200 -13.8487 0.1032
20.8400 -13.8620 0.1054
20.8600 -13.8754 0.1068
20.8800 -13.8887 0.1086
20.9000 -13.9021 0.1058
20.9200 -13.9154 0.1106
20.9400 -13.9287 0.1093
20.9600 -13.9421 0.1085
20.9800 -13.9553 0.1091
21.0000 -13.9686 0.1088
21.0200 -13.9820 0.1074
21.0400 -13.9953 0.1120
21.0600 -14.0087 0.1088
21.0800 -14.0220 0.1088
21.1000 -14.0353 0.1104
21.1200 -14.0487 0.1100
21.1400 -14.0621 0.1084
21.1600 -14.0754 0.1113
21.1800 -14.0887 0.1097
21.2000 -14.1021 0.1102
21.2200 -14.1154 0.1122
21.2400 -14.1288 0.1140
21.2600 -14.1420 0.1121
21.2800 -14.1553 0.1148
21.3000 -14.1687 0.1135
21.3200 -14.1820 0.1137
21.3400 -14.1953 0.1153
21.3600 -14.2086 0.1178
21.3800 -14.2219 0.1155
21.4000 -14.2353 0.1178
21.4200 -14.2487 0.1181
21.4400 -14.2620 0.1171
21.4600 -14.2753 0.1203
21.4800 -14.2887 0.1217
21.5000 -14.3021 0.1203
21.5200 -14.3154 0.1220
21.5400 -14.3287 0.1224
21.5600 -14.3420 0.1213
21.5800 -14.3554 0.1240
21.6000 -14.3687 0.1244
21.6200 -14.3820 0.1242
21.6400 -14.3954 0.1237
21.6600 -14.4087 0.1270
21.6800 -14.4221 0.1236
21.7000 -14.4354 0.1280
21.7200 -14.4487 0.1270
21.7400 -14.4620 0.1279
21.7600 -14.4753 0.1305
21.7800 -14.4887 0.1305
21.8000 -14.5020 0.1263
21.8200 -14.5153 0.1313
21.8400 -14.5287 0.1284
21.8600 -14.5421 0.1316
21.8800 -14.5554 0.1315
21.9000 -14.5687 0.1351
21.9200 -14.5820 0.1306
21.9400 -14.5954 0.1347
21.9600 -14.6087 0.1316
21.9800 -14.6220 0.1332
22.0000 -14.6353 0.1335
22.0200 -14.6487 0.1360
22.0400 -14.6620 0.1328
22.0600 -14.6753 0.1372
22.0800 -14.6886 0.1364
22.1000 -14.7020 0.1359
22.1200 -14.7153 0.1386
22.1400 -14.7287 0.1382
22.1600 -14.7420 0.1378
22.1800 -14.7553 0.1384
22.2000 -14.7687 0.1387
22.2200 -14.7821 0.1356
22.2400 -14.7954 0.1386
22.2600 -14.8087 0.1385
22.2800 -14.8220 0.1366
22.3000 -14.8354 0.1395
22.3200 -14.8487 0.1413
22.3400 -14.8620 0.1387
22.3600 -14.8753 0.1424
22.3800 -14.8887 0.1437
22.4000 -14.9020 0.1419
22.4200 -14.9153 0.1431
22.4400 -14.9286 0.1427
22.4600 -14.9420 0.1396
22.4800 -14.9553 0.1412
22.5000 -14.9687 0.1437
22.5200 -14.9820 0.1433
22.5400 -14.9954 0.1470
22.5600 -15.0087 0.1451
22.5800 -15.0221 0.1406
22.6000 -15.0354 0.1438
22.6200 -15.0487 0.1428
22.6400 -15.0620 0.1440
22.6600 -15.0754 0.1430
22.6800 -15.0888 0.1457
22.7000 -15.1021 0.1423
22.7200 -15.1153 0.1445
22.7400 -15.1287 0.1438
22.7600 -15.1420 0.1444
22.7800 -15.1553 0.1453
22.8000 -15.1686 0.1468
22.8200 -15.1819 0.1445
22.8400 -15.1953 0.1471
22.8600 -15.2087 0.1485
22.8800 -15.2220 0.1449
22.9000 -15.2353 0.1457
22.9200 -15.2487 0.1479
22.9400 -15.2621 0.1501
22.9600 -15.2754 0.1498
22.9800 -15.2887 0.1524
23.0000 -15.3020 0.1519
23.0200 -15.3154 0.1530
23.0400 -15.3288 0.1553
23.0600 -15.3421 0.1522
23.0800 -15.3554 0.1529
23.1000 -15.3687 0.1541
23.1200 -15.3820 0.1525
23.1400 -15.3953 0.1546
23.1600 -15.4086 0.1576
23.1800 -15.4219 0.1576
23.2000 -15.4353 0.1588
23.2200 -15.4486 0.1586
23.2400 -15.4620 0.1587
23.2600 -15.4753 0.1611
23.2800 -15.4887 0.1608
23.3000 -15.5021 0.1608
23.3200 -15.5154 0.1623
23.3400 -15.5287 0.1635
23.3600 -15.5421 0.1627
23.3800 -15.5554 0.1644
23.4000 -15.5688 0.1667
23.4200 -15.5821 0.1621
23.4400 -15.5953 0.1643
23.4600 -15.6087 0.1654
23.4800 -15.6220 0.1673
23.5000 -15.6353 0.1661
23.5200 -15.6486 0.1678
23.5400 -15.6619 0.1644
23.5600 -15.6753 0.1681
23.5800 -15.6887 0.1690
23.6000 -15.7020 0.1672
23.6200 -15.7153 0.1657
23.6400 -15.7287 0.1689
23.6600 -15.7421 0.1660
23.6800 -15.7554 0.1700
23.7000 -15.7687 0.1692
23.7200 -15.7820 0.1700
23.7400 -15.7953 0.1702
23.7600 -15.8087 0.1729
23.7800 -15.8221 0.1713
23.8000 -15.8354 0.1735
23.8200 -15.8487 0.1746
23.8400 -15.8621 0.1723
23.8600 -15.8754 0.1743
23.8800 -15.8887 0.1750
23.9000 -15.9020 0.1754
23.9200 -15.9153 0.1753
23.9400 -15.9287 0.1764
23.9600 -15.9420 0.1744
23.9800 -15.9553 0.1763
24.0000 -15.9687 0.1763
24.0200 -15.9821 0.1786
24.0400 -15.9954 0.1783
24.0600 -16.0087 0.1795
24.0800 -16.0221 0.1781
24.1000 -16.0354 0.1811
24.1200 -16.0488 0.1811
24.1400 -16.0621 0.1811
24.1600 -16.0754 0.1800
24.1800 -16.0887 0.1836
24.2000 -16.1020 0.1830
24.2200 -16.1153 0.1854
24.2400 -16.1286 0.1853
24.2600 -16.1419 0.1869
24.2800 -16.1553 0.1849
24.3000 -16.1687 0.1875
24.3200 -16.1820 0.1853
24.3400 -16.1953 0.1861
24.3600 -16.2087 0.1877
24.3800 -16.2220 0.1874
24.4000 -16.2354 0.1850
24.4200 -16.2487 0.1885
24.4400 -16.2620 0.1857
24.4600 -16.2754 0.1870
24.4800 -16.2887 0.1883
24.5000 -16.3020 0.1888
24.5200 -16.3153 0.1885
24.5400 -16.3287 0.1897
24.5600 -16.3420 0.1899
24.5800 -16.3554 0.1882
24.6000 -16.3686 0.1935
24.6200 -16.3819 0.1908
24.6400 -16.3953 0.1926
24.6600 -16.4087 0.1948
24.6800 -16.4220 0.1960
24.7000 -16.4353 0.1933
24.7200 -16.4486 0.1966
24.7400 -16.4620 0.1953
24.7600 -16.4754 0.1987
24.7800 -16.4887 0.2001
24.8000 -16.5020 0.1996
24.8200 -16.5154 0.1992
24.8400 -16.5287 0.2008
24.8600 -16.5421 0.1998
24.8800 -16.5554 0.1995
24.9000 -16.5687 0.2006
24.9200 -16.5821 0.2001
24.9400 -16.5954 0.2024
24.9600 -16.6087 0.2062
24.9800 -16.6220 0.2042
25.0000 -16.6353 0.2040
25.0200 -16.6487 0.2047
25.0400 -16.6620 0.2046
25.0600 -16.6754 0.2039
25.0800 -16.6887 0.2053
25.1000 -16.7021 0.2050
25.1200 -16.7154 0.2069
25.1400 -16.7287 0.2084
25.1600 -16.7420 0.2082
25.1800 -16.7554 0.2068
25.2000 -16.7687 0.2102
25.2200 -16.7821 0.2101
25.2400 -16.7954 0.2103
25.2600 -16.8087 0.2129
25.2800 -16.8220 0.2122
25.3000 -16.8353 0.2137
25.3200 -16.8486 0.2112
25.3400 -16.8619 0.2123
25.3600 -16.8753 0.2117
25.3800 -16.8887 0.2140
25.4000 -16.9020 0.2147
25.4200 -16.9153 0.2154
25.4400 -16.9287 0.2149
25.4600 -16.9420 0.2151
25.4800 -16.9554 0.2157
25.5000 -16.9687 0.2162
25.5200 -16.9820 0.2157
25.5400 -16.9953 0.2149
25.5600 -17.0087 0.2173
25.5800 -17.0220 0.2169
25.6000 -17.0353 0.2185
25.6200 -17.0486 0.2191
25.6400 -17.0620 0.2181
25.6600 -17.0753 0.2179
25.6800 -17.0886 0.2206
25.7000 -17.1020 0.2218
25.7200 -17.1153 0.2244
25.7400 -17.1287 0.2247
25.7600 -17.1420 0.2236
25.7800 -17.1553 0.2224
25.8000 -17.1687 0.2255
25.8200 -17.1820 0.2237
25.8400 -17.1954 0.2264
25.8600 -17.2087 0.2257
25.8800 -17.2220 0.2269
25.9000 -17.2353 0.2266
25.9200 -17.2487 0.2295
25.9400 -17.2621 0.2280
25.9600 -17.2754 0.2281
25.9800 -17.2887 0.2271
26.0000 -17.3021 0.2283
26.0200 -17.3154 0.2289
26.0400 -17.3287 0.2323
26.0600 -17.3420 0.2305
26.0800 -17.3553 0.2300
26.1000 -17.3687 0.2312
26.1200 -17.3820 0.2323
26.1400 -17.3953 0.2333
26.1600 -17.4086 0.2342
26.1800 -17.4220 0.2341
26.2000 -17.4354 0.2344
26.2200 -17.4487 0.2361
26.2400 -17.4620 0.2362
26.2600 -17.4754 0.2364
26.2800 -17.4888 0.2376
26.3000 -17.5021 0.2402
26.3200 -17.5154 0.2378
26.3400 -17.5287 0.2431
26.3600 -17.5420 0.2398
26.3800 -17.5554 0.2417
26.4000 -17.5687 0.2414
26.4200 -17.5820 0.2442
26.4400 -17.5953 0.2421
26.4600 -17.6087 0.2449
26.4800 -17.6220 0.2426
26.5000 -17.6354 0.2423
26.5200 -17.6487 0.2424
26.5400 -17.6621 0.2455
26.5600 -17.6754 0.2457
26.5800 -17.6887 0.2464
26.6000 -17.7020 0.2448
26.6200 -17.7154 0.2446
26.6400 -17.7287 0.2471
26.6600 -17.7421 0.2468
26.6800 -17.7554 0.2479
26.7000 -17.7687 0.2490
26.7200 -17.7820 0.2476
26.7400 -17.7954 0.2476
26.7600 -17.8086 0.2512
26.7800 -17.8219 0.2519
26.8000 -17.8353 0.2509
26.8200 -17.8486 0.2522
26.8400 -17.8620 0.2525
26.8600 -17.8753 0.2528
26.8800 -17.8886 0.2536
26.9000 -17.9020 0.2543
26.9200 -17.9154 0.2543
26.9400 -17.9287 0.2530
26.9600 -17.9420 0.2547
26.9800 -17.9554 0.2534
27.0000 -17.9688 0.2562
27.0200 -17.9821 0.2570
27.0400 -17.9954 0.2562
27.0600 -18.0087 0.2574
27.0800 -18.0220 0.2599
27.1000 -18.0354 0.2581
27.1200 -18.0487 0.2610
27.1400 -18.0619 0.2593
27.1600 -18.0753 0.2603
27.1800 -18.0886 0.2608
27.2000 -18.1020 0.2632
27.2200 -18.1153 0.2638
27.2400 -18.1286 0.2640
27.2600 -18.1420 0.2649
27.2800 -18.1554 0.2637
27.3000 -18.1687 0.2652
27.3200 -18.1821 0.2653
27.3400 -18.1954 0.2658
27.3600 -18.2088 0.2670
27.3800 -18.2221 0.2688
27.4000 -18.2354 0.2674
27.4200 -18.2487 0.2701
27.4400 -18.2620 0.2678
27.4600 -18.2754 0.2689
27.4800 -18.2887 0.2708
27.5000 -18.3020 0.2716
27.5200 -18.3153 0.2713
27.5400 -18.3287 0.2740
27.5600 -18.3420 0.2737
27.5800 -18.3553 0.2747
27.6000 -18.3686 0.2744
27.6200 -18.3820 0.2794
27.6400 -18.3954 0.2772
27.6600 -18.4087 0.2785
27.6800 -18.4220 0.2781
27.7000 -18.4353 0.2761
27.7200 -18.4487 0.2775
27.7400 -18.4621 0.2794
27.7600 -18.4754 0.2778
27.7800 -18.4887 0.2799
27.8000 -18.5021 0.2815
27.8200 -18.5154 0.2812
27.8400 -18.5287 0.2812
27.8600 -18.5420 0.2804
27.8800 -18.5553 0.2796
27.9000 -18.5686 0.2809
27.9200 -18.5820 0.2836
27.9400 -18.5953 0.2812
27.9600 -18.6086 0.2844
27.9800 -18.6220 0.2837
28.0000 -18.6354 0.2851
28.0200 -18.6487 0.2841
28.0400 -18.6620 0.2871
28.0600 -18.6753 0.2828
28.0800 -18.6887 0.2854
28.1000 -18.7021 0.2878
28.1200 -18.7154 0.2871
28.1400 -18.7287 0.2882
28.1600 -18.7420 0.2884
28.1800 -18.7554 0.2881
28.2000 -18.7687 0.2927
28.2200 -18.7820 0.2933
28.2400 -18.7953 0.2936
28.2600 -18.8086 0.2947
28.2800 -18.8220 0.2961
28.3000 -18.8353 0.2944
28.3200 -18.8486 0.2960
28.3400 -18.8620 0.2971
28.3600 -18.8754 0.2971
28.3800 -18.8887 0.2977
28.4000 -18.9021 0.2993
28.4200 -18.9154 0.2990
28.4400 -18.9287 0.3005
28.4600 -18.9421 0.3000
28.4800 -18.9554 0.3014
28.5000 -18.9687 0.3028
28.5200 -18.9820 0.3025
28.5400 -18.9953 0.3026
28.5600 -19.0086 0.3030
28.5800 -19.0219 0.3041
28.6000 -19.0353 0.3035
28.6200 -19.0486 0.3068
28.6400 -19.0620 0.3065
28.6600 -19.0753 0.3060
28.6800 -19.0887 0.3058
28.7000 -19.1020 0.3087
28.7200 -19.1154 0.3054
28.7400 -19.1288 0.3098
28.7600 -19.1421 0.3076
28.7800 -19.1554 0.3100
28.8000 -19.1687 0.3101
28.8200 -19.1821 0.3129
28.8400 -19.1954 0.3135
28.8600 -19.2087 0.3146
28.8800 -19.2220 0.3143
28.9000 -19.2354 0.3153
28.9200 -19.2487 0.3143
28.9400 -19.2620 0.3146
28.9600 -19.2753 0.3162
28.9800 -19.2886 0.3166
29.0000 -19.3020 0.3185
29.0200 -19.3153 0.3194
29.0400 -19.3286 0.3210
29.0600 -19.3420 0.3219
29.0800 -19.3554 0.3215
29.1000 -19.3687 0.3221
29.1200 -19.3820 0.3220
29.1400 -19.3954 0.3227
29.1600 -19.4087 0.3239
29.1800 -19.4221 0.3257
29.2000 -19.4354 0.3244
29.2200 -19.4487 0.3251
29.2400 -19.4620 0.3274
29.2600 -19.4754 0.3271
29.2800 -19.4887 0.3304
29.3000 -19.5020 0.3312
29.3200 -19.5153 0.3316
29.3400 -19.5286 0.3304
29.3600 -19.5420 0.3310
29.3800 -19.5554 0.3315
29.4000 -19.5687 0.3320
29.4200 -19.5820 0.3326
29.4400 -19.5954 0.3330
29.4600 -19.6087 0.3343
29.4800 -19.6221 0.3348
29.5000 -19.6354 0.3344
29.5200 -19.6487 0.3347
29.5400 -19.6621 0.3349
29.5600 -19.6754 0.3337
29.5800 -19.6887 0.3361
29.6000 -19.7020 0.3389
29.6200 -19.7153 0.3395
29.6400 -19.7287 0.3220
29.6600 -19.7420 0.2889
29.6800 -19.7553 0.2535
29.7000 -19.7686 0.2161
29.7200 -19.7820 0.1830
29.7400 -19.7954 0.1494
29.7600 -19.8087 0.1169
29.7800 -19.8220 0.0838
29.8000 -19.8354 0.0413
29.8200 -19.8487 0.0030
29.8400 -19.8620 -0.0349
29.8600 -19.8754 -0.0683
29.8800 -19.8887 -0.1030
29.9000 -19.9021 -0.1327
29.9200 -19.9154 -0.1565
29.9400 -19.9287 -0.1714
29.9600 -19.9420 -0.1859
29.9800 -19.9553 -0.2013
30.0000 -19.9687 -0.2170
30.0200 -19.9819 -0.2288
30.0400 -19.9952 -0.2433
30.0600 -20.0086 -0.2544
30.0800 -20.0220 -0.2592
30.1000 -20.0353 -0.2665
30.1200 -20.0486 -0.2747
30.1400 -20.0620 -0.2834
30.1600 -20.0754 -0.2862
30.1800 -20.0888 -0.2884
30.2000 -20.1021 -0.2904
30.2200 -20.1154 -0.2915
30.2400 -20.1287 -0.2933
30.2600 -20.1421 -0.2954
30.2800 -20.1554 -0.2984
30.3000 -20.1687 -0.3052
30.3200 -20.1820 -0.3101
30.3400 -20.1954 -0.3191
30.3600 -20.2087 -0.3260
30.3800 -20.2220 -0.3395
30.4000 -20.2353 -0.3510
30.4200 -20.2486 -0.3646
30.4400 -20.2620 -0.3706
30.4600 -20.2753 -0.3684
30.4800 -20.2886 -0.3749
30.5000 -20.3020 -0.3995
30.5200 -20.3154 -0.4347
30.5400 -20.3288 -0.4733
30.5600 -20.3421 -0.4873
30.5800 -20.3554 -0.5133
30.6000 -20.3687 -0.5434
30.6200 -20.3821 -0.5710
30.6400 -20.3954 -0.5963
30.6600 -20.4087 -0.6210
30.6800 -20.4220 -0.6444
30.7000 -20.4353 -0.6623
30.7200 -20.4487 -0.6784
30.7400 -20.4620 -0.6929
30.7600 -20.4753 -0.7074
30.7800 -20.4886 -0.7193
30.8000 -20.5020 -0.7254
30.8200 -20.5154 -0.7256
30.8400 -20.5287 -0.7274
30.8600 -20.5420 -0.7258
30.8800 -20.5554 -0.7265
30.9000 -20.5687 -0.7261
30.9200 -20.5820 -0.7273
30.9400 -20.5953 -0.7278
30.9600 -20.6086 -0.7279
30.9800 -20.6220 -0.7266
31.0000 -20.6354 -0.7250
31.0200 -20.6487 -0.7252
31.0400 -20.6620 -0.7275
31.0600 -20.6754 -0.7277
31.0800 -20.6887 -0.7276
31.1000 -20.7020 -0.7267
31.1200 -20.7153 -0.7276
31.1400 -20.7286 -0.7263
31.1600 -20.7420 -0.7288
31.1800 -20.7553 -0.7271
31.2000 -20.7687 -0.7281
31.2200 -20.7820 -0.7285
31.2400 -20.7954 -0.7265
31.2600 -20.8087 -0.7262
31.2800 -20.8221 -0.7255
31.3000 -20.8354 -0.7256
31.3200 -20.8487 -0.7261
31.3400 -20.8621 -0.7253
31.3600 -20.8754 -0.7232
31.3800 -20.8887 -0.7248
31.4000 -20.9020 -0.7224
31.4200 -20.9153 -0.7230
31.4400 -20.9287 -0.7197
31.4600 -20.9420 -0.7197
31.4800 -20.9553 -0.7184
31.5000 -20.9686 -0.7166
31.5200 -20.9820 -0.7176
31.5400 -20.9954 -0.7168
31.5600 -21.0087 -0.7179
31.5800 -21.0220 -0.7169
31.6000 -21.0354 -0.7158
31.6200 -21.0487 -0.7141
31.6400 -21.0621 -0.7137
31.6600 -21.0754 -0.7131
31.6800 -21.0887 -0.7129
31.7000 -21.1021 -0.7113
31.7200 -21.1154 -0.7104
31.7400 -21.1287 -0.7105
31.7600 -21.1420 -0.7099
31.7800 -21.1554 -0.7087
31.8000 -21.1687 -0.7052
31.8200 -21.1820 -0.7057
31.8400 -21.1953 -0.7042
31.8600 -21.2086 -0.7054
31.8800 -21.2220 -0.7057
31.9000 -21.2354 -0.7033
31.9200 -21.2487 -0.7038
31.9400 -21.2620 -0.7001
31.9600 -21.2753 -0.7001
31.9800 -21.2887 -0.6981
32.0000 -21.3020 -0.6999
32.0200 -21.3153 -0.6970
32.0400 -21.3287 -0.6977
32.0600 -21.3420 -0.6975
32.0800 -21.3554 -0.6978
32.1000 -21.3687 -0.6965
32.1200 -21.3820 -0.7009
32.1400 -21.3954 -0.6974
32.1600 -21.4087 -0.6974
32.1800 -21.4220 -0.6957
32.2000 -21.4353 -0.6948
32.2200 -21.4486 -0.6959
32.2400 -21.4620 -0.6967
32.2600 -21.4754 -0.6946
32.2800 -21.4887 -0.6931
32.3000 -21.5020 -0.6941
32.3200 -21.5154 -0.6934
32.3400 -21.5287 -0.6925
32.3600 -21.5421 -0.6914
32.3800 -21.5553 -0.6898
32.4000 -21.5687 -0.6924
32.4200 -21.5820 -0.6932
32.4400 -21.5954 -0.6913
32.4600 -21.6087 -0.6906
32.4800 -21.6220 -0.6891
32.5000 -21.6353 -0.6882
32.5200 -21.6487 -0.6888
32.5400 -21.6620 -0.6906
32.5600 -21.6753 -0.6857
32.5800 -21.6886 -0.6865
32.6000 -21.7020 -0.6836
32.6200 -21.7154 -0.6838
32.6400 -21.7287 -0.6832
32.6600 -21.7420 -0.6845
32.6800 -21.7553 -0.6805
32.7000 -21.7687 -0.6811
32.7200 -21.7821 -0.6785
32.7400 -21.7954 -0.6795
32.7600 -21.8087 -0.6770
32.7800 -21.8221 -0.6784
32.8000 -21.8354 -0.6764
32.8200 -21.8487 -0.6768
32.8400 -21.8620 -0.6764
32.8600 -21.8753 -0.6747
32.8800 -21.8887 -0.6736
32.9000 -21.9020 -0.6731
32.9200 -21.9153 -0.6729
32.9400 -21.9286 -0.6720
32.9600 -21.9420 -0.6709
32.9800 -21.9554 -0.6695
33.0000 -21.9687 -0.6693
33.0200 -21.9820 -0.6679
33.0400 -21.9953 -0.6692
33.0600 -22.0087 -0.6682
33.0800 -22.0221 -0.6673
33.1000 -22.0354 -0.6663
33.1200 -22.0487 -0.6637
33.1400 -22.0620 -0.6671
33.1600 -22.0754 -0.6633
33.1800 -22.0887 -0.6666
33.2000 -22.1020 -0.6663
33.2200 -22.1154 -0.6645
33.2400 -22.1287 -0.6650
33.2600 -22.1420 -0.6659
33.2800 -22.1553 -0.6658
33.3000 -22.1686 -0.6653
33.3200 -22.1819 -0.6667
33.3400 -22.1953 -0.6652
33.3600 -22.2086 -0.6665
33.3800 -22.2219 -0.6658
33.4000 -22.2353 -0.6664
33.4200 -22.2487 -0.6635
33.4400 -22.2621 -0.6636
33.4600 -22.2754 -0.6618
33.4800 -22.2887 -0.6617
33.5000 -22.3021 -0.6612
33.5200 -22.3154 -0.6602
33.5400 -22.3287 -0.6583
33.5600 -22.3420 -0.6590
33.5800 -22.3553 -0.6581
33.6000 -22.3687 -0.6549
33.6200 -22.3820 -0.6568
33.6400 -22.3953 -0.6565
33.6600 -22.4086 -0.6564
33.6800 -22.4220 -0.6584
33.7000 -22.4354 -0.6562
33.7200 -22.4487 -0.6564
33.7400 -22.4620 -0.6570
33.7600 -22.4754 -0.6555
33.7800 -22.4887 -0.6541
33.8000 -22.5021 -0.6557
33.8200 -22.5154 -0.6550
33.8400 -22.5287 -0.6542
33.8600 -22.5420 -0.6544
33.8800 -22.5554 -0.6535
33.9000 -22.5687 -0.6519
33.9200 -22.5820 -0.6543
33.9400 -22.5953 -0.6551
33.9600 -22.6087 -0.6554
33.9800 -22.6220 -0.6577
34.0000 -22.6353 -0.6563
34.0200 -22.6486 -0.6546
34.0400 -22.6620 -0.6544
34.0600 -22.6753 -0.6536
34.0800 -22.6887 -0.6555
34.1000 -22.7020 -0.6544
34.1200 -22.7153 -0.6533
34.1400 -22.7287 -0.6500
34.1600 -22.7421 -0.6527
34.1800 -22.7554 -0.6489
34.2000 -22.7687 -0.6502
34.2200 -22.7821 -0.6485
34.2400 -22.7954 -0.6481
34.2600 -22.8087 -0.6472
34.2800 -22.8220 -0.6478
34.3000 -22.8354 -0.6447
34.3200 -22.8487 -0.6452
34.3400 -22.8620 -0.6436
34.3600 -22.8753 -0.6453
34.3800 -22.8886 -0.6422
34.4000 -22.9020 -0.6445
34.4200 -22.9153 -0.6404
34.4400 -22.9287 -0.6408
34.4600 -22.9420 -0.6385
34.4800 -22.9553 -0.6385
34.5000 -22.9687 -0.6354
34.5200 -22.9821 -0.6364
34.5400 -22.9954 -0.6358
34.5600 -23.0087 -0.6363
34.5800 -23.0221 -0.6384
34.6000 -23.0354 -0.6353
34.6200 -23.0488 -0.6347
34.6400 -23.0620 -0.6331
34.6600 -23.0753 -0.6337
34.6800 -23.0887 -0.6316
34.7000 -23.1020 -0.6330
34.7200 -23.1153 -0.6309
34.7400 -23.1286 -0.6315
34.7600 -23.1420 -0.6316
34.7800 -23.1553 -0.6311
34.8000 -23.1687 -0.6294
34.8200 -23.1820 -0.6307
34.8400 -23.1953 -0.6285
34.8600 -23.2087 -0.6272
34.8800 -23.2220 -0.6259
34.9000 -23.2354 -0.6257
34.9200 -23.2487 -0.6258
34.9400 -23.2620 -0.6260
34.9600 -23.2754 -0.6264
34.9800 -23.2887 -0.6235
35.0000 -23.3020 -0.6234
35.0200 -23.3154 -0.6230
35.0400 -23.3287 -0.6213
35.0600 -23.3420 -0.6233
35.0800 -23.3553 -0.6205
35.1000 -23.3686 -0.6213
35.1200 -23.3820 -0.6207
35.1400 -23.3953 -0.6219
35.1600 -23.4087 -0.6201
35.1800 -23.4220 -0.6223
35.2000 -23.4353 -0.6203
35.2200 -23.4487 -0.6205
35.2400 -23.4621 -0.6192
35.2600 -23.4754 -0.6208
35.2800 -23.4887 -0.6192
35.3000 -23.5020 -0.6222
35.3200 -23.5154 -0.6208
35.3400 -23.5288 -0.6216
35.3600 -23.5421 -0.6234
35.3800 -23.5554 -0.6227
35.4000 -23.5687 -0.6219
35.4200 -23.5820 -0.6220
35.4400 -23.5953 -0.6205
35.4600 -23.6086 -0.6191
35.4800 -23.6219 -0.6210
35.5000 -23.6353 -0.6199
35.5200 -23.6487 -0.6182
35.5400 -23.6620 -0.6211
35.5600 -23.6753 -0.6209
35.5800 -23.6887 -0.6174
35.6000 -23.7021 -0.6190
35.6200 -23.7154 -0.6172
35.6400 -23.7287 -0.6148
35.6600 -23.7421 -0.6159
35.6800 -23.7554 -0.6164
35.7000 -23.7688 -0.6142
35.7200 -23.7820 -0.6144
35.7400 -23.7953 -0.6165
35.7600 -23.8087 -0.6147
35.7800 -23.8220 -0.6149
35.8000 -23.8353 -0.6147
35.8200 -23.8486 -0.6117
35.8400 -23.8619 -0.6133
35.8600 -23.8753 -0.6116
35.8800 -23.8887 -0.6091
35.9000 -23.9020 -0.6126
35.9200 -23.9153 -0.6107
35.9400 -23.9287 -0.6108
35.9600 -23.9421 -0.6120
35.9800 -23.9554 -0.6104
36.0000 -23.9687 -0.6091
36.0200 -23.9820 -0.6091
36.0400 -23.9954 -0.6091
36.0600 -24.0088 -0.6062
36.0800 -24.0221 -0.6071
36.1000 -24.0354 -0.6071
36.1200 -24.0487 -0.6033
36.1400 -24.0621 -0.6057
36.1600 -24.0754 -0.6035
36.1800 -24.0887 -0.6039
36.2000 -24.1020 -0.6043
36.2200 -24.1153 -0.6048
36.2400 -24.1287 -0.6025
36.2600 -24.1420 -0.6028
36.2800 -24.1553 -0.6020
36.3000 -24.1687 -0.6007
36.3200 -24.1821 -0.6010
36.3400 -24.1954 -0.5994
36.3600 -24.2087 -0.5996
36.3800 -24.2220 -0.5993
36.4000 -24.2354 -0.6008
36.4200 -24.2487 -0.5965
36.4400 -24.2620 -0.5992
36.4600 -24.2753 -0.5965
36.4800 -24.2887 -0.5973
36.5000 -24.3020 -0.5948
36.5200 -24.3153 -0.5996
36.5400 -24.3286 -0.5957
36.5600 -24.3419 -0.5974
36.5800 -24.3553 -0.5954
36.6000 -24.3687 -0.5953
36.6200 -24.3820 -0.5930
36.6400 -24.3953 -0.5970
36.6600 -24.4087 -0.5928
36.6800 -24.4221 -0.5935
36.7000 -24.4354 -0.5914
36.7200 -24.4487 -0.5915
36.7400 -24.4620 -0.5927
36.7600 -24.4754 -0.5934
36.7800 -24.4887 -0.5911
36.8000 -24.5020 -0.5910
36.8200 -24.5153 -0.5932
36.8400 -24.5287 -0.5894
36.8600 -24.5420 -0.5888
36.8800 -24.5553 -0.5888
36.9000 -24.5686 -0.5877
36.9200 -24.5820 -0.5883
36.9400 -24.5953 -0.5886
36.9600 -24.6087 -0.5868
36.9800 -24.6220 -0.5872
37.0000 -24.6354 -0.5863
37.0200 -24.6487 -0.5866
37.0400 -24.6621 -0.5871
37.0600 -24.6754 -0.5876
37.0800 -24.6887 -0.5839
37.1000 -24.7021 -0.5824
37.1200 -24.7154 -0.5843
37.1400 -24.7288 -0.5813
37.1600 -24.7421 -0.5819
37.1800 -24.7554 -0.5832
37.2000 -24.7687 -0.5827
37.2200 -24.7820 -0.5837
37.2400 -24.7953 -0.5829
37.2600 -24.8086 -0.5825
37.2800 -24.8219 -0.5810
37.3000 -24.8353 -0.5825
37.3200 -24.8487 -0.5801
37.3400 -24.8620 -0.5817
37.3600 -24.8753 -0.5823
37.3800 -24.8887 -0.5816
37.4000 -24.9021 -0.5799
37.4200 -24.9154 -0.5841
37.4400 -24.9287 -0.5816
37.4600 -24.9420 -0.5820
37.4800 -24.9554 -0.5830
37.5000 -24.9687 -0.5800
37.5200 -24.9821 -0.5840
37.5400 -24.9954 -0.5832
37.5600 -25.0087 -0.5811
37.5800 -25.0220 -0.5806
37.6000 -25.0353 -0.5822
37.6200 -25.0486 -0.5799
37.6400 -25.0619 -0.5798
37.6600 -25.0753 -0.5816
37.6800 -25.0886 -0.5790
37.7000 -25.1020 -0.5800
37.7200 -25.1153 -0.5803
37.7400 -25.1287 -0.5787
37.7600 -25.1421 -0.5802
37.7800 -25.1554 -0.5785
37.8000 -25.1687 -0.5791
37.8200 -25.1820 -0.5795
37.8400 -25.1954 -0.5812
37.8600 -25.2087 -0.5781
37.8800 -25.2220 -0.5781
37.9000 -25.2353 -0.5803
37.9200 -25.2487 -0.5763
37.9400 -25.2620 -0.5762
37.9600 -25.2754 -0.5779
37.9800 -25.2886 -0.5763
38.0000 -25.3020 -0.5750
38.0200 -25.3153 -0.5760
38.0400 -25.3287 -0.5735
38.0600 -25.3420 -0.5748
38.0800 -25.3554 -0.5741
38.1000 -25.3687 -0.5748
38.1200 -25.3821 -0.5710
38.1400 -25.3954 -0.5720
38.1600 -25.4087 -0.5693
38.1800 -25.4220 -0.5691
38.2000 -25.4353 -0.5700
38.2200 -25.4487 -0.5697
38.2400 -25.4620 -0.5692
38.2600 -25.4753 -0.5712
38.2800 -25.4886 -0.5671
38.3000 -25.5020 -0.5656
38.3200 -25.5153 -0.5666
38.3400 -25.5286 -0.5667
38.3600 -25.5420 -0.5657
38.3800 -25.5553 -0.5670
38.4000 -25.5687 -0.5659
38.4200 -25.5820 -0.5655
38.4400 -25.5953 -0.5668
38.4600 -25.6087 -0.5644
38.4800 -25.6221 -0.5644
38.5000 -25.6354 -0.5670
38.5200 -25.6487 -0.5629
38.5400 -25.6621 -0.5627
38.5600 -25.6754 -0.5644
38.5800 -25.6888 -0.5627
38.6000 -25.7021 -0.5616
38.6200 -25.7154 -0.5632
38.6400 -25.7287 -0.5623
38.6600 -25.7420 -0.5602
38.6800 -25.7553 -0.5615
38.7000 -25.7686 -0.5593
38.7200 -25.7819 -0.5575
38.7400 -25.7953 -0.5612
38.7600 -25.8087 -0.5592
38.7800 -25.8220 -0.5565
38.8000 -25.8354 -0.5616
38.8200 -25.8487 -0.5582
38.8400 -25.8620 -0.5582
38.8600 -25.8754 -0.5582
38.8800 -25.8887 -0.5569
38.9000 -25.9020 -0.5554
38.9200 -25.9154 -0.5574
38.9400 -25.9287 -0.5543
38.9600 -25.9420 -0.5527
38.9800 -25.9553 -0.5542
39.0000 -25.9687 -0.5516
39.0200 -25.9820 -0.5500
39.0400 -25.9954 -0.5506
39.0600 -26.0086 -0.5486
39.0800 -26.0219 -0.5487
39.1000 -26.0353 -0.5500
39.1200 -26.0487 -0.5469
39.1400 -26.0620 -0.5481
39.1600 -26.0753 -0.5487
39.1800 -26.0887 -0.5502
39.2000 -26.1020 -0.5486
39.2200 -26.1154 -0.5478
39.2400 -26.1287 -0.5468
39.2600 -26.1420 -0.5455
39.2800 -26.1553 -0.5492
39.3000 -26.1687 -0.5465
39.3200 -26.1821 -0.5450
39.3400 -26.1954 -0.5491
39.3600 -26.2087 -0.5466
39.3800 -26.2221 -0.5450
39.4000 -26.2354 -0.5467
39.4200 -26.2487 -0.5452
39.4400 -26.2620 -0.5441
39.4600 -26.2753 -0.5477
39.4800 -26.2887 -0.5452
39.5000 -26.3020 -0.5458
39.5200 -26.3153 -0.5454
39.5400 -26.3287 -0.5438
39.5600 -26.3421 -0.5424
39.5800 -26.3554 -0.5466
39.6000 -26.3687 -0.5434
39.6200 -26.3820 -0.5428
39.6400 -26.3954 -0.5459
39.6600 -26.4087 -0.5428
39.6800 -26.4220 -0.5432
39.7000 -26.4353 -0.5432
39.7200 -26.4487 -0.5418
39.7400 -26.4620 -0.5391
39.7600 -26.4754 -0.5428
39.7800 -26.4887 -0.5395
39.8000 -26.5020 -0.5402
39.8200 -26.5153 -0.5415
39.8400 -26.5287 -0.5417
39.8600 -26.5420 -0.5394
39.8800 -26.5554 -0.5436
39.9000 -26.5687 -0.5395
39.9200 -26.5820 -0.5379
39.9400 -26.5954 -0.5387
39.9600 -26.6087 -0.5374
39.9800 -26.6220 -0.5350
40.0000 -26.6354 -0.5371
40.0200 -26.6487 -0.5369
40.0400 -26.6621 -0.5345
40.0600 -26.6754 -0.5366
40.0800 -26.6887 -0.5332
40.1000 -26.7020 -0.5315
40.1200 -26.7153 -0.5341
40.1400 -26.7287 -0.5322
40.1600 -26.7420 -0.5299
40.1800 -26.7553 -0.5309
40.2000 -26.7687 -0.5305
40.2200 -26.7820 -0.5304
40.2400 -26.7953 -0.5305
40.2600 -26.8087 -0.5308
40.2800 -26.8220 -0.5286
40.3000 -26.8354 -0.5315
40.3200 -26.8487 -0.5300
40.3400 -26.8620 -0.5300
40.3600 -26.8753 -0.5297
40.3800 -26.8887 -0.5290
40.4000 -26.9020 -0.5253
40.4200 -26.9154 -0.5305
40.4400 -26.9287 -0.5276
40.4600 -26.9420 -0.5269
40.4800 -26.9554 -0.5274
40.5000 -26.9687 -0.5259
40.5200 -26.9820 -0.5240
40.5400 -26.9953 -0.5282
40.5600 -27.0086 -0.5281
40.5800 -27.0220 -0.5258
40.6000 -27.0353 -0.5267
40.6200 -27.0486 -0.5266
40.6400 -27.0620 -0.5250
40.6600 -27.0754 -0.5262
40.6800 -27.0887 -0.5254
40.7000 -27.1020 -0.5249
40.7200 -27.1154 -0.5254
40.7400 -27.1287 -0.5250
40.7600 -27.1421 -0.5249
40.7800 -27.1554 -0.5260
40.8000 -27.1687 -0.5239
40.8200 -27.1820 -0.5230
40.8400 -27.1954 -0.5243
40.8600 -27.2087 -0.5245
40.8800 -27.2220 -0.5218
40.9000 -27.2353 -0.5256
40.9200 -27.2487 -0.5240
40.9400 -27.2620 -0.5228
40.9600 -27.2754 -0.5244
40.9800 -27.2887 -0.5240
41.0000 -27.3021 -0.5228
41.0200 -27.3154 -0.5238
41.0400 -27.3288 -0.5236
41.0600 -27.3420 -0.5204
41.0800 -27.3553 -0.5230
41.1000 -27.3687 -0.5204
41.1200 -27.3821 -0.5194
41.1400 -27.3954 -0.5206
41.1600 -27.4087 -0.5214
41.1800 -27.4220 -0.5164
41.2000 -27.4354 -0.5185
41.2200 -27.4487 -0.5157
41.2400 -27.4620 -0.5177
41.2600 -27.4753 -0.5184
41.2800 -27.4886 -0.5196
41.3000 -27.5020 -0.5146
41.3200 -27.5154 -0.5162
41.3400 -27.5287 -0.5172
41.3600 -27.5420 -0.5136
41.3800 -27.5554 -0.5157
41.4000 -27.5687 -0.5130
41.4200 -27.5820 -0.5116
41.4400 -27.5954 -0.5115
41.4600 -27.6087 -0.5127
41.4800 -27.6221 -0.5084
41.5000 -27.6354 -0.5113
41.5200 -27.6487 -0.5075
41.5400 -27.6620 -0.5072
41.5600 -27.6754 -0.5081
41.5800 -27.6887 -0.5099
41.6000 -27.7019 -0.5080
41.6200 -27.7153 -0.5101
41.6400 -27.7286 -0.5101
41.6600 -27.7420 -0.5069
41.6800 -27.7553 -0.5099
41.7000 -27.7686 -0.5080
41.7200 -27.7820 -0.5061
41.7400 -27.7954 -0.5086
41.7600 -27.8087 -0.5080
41.7800 -27.8221 -0.5080
41.8000 -27.8354 -0.5101
41.8200 -27.8487 -0.5100
41.8400 -27.8621 -0.5087
41.8600 -27.8754 -0.5074
41.8800 -27.8887 -0.5088
41.9000 -27.9020 -0.5068
41.9200 -27.9154 -0.5097
41.9400 -27.9287 -0.5088
41.9600 -27.9420 -0.5071
41.9800 -27.9553 -0.5057
42.0000 -27.9687 -0.5071
42.0200 -27.9820 -0.5037
42.0400 -27.9953 -0.5064
42.0600 -28.0086 -0.5043
42.0800 -28.0220 -0.5037
42.1000 -28.0354 -0.5045
42.1200 -28.0487 -0.5072
42.1400 -28.0620 -0.5040
42.1600 -28.0753 -0.5052
42.1800 -28.0887 -0.5048
42.2000 -28.1021 -0.5051
42.2200 -28.1154 -0.5043
42.2400 -28.1287 -0.5053
42.2600 -28.1421 -0.5050
42.2800 -28.1554 -0.5069
42.3000 -28.1687 -0.5063
42.3200 -28.1820 -0.5052
42.3400 -28.1953 -0.5056
42.3600 -28.2086 -0.5054
42.3800 -28.2220 -0.5051
42.4000 -28.2353 -0.5038
42.4200 -28.2487 -0.5059
42.4400 -28.2620 -0.5013
42.4600 -28.2754 -0.5027
42.4800 -28.2887 -0.5027
42.5000 -28.3020 -0.5019
42.5200 -28.3153 -0.5028
42.5400 -28.3287 -0.5040
42.5600 -28.3421 -0.4994
42.5800 -28.3554 -0.5013
42.6000 -28.3687 -0.5012
42.6200 -28.3820 -0.4993
42.6400 -28.3954 -0.4993
42.6600 -28.4087 -0.4993
42.6800 -28.4220 -0.4952
42.7000 -28.4353 -0.4961
42.7200 -28.4486 -0.4965
42.7400 -28.4620 -0.4962
42.7600 -28.4753 -0.4965
42.7800 -28.4886 -0.4990
42.8000 -28.5020 -0.4937
42.8200 -28.5154 -0.4953
42.8400 -28.5287 -0.4946
42.8600 -28.5421 -0.4939
42.8800 -28.5554 -0.4931
42.9000 -28.5687 -0.4937
42.9200 -28.5821 -0.4916
42.9400 -28.5954 -0.4928
42.9600 -28.6087 -0.4949
42.9800 -28.6220 -0.4927
43.0000 -28.6353 -0.4924
43.0200 -28.6486 -0.4921
43.0400 -28.6619 -0.4914
43.0600 -28.6753 -0.4914
43.0800 -28.6886 -0.4921
43.1000 -28.7020 -0.4879
43.1200 -28.7153 -0.4903
43.1400 -28.7287 -0.4896
43.1600 -28.7420 -0.4895
43.1800 -28.7554 -0.4871
43.2000 -28.7688 -0.4876
43.2200 -28.7821 -0.4867
43.2400 -28.7954 -0.4876
43.2600 -28.8087 -0.4877
43.2800 -28.8221 -0.4864
43.3000 -28.8354 -0.4838
43.3200 -28.8487 -0.4852
43.3400 -28.8620 -0.4836
43.3600 -28.8754 -0.4844
43.3800 -28.8887 -0.4842
43.4000 -28.9020 -0.4825
43.4200 -28.9153 -0.4832
43.4400 -28.9286 -0.4846
43.4600 -28.9420 -0.4819
43.4800 -28.9553 -0.4809
43.5000 -28.9686 -0.4822
43.5200 -28.9820 -0.4790
43.5400 -28.9954 -0.4776
43.5600 -29.0087 -0.4786
43.5800 -29.0220 -0.4737
43.6000 -29.0354 -0.4742
43.6200 -29.0487 -0.4736
43.6400 -29.0621 -0.4720
43.6600 -29.0754 -0.4742
43.6800 -29.0887 -0.4724
43.7000 -29.1020 -0.4716
43.7200 -29.1154 -0.4686
43.7400 -29.1287 -0.4710
43.7600 -29.1420 -0.4687
43.7800 -29.1553 -0.4690
43.8000 -29.1686 -0.4706
43.8200 -29.1820 -0.4671
43.8400 -29.1954 -0.4681
43.8600 -29.2087 -0.4694
43.8800 -29.2220 -0.4659
43.9000 -29.2354 -0.4695
43.9200 -29.2487 -0.4678
43.9400 -29.2621 -0.4675
43.9600 -29.2754 -0.4643
43.9800 -29.2887 -0.4634
44.0000 -29.3020 -0.4642
44.0200 -29.3154 -0.4642
44.0400 -29.3287 -0.4682
44.0600 -29.3420 -0.4657
44.0800 -29.3553 -0.4649
44.1000 -29.3687 -0.4637
44.1200 -29.3820 -0.4641
44.1400 -29.3953 -0.4652
44.1600 -29.4086 -0.4652
44.1800 -29.4220 -0.4618
44.2000 -29.4354 -0.4615
44.2200 -29.4487 -0.4650
44.2400 -29.4620 -0.4642
44.2600 -29.4754 -0.4638
44.2800 -29.4888 -0.4655
44.3000 -29.5021 -0.4628
44.3200 -29.5154 -0.4641
44.3400 -29.5287 -0.4659
44.3600 -29.5421 -0.4654
44.3800 -29.5554 -0.4646
44.4000 -29.5687 -0.4673
44.4200 -29.5820 -0.4620
44.4400 -29.5953 -0.4641
44.4600 -29.6087 -0.4640
44.4800 -29.6220 -0.4655
44.5000 -29.6353 -0.4645
44.5200 -29.6486 -0.4642
44.5400 -29.6620 -0.4617
44.5600 -29.6753 -0.4616
44.5800 -29.6886 -0.4631
44.6000 -29.7020 -0.4619
44.6200 -29.7154 -0.4626
44.6400 -29.7288 -0.4627
44.6600 -29.7421 -0.4624
44.6800 -29.7554 -0.4602
44.7000 -29.7687 -0.4637
44.7200 -29.7821 -0.4617
44.7400 -29.7954 -0.4615
44.7600 -29.8087 -0.4622
44.7800 -29.8220 -0.4619
44.8000 -29.8354 -0.4613
44.8200 -29.8487 -0.4617
44.8400 -29.8620 -0.4598
44.8600 -29.8753 -0.4605
44.8800 -29.8886 -0.4618
44.9000 -29.9020 -0.4623
44.9200 -29.9153 -0.4606
44.9400 -29.9286 -0.4630
44.9600 -29.9420 -0.4602
44.9800 -29.9554 -0.4594
45.0000 -29.9688 -0.4605
45.0200 -29.9821 -0.4603
45.0400 -29.9954 -0.4581
45.0600 -30.0087 -0.4591
45.0800 -30.0221 -0.4578
45.1000 -30.0354 -0.4576
45.1200 -30.0487 -0.4601
45.1400 -30.0620 -0.4562
45.1600 -30.0754 -0.4554
45.1800 -30.0887 -0.4570
45.2000 -30.1020 -0.4557
45.2200 -30.1153 -0.4565
45.2400 -30.1286 -0.4557
45.2600 -30.1420 -0.4537
45.2800 -30.1554 -0.4528
45.3000 -30.1687 -0.4538
45.3200 -30.1820 -0.4523
45.3400 -30.1954 -0.4516
45.3600 -30.2087 -0.4514
45.3800 -30.2220 -0.4511
45.4000 -30.2353 -0.4494
45.4200 -30.2486 -0.4504
45.4400 -30.2620 -0.4487
45.4600 -30.2754 -0.4447
45.4800 -30.2887 -0.4487
45.5000 -30.3020 -0.4460
45.5200 -30.3154 -0.4451
45.5400 -30.3287 -0.4443
45.5600 -30.3420 -0.4441
45.5800 -30.3553 -0.4440
45.6000 -30.3686 -0.4456
45.6200 -30.3820 -0.4435
45.6400 -30.3953 -0.4420
45.6600 -30.4087 -0.4424
45.6800 -30.4220 -0.4409
45.7000 -30.4354 -0.4404
45.7200 -30.4487 -0.4417
45.7400 -30.4621 -0.4431
45.7600 -30.4754 -0.4412
45.7800 -30.4887 -0.4433
45.8000 -30.5021 -0.4411
45.8200 -30.5154 -0.4417
45.8400 -30.5287 -0.4431
45.8600 -30.5420 -0.4425
45.8800 -30.5553 -0.4408
45.9000 -30.5687 -0.4419
45.9200 -30.5820 -0.4414
45.9400 -30.5953 -0.4403
45.9600 -30.6086 -0.4419
45.9800 -30.6220 -0.4401
46.0000 -30.6353 -0.4387
46.0200 -30.6486 -0.4418
46.0400 -30.6620 -0.4407
46.0600 -30.6753 -0.4407
46.0800 -30.6887 -0.4398
46.1000 -30.7021 -0.4386
46.1200 -30.7154 -0.4381
46.1400 -30.7287 -0.4411
46.1600 -30.7421 -0.4401
46.1800 -30.7554 -0.4404
46.2000 -30.7687 -0.4407
46.2200 -30.7820 -0.4407
46.2400 -30.7954 -0.4380
46.2600 -30.8087 -0.4407
46.2800 -30.8220 -0.4382
46.3000 -30.8353 -0.4390
46.3200 -30.8486 -0.4390
46.3400 -30.8620 -0.4377
46.3600 -30.8754 -0.4377
46.3800 -30.8887 -0.4372
46.4000 -30.9020 -0.4398
46.4200 -30.9153 -0.4350
46.4400 -30.9287 -0.4385
46.4600 -30.9421 -0.4360
46.4800 -30.9554 -0.4373
46.5000 -30.9687 -0.4335
46.5200 -30.9820 -0.4352
46.5400 -30.9954 -0.4320
46.5600 -31.0087 -0.4373
46.5800 -31.0220 -0.4338
46.6000 -31.0354 -0.4363
46.6200 -31.0487 -0.4334
46.6400 -31.0621 -0.4322
46.6600 -31.0753 -0.4301
46.6800 -31.0886 -0.4329
46.7000 -31.1020 -0.4312
46.7200 -31.1154 -0.4317
46.7400 -31.1287 -0.4314
46.7600 -31.1420 -0.4314
46.7800 -31.1554 -0.4288
46.8000 -31.1687 -0.4296
46.8200 -31.1821 -0.4281
46.8400 -31.1954 -0.4272
46.8600 -31.2087 -0.4277
46.8800 -31.2220 -0.4272
46.9000 -31.2354 -0.4262
46.9200 -31.2487 -0.4247
46.9400 -31.2620 -0.4254
46.9600 -31.2753 -0.4254
46.9800 -31.2887 -0.4271
47.0000 -31.3020 -0.4247
47.0200 -31.3153 -0.4256
47.0400 -31.3286 -0.4235
47.0600 -31.3420 -0.4233
47.0800 -31.3554 -0.4198
47.1000 -31.3687 -0.4226
47.1200 -31.3820 -0.4200
47.1400 -31.3954 -0.4217
47.1600 -31.4087 -0.4189
47.1800 -31.4221 -0.4207
47.2000 -31.4354 -0.4183
47.2200 -31.4487 -0.4167
47.2400 -31.4620 -0.4149
47.2600 -31.4754 -0.4163
47.2800 -31.4887 -0.4171
47.3000 -31.5020 -0.4186
47.3200 -31.5153 -0.4165
47.3400 -31.5287 -0.4169
47.3600 -31.5420 -0.4158
47.3800 -31.5553 -0.4157
47.4000 -31.5686 -0.4163
47.4200 -31.5820 -0.4141
47.4400 -31.5954 -0.4145
47.4600 -31.6087 -0.4138
47.4800 -31.6220 -0.4142
47.5000 -31.6353 -0.4122
47.5200 -31.6487 -0.4119
47.5400 -31.6621 -0.4116
47.5600 -31.6754 -0.4107
47.5800 -31.6887 -0.4094
47.6000 -31.7020 -0.4128
47.6200 -31.7154 -0.4120
47.6400 -31.7287 -0.4117
47.6600 -31.7420 -0.4104
47.6800 -31.7554 -0.4093
47.7000 -31.7687 -0.4094
47.7200 -31.7821 -0.4082
47.7400 -31.7953 -0.4069
47.7600 -31.8086 -0.4076
47.7800 -31.8220 -0.4092
47.8000 -31.8353 -0.4065
47.8200 -31.8486 -0.4063
47.8400 -31.8619 -0.4045
47.8600 -31.8753 -0.4067
47.8800 -31.8887 -0.4069
47.9000 -31.9021 -0.4075
47.9200 -31.9154 -0.4045
47.9400 -31.9287 -0.4057
47.9600 -31.9421 -0.4042
47.9800 -31.9554 -0.4064
48.0000 -31.9688 -0.4040
48.0200 -31.9821 -0.4059
48.0400 -31.9954 -0.4051
48.0600 -32.0087 -0.4048
48.0800 -32.0220 -0.4038
48.1000 -32.0353 -0.4047
48.1200 -32.0486 -0.4033
48.1400 -32.0620 -0.4047
48.1600 -32.0754 -0.4025
48.1800 -32.0887 -0.4054
48.2000 -32.1020 -0.4042
48.2200 -32.1153 -0.4037
48.2400 -32.1287 -0.4029
48.2600 -32.1421 -0.4004
48.2800 -32.1554 -0.3996
48.3000 -32.1687 -0.4001
48.3200 -32.1820 -0.3987
48.3400 -32.1954 -0.4000
48.3600 -32.2087 -0.3998
48.3800 -32.2220 -0.3992
48.4000 -32.2353 -0.3974
48.4200 -32.2487 -0.3955
48.4400 -32.2620 -0.3951
48.4600 -32.2753 -0.3933
48.4800 -32.2886 -0.3941
48.5000 -32.3020 -0.3955
48.5200 -32.3153 -0.3935
48.5400 -32.3287 -0.3913
48.5600 -32.3420 -0.3933
48.5800 -32.3553 -0.3915
48.6000 -32.3687 -0.3915
48.6200 -32.3821 -0.3891
48.6400 -32.3954 -0.3902
48.6600 -32.4087 -0.3877
48.6800 -32.4220 -0.3890
48.7000 -32.4354 -0.3869
48.7200 -32.4487 -0.3888
48.7400 -32.4620 -0.3867
48.7600 -32.4754 -0.3881
48.7800 -32.4887 -0.3847
48.8000 -32.5020 -0.3871
48.8200 -32.5153 -0.3860
48.8400 -32.5286 -0.3855
48.8600 -32.5419 -0.3864
48.8800 -32.5553 -0.3839
48.9000 -32.5687 -0.3815
48.9200 -32.5820 -0.3840
48.9400 -32.5953 -0.3825
48.9600 -32.6087 -0.3817
48.9800 -32.6221 -0.3799
49.0000 -32.6354 -0.3790
49.0200 -32.6487 -0.3796
49.0400 -32.6621 -0.3801
49.0600 -32.6754 -0.3783
49.0800 -32.6888 -0.3771
49.1000 -32.7021 -0.3778
49.1200 -32.7154 -0.3773
49.1400 -32.7287 -0.3770
49.1600 -32.7420 -0.3779
49.1800 -32.7553 -0.3766
49.2000 -32.7687 -0.3752
49.2200 -32.7820 -0.3770
49.2400 -32.7954 -0.3740
49.2600 -32.8087 -0.3747
49.2800 -32.8220 -0.3748
49.3000 -32.8353 -0.3741
49.3200 -32.8487 -0.3745
49.3400 -32.8620 -0.3751
49.3600 -32.8754 -0.3754
49.3800 -32.8887 -0.3755
49.4000 -32.9020 -0.3751
49.4200 -32.9154 -0.3749
49.4400 -32.9288 -0.3730
49.4600 -32.9421 -0.3730
49.4800 -32.9554 -0.3710
49.5000 -32.9687 -0.3723
49.5200 -32.9821 -0.3719
49.5400 -32.9954 -0.3726
49.5600 -33.0086 -0.3728
49.5800 -33.0220 -0.3735
49.6000 -33.0353 -0.3723
49.6200 -33.0487 -0.3718
49.6400 -33.0620 -0.3730
49.6600 -33.0753 -0.3736
49.6800 -33.0887 -0.3731
49.7000 -33.1021 -0.3741
49.7200 -33.1154 -0.3743
49.7400 -33.1287 -0.3738
49.7600 -33.1420 -0.3752
49.7800 -33.1554 -0.3733
49.8000 -33.1687 -0.3716
49.8200 -33.1821 -0.3721
49.8400 -33.1954 -0.3718
49.8600 -33.2087 -0.3687
49.8800 -33.2221 -0.3711
49.9000 -33.2354 -0.3734
49.9200 -33.2486 -0.3735
49.9400 -33.2619 -0.3729
49.9600 -33.2753 -0.3702
49.9800 -33.2887 -0.3701
50.0000 -33.3020 -0.3690
50.0200 -33.3153 -0.3701
50.0400 -33.3287 -0.3700
50.0600 -33.3420 -0.3702
50.0800 -33.3554 -0.3702
50.1000 -33.3687 -0.3699
50.1200 -33.3820 -0.3669
50.1400 -33.3954 -0.3671
50.1600 -33.4088 -0.3649
50.1800 -33.4221 -0.3666
50.2000 -33.4353 -0.3650
50.2200 -33.4486 -0.3647
50.2400 -33.4620 -0.3648
50.2600 -33.4753 -0.3644
50.2800 -33.4886 -0.3627
50.3000 -33.5019 -0.3654
50.3200 -33.5153 -0.3622
50.3400 -33.5287 -0.3638
50.3600 -33.5420 -0.3614
50.3800 -33.5553 -0.3619
50.4000 -33.5687 -0.3591
50.4200 -33.5821 -0.3633
50.4400 -33.5955 -0.3593
50.4600 -33.6087 -0.3603
50.4800 -33.6221 -0.3584
50.5000 -33.6354 -0.3601
50.5200 -33.6488 -0.3552
50.5400 -33.6621 -0.3565
50.5600 -33.6754 -0.3543
50.5800 -33.6887 -0.3548
50.6000 -33.7020 -0.3542
50.6200 -33.7154 -0.3519
50.6400 -33.7287 -0.3519
50.6600 -33.7420 -0.3504
50.6800 -33.7554 -0.3505
50.7000 -33.7687 -0.3489
50.7200 -33.7820 -0.3504
50.7400 -33.7953 -0.3475
50.7600 -33.8087 -0.3504
50.7800 -33.8221 -0.3490
50.8000 -33.8354 -0.3503
50.8200 -33.8487 -0.3480
50.8400 -33.8620 -0.3499
50.8600 -33.8754 -0.3465
50.8800 -33.8887 -0.3477
50.9000 -33.9021 -0.3462
50.9200 -33.9153 -0.3466
50.9400 -33.9287 -0.3462
50.9600 -33.9420 -0.3476
50.9800 -33.9553 -0.3469
51.0000 -33.9686 -0.3446
51.0200 -33.9819 -0.3447
51.0400 -33.9952 -0.3466
51.0600 -34.0086 -0.3428
51.0800 -34.0220 -0.3423
51.1000 -34.0353 -0.3416
51.1200 -34.0487 -0.3425
51.1400 -34.0620 -0.3423
51.1600 -34.0754 -0.3393
51.1800 -34.0887 -0.3398
51.2000 -34.1020 -0.3378
51.2200 -34.1153 -0.3377
51.2400 -34.1287 -0.3379
51.2600 -34.1420 -0.3383
51.2800 -34.1553 -0.3367
51.3000 -34.1687 -0.3349
51.3200 -34.1820 -0.3351
51.3400 -34.1953 -0.3342
51.3600 -34.2086 -0.3368
51.3800 -34.2220 -0.3346
51.4000 -34.2353 -0.3346
51.4200 -34.2487 -0.3339
51.4400 -34.2620 -0.3333
51.4600 -34.2754 -0.3337
51.4800 -34.2887 -0.3330
51.5000 -34.3021 -0.3335
51.5200 -34.3154 -0.3327
51.5400 -34.3287 -0.3309
51.5600 -34.3420 -0.3305
51.5800 -34.3554 -0.3319
51.6000 -34.3688 -0.3304
51.6200 -34.3821 -0.3311
51.6400 -34.3954 -0.3294
51.6600 -34.4087 -0.3316
51.6800 -34.4220 -0.3294
51.7000 -34.4353 -0.3307
51.7200 -34.4486 -0.3297
51.7400 -34.4619 -0.3308
51.7600 -34.4753 -0.3301
51.7800 -34.4887 -0.3284
51.8000 -34.5020 -0.3301
51.8200 -34.5153 -0.3302
51.8400 -34.5287 -0.3305
51.8600 -34.5421 -0.3280
51.8800 -34.5554 -0.3314
51.9000 -34.5687 -0.3316
51.9200 -34.5821 -0.3321
51.9400 -34.5954 -0.3286
51.9600 -34.6088 -0.3296
51.9800 -34.6221 -0.3276
52.0000 -34.6354 -0.3273
52.0200 -34.6487 -0.3286
52.0400 -34.6620 -0.3280
52.0600 -34.6753 -0.3272
52.0800 -34.6886 -0.3244
52.1000 -34.7019 -0.3225
52.1200 -34.7153 -0.3241
52.1400 -34.7286 -0.3225
52.1600 -34.7420 -0.3208
52.1800 -34.7553 -0.3184
52.2000 -34.7687 -0.3168
52.2200 -34.7820 -0.3162
52.2400 -34.7954 -0.3143
52.2600 -34.8087 -0.3119
52.2800 -34.8221 -0.3110
52.3000 -34.8354 -0.3106
52.3200 -34.8487 -0.3098
52.3400 -34.8621 -0.3093
52.3600 -34.8753 -0.3088
52.3800 -34.8887 -0.3059
52.4000 -34.9020 -0.3031
52.4200 -34.9153 -0.3036
52.4400 -34.9286 -0.3035
52.4600 -34.9419 -0.3050
52.4800 -34.9553 -0.3035
52.5000 -34.9687 -0.3048
52.5200 -34.9820 -0.3011
52.5400 -34.9953 -0.3010
52.5600 -35.0087 -0.3003
52.5800 -35.0221 -0.2993
52.6000 -35.0354 -0.3002
52.6200 -35.0487 -0.3007
52.6400 -35.0620 -0.2974
52.6600 -35.0753 -0.2983
52.6800 -35.0887 -0.2975
52.7000 -35.1020 -0.2981
52.7200 -35.1154 -0.2969
52.7400 -35.1287 -0.2966
52.7600 -35.1420 -0.2930
52.7800 -35.1554 -0.2931
52.8000 -35.1687 -0.2938
52.8200 -35.1820 -0.2925
52.8400 -35.1953 -0.2923
52.8600 -35.2087 -0.2922
52.8800 -35.2220 -0.2900
52.9000 -35.2353 -0.2904
52.9200 -35.2487 -0.2899
52.9400 -35.2621 -0.2890
52.9600 -35.2754 -0.2887
52.9800 -35.2887 -0.2876
53.0000 -35.3020 -0.2877
53.0200 -35.3154 -0.2889
53.0400 -35.3288 -0.2883
53.0600 -35.3421 -0.2874
53.0800 -35.3554 -0.2863
53.1000 -35.3687 -0.2851
53.1200 -35.3820 -0.2847
53.1400 -35.3953 -0.2833
53.1600 -35.4086 -0.2833
53.1800 -35.4219 -0.2830
53.2000 -35.4353 -0.2838
53.2200 -35.4486 -0.2815
53.2400 -35.4620 -0.2832
53.2600 -35.4753 -0.2820
53.2800 -35.4887 -0.2815
53.3000 -35.5020 -0.2786
53.3200 -35.5154 -0.2786
53.3400 -35.5287 -0.2800
53.3600 -35.5420 -0.2795
53.3800 -35.5554 -0.2801
53.4000 -35.5687 -0.2790
53.4200 -35.5821 -0.2779
53.4400 -35.5954 -0.2765
53.4600 -35.6087 -0.2763
53.4800 -35.6220 -0.2763
53.5000 -35.6354 -0.2752
53.5200 -35.6487 -0.2750
53.5400 -35.6620 -0.2759
53.5600 -35.6753 -0.2740
53.5800 -35.6887 -0.2734
53.6000 -35.7020 -0.2714
53.6200 -35.7153 -0.2723
53.6400 -35.7286 -0.2725
53.6600 -35.7420 -0.2723
53.6800 -35.7554 -0.2721
53.7000 -35.7687 -0.2722
53.7200 -35.7820 -0.2709
53.7400 -35.7953 -0.2721
53.7600 -35.8087 -0.2714
53.7800 -35.8221 -0.2695
53.8000 -35.8354 -0.2675
53.8200 -35.8487 -0.2708
53.8400 -35.8620 -0.2694
53.8600 -35.8754 -0.2688
53.8800 -35.8887 -0.2681
53.9000 -35.9020 -0.2667
53.9200 -35.9153 -0.2655
53.9400 -35.9287 -0.2657
53.9600 -35.9420 -0.2630
53.9800 -35.9553 -0.2617
54.0000 -35.9687 -0.2601
54.0200 -35.9820 -0.2571
54.0400 -35.9954 -0.2575
54.0600 -36.0087 -0.2529
54.0800 -36.0220 -0.2511
54.1000 -36.0353 -0.2497
54.1200 -36.0487 -0.2508
54.1400 -36.0620 -0.2483
54.1600 -36.0753 -0.2478
54.1800 -36.0887 -0.2482
54.2000 -36.1020 -0.2478
54.2200 -36.1154 -0.2475
54.2400 -36.1287 -0.2481
54.2600 -36.1420 -0.2471
54.2800 -36.1553 -0.2471
54.3000 -36.1687 -0.2474
54.3200 -36.1820 -0.2469
54.3400 -36.1954 -0.2472
54.3600 -36.2087 -0.2480
54.3800 -36.2220 -0.2454
54.4000 -36.2354 -0.2473
54.4200 -36.2487 -0.2479
54.4400 -36.2620 -0.2458
54.4600 -36.2753 -0.2445
54.4800 -36.2887 -0.2443
54.5000 -36.3020 -0.2431
54.5200 -36.3154 -0.2442
54.5400 -36.3287 -0.2434
54.5600 -36.3420 -0.2412
54.5800 -36.3553 -0.2401
54.6000 -36.3687 -0.2383
54.6200 -36.3820 -0.2382
54.6400 -36.3953 -0.2370
54.6600 -36.4087 -0.2374
54.6800 -36.4221 -0.2328
54.7000 -36.4354 -0.2331
54.7200 -36.4487 -0.2344
54.7400 -36.4620 -0.2328
54.7600 -36.4754 -0.2309
54.7800 -36.4887 -0.2321
54.8000 -36.5020 -0.2296
54.8200 -36.5153 -0.2309
54.8400 -36.5287 -0.2284
54.8600 -36.5421 -0.2278
54.8800 -36.5554 -0.2264
54.9000 -36.5687 -0.2286
54.9200 -36.5820 -0.2263
54.9400 -36.5954 -0.2270
54.9600 -36.6087 -0.2237
54.9800 -36.6220 -0.2231
55.0000 -36.6353 -0.2224
55.0200 -36.6486 -0.2231
55.0400 -36.6620 -0.2218
55.0600 -36.6753 -0.2219
55.0800 -36.6886 -0.2222
55.1000 -36.7020 -0.2187
55.1200 -36.7154 -0.2163
55.1400 -36.7287 -0.2165
55.1600 -36.7420 -0.2161
55.1800 -36.7554 -0.2152
55.2000 -36.7687 -0.2144
55.2200 -36.7821 -0.2128
55.2400 -36.7954 -0.2118
55.2600 -36.8087 -0.2118
55.2800 -36.8220 -0.2116
55.3000 -36.8353 -0.2102
55.3200 -36.8487 -0.2123
55.3400 -36.8620 -0.2126
55.3600 -36.8753 -0.2114
55.3800 -36.8887 -0.2121
55.4000 -36.9020 -0.2116
55.4200 -36.9154 -0.2124
55.4400 -36.9287 -0.2148
55.4600 -36.9420 -0.2147
55.4800 -36.9554 -0.2134
55.5000 -36.9687 -0.2133
55.5200 -36.9820 -0.2096
55.5400 -36.9953 -0.2033
55.5600 -37.0087 -0.2035
55.5800 -37.0220 -0.2009
55.6000 -37.0354 -0.2030
55.6200 -37.0487 -0.2000
55.6400 -37.0620 -0.1975
55.6600 -37.0754 -0.1964
55.6800 -37.0887 -0.1992
55.7000 -37.1020 -0.1978
55.7200 -37.1153 -0.1935
55.7400 -37.1286 -0.1953
55.7600 -37.1420 -0.1909
55.7800 -37.1553 -0.1921
55.8000 -37.1687 -0.1937
55.8200 -37.1820 -0.1925
55.8400 -37.1954 -0.1889
55.8600 -37.2087 -0.1907
55.8800 -37.2221 -0.1859
55.9000 -37.2354 -0.1878
55.9200 -37.2487 -0.1871
55.9400 -37.2621 -0.1872
55.9600 -37.2754 -0.1862
55.9800 -37.2887 -0.1851
56.0000 -37.3020 -0.1838
56.0200 -37.3154 -0.1803
56.0400 -37.3287 -0.1812
56.0600 -37.3420 -0.1798
56.0800 -37.3553 -0.1803
56.1000 -37.3686 -0.1794
56.1200 -37.3820 -0.1790
56.1400 -37.3953 -0.1764
56.1600 -37.4086 -0.1777
56.1800 -37.4220 -0.1778
56.2000 -37.4354 -0.1759
56.2200 -37.4487 -0.1762
56.2400 -37.4621 -0.1742
56.2600 -37.4754 -0.1723
56.2800 -37.4887 -0.1739
56.3000 -37.5021 -0.1736
56.3200 -37.5154 -0.1725
56.3400 -37.5287 -0.1744
56.3600 -37.5420 -0.1700
56.3800 -37.5554 -0.1693
56.4000 -37.5687 -0.1706
56.4200 -37.5820 -0.1688
56.4400 -37.5953 -0.1674
56.4600 -37.6086 -0.1671
56.4800 -37.6220 -0.1674
56.5000 -37.6353 -0.1624
56.5200 -37.6487 -0.1652
56.5400 -37.6620 -0.1616
56.5600 -37.6754 -0.1610
56.5800 -37.6887 -0.1618
56.6000 -37.7020 -0.1604
56.6200 -37.7153 -0.1587
56.6400 -37.7287 -0.1606
56.6600 -37.7421 -0.1582
56.6800 -37.7554 -0.1574
56.7000 -37.7687 -0.1571
56.7200 -37.7821 -0.1552
56.7400 -37.7954 -0.1529
56.7600 -37.8087 -0.1530
56.7800 -37.8220 -0.1536
56.8000 -37.8353 -0.1512
56.8200 -37.8486 -0.1525
56.8400 -37.8620 -0.1518
56.8600 -37.8753 -0.1495
56.8800 -37.8886 -0.1498
56.9000 -37.9020 -0.1488
56.9200 -37.9154 -0.1490
56.9400 -37.9287 -0.1495
56.9600 -37.9420 -0.1488
56.9800 -37.9553 -0.1454
57.0000 -37.9687 -0.1458
57.0200 -37.9821 -0.1460
57.0400 -37.9954 -0.1448
57.0600 -38.0087 -0.1433
57.0800 -38.0220 -0.1427
57.1000 -38.0354 -0.1411
57.1200 -38.0487 -0.1420
57.1400 -38.0620 -0.1409
57.1600 -38.0753 -0.1391
57.1800 -38.0886 -0.1416
57.2000 -38.1020 -0.1393
57.2200 -38.1153 -0.1390
57.2400 -38.1286 -0.1382
57.2600 -38.1420 -0.1386
57.2800 -38.1554 -0.1347
57.3000 -38.1687 -0.1359
57.3200 -38.1821 -0.1350
57.3400 -38.1954 -0.1326
57.3600 -38.2087 -0.1337
57.3800 -38.2221 -0.1326
57.4000 -38.2354 -0.1286
57.4200 -38.2487 -0.1317
57.4400 -38.2620 -0.1306
57.4600 -38.2753 -0.1279
57.4800 -38.2886 -0.1281
57.5000 -38.3019 -0.1248
57.5200 -38.3153 -0.1234
57.5400 -38.3286 -0.1226
57.5600 -38.3420 -0.1234
57.5800 -38.3553 -0.1188
57.6000 -38.3687 -0.1191
57.6200 -38.3820 -0.1170
57.6400 -38.3954 -0.1151
57.6600 -38.4088 -0.1159
57.6800 -38.4221 -0.1161
57.7000 -38.4354 -0.1124
57.7200 -38.4487 -0.1139
57.7400 -38.4621 -0.1118
57.7600 -38.4754 -0.1085
57.7800 -38.4887 -0.1106
57.8000 -38.5020 -0.1107
57.8200 -38.5154 -0.1090
57.8400 -38.5287 -0.1102
57.8600 -38.5420 -0.1108
57.8800 -38.5553 -0.1068
57.9000 -38.5686 -0.1106
57.9200 -38.5820 -0.1054
57.9400 -38.5953 -0.1033
57.9600 -38.6086 -0.1047
57.9800 -38.6220 -0.1036
58.0000 -38.6353 -0.1030
58.0200 -38.6487 -0.1050
58.0400 -38.6620 -0.1050
58.0600 -38.6753 -0.1019
58.0800 -38.6887 -0.1011
58.1000 -38.7020 -0.1022
58.1200 -38.7154 -0.0985
58.1400 -38.7287 -0.1018
58.1600 -38.7420 -0.1004
58.1800 -38.7554 -0.0959
58.2000 -38.7687 -0.0957
58.2200 -38.7820 -0.0944
58.2400 -38.7953 -0.0903
58.2600 -38.8086 -0.0927
58.2800 -38.8220 -0.0911
58.3000 -38.8353 -0.0900
58.3200 -38.8487 -0.0897
58.3400 -38.8620 -0.0886
58.3600 -38.8754 -0.0852
58.3800 -38.8887 -0.0877
58.4000 -38.9021 -0.0854
58.4200 -38.9154 -0.0834
58.4400 -38.9287 -0.0838
58.4600 -38.9420 -0.0825
58.4800 -38.9554 -0.0792
58.5000 -38.9687 -0.0815
58.5200 -38.9820 -0.0797
58.5400 -38.9953 -0.0758
58.5600 -39.0087 -0.0767
58.5800 -39.0220 -0.0745
58.6000 -39.0353 -0.0744
58.6200 -39.0486 -0.0726
58.6400 -39.0620 -0.0730
58.6600 -39.0754 -0.0681
58.6800 -39.0887 -0.0700
58.7000 -39.1020 -0.0682
58.7200 -39.1154 -0.0663
58.7400 -39.1287 -0.0653
58.7600 -39.1421 -0.0662
58.7800 -39.1553 -0.0625
58.8000 -39.1687 -0.0643
58.8200 -39.1821 -0.0635
58.8400 -39.1954 -0.0614
58.8600 -39.2087 -0.0621
58.8800 -39.2220 -0.0614
58.9000 -39.2353 -0.0580
58.9200 -39.2487 -0.0593
58.9400 -39.2620 -0.0568
58.9600 -39.2753 -0.0550
58.9800 -39.2886 -0.0568
59.0000 -39.3020 -0.0564
59.0200 -39.3153 -0.0519
59.0400 -39.3287 -0.0537
59.0600 -39.3420 -0.0516
59.0800 -39.3554 -0.0498
59.1000 -39.3687 -0.0493
59.1200 -39.3821 -0.0484
59.1400 -39.3954 -0.0461
59.1600 -39.4087 -0.0471
59.1800 -39.4221 -0.0448
59.2000 -39.4354 -0.0425
59.2200 -39.4487 -0.0428
59.2400 -39.4620 -0.0422
59.2600 -39.4753 -0.0387
59.2800 -39.4887 -0.0394
59.3000 -39.5020 -0.0382
59.3200 -39.5153 -0.0358
59.3400 -39.5286 -0.0378
59.3600 -39.5420 -0.0344
59.3800 -39.5553 -0.0342
59.4000 -39.5686 -0.0328
59.4200 -39.5820 -0.0347
59.4400 -39.5954 -0.0297
59.4600 -39.6087 -0.0302
59.4800 -39.6221 -0.0274
59.5000 -39.6354 -0.0271
59.5200 -39.6487 -0.0270
59.5400 -39.6621 -0.0268
59.5600 -39.6754 -0.0219
59.5800 -39.6887 -0.0233
59.6000 -39.7020 -0.0187
59.6200 -39.7153 -0.0168
59.6400 -39.7287 -0.0168
59.6600 -39.7420 -0.0184
59.6800 -39.7553 -0.0150
59.7000 -39.7686 -0.0149
59.7200 -39.7820 -0.0143
59.7400 -39.7954 -0.0096
59.7600 -39.8087 -0.0103
59.7800 -39.8220 -0.0116
59.8000 -39.8354 -0.0093
59.8200 -39.8487 -0.0070
59.8400 -39.8621 -0.0070
59.8600 -39.8753 -0.0060
59.8800 -39.8886 -0.0060
59.9000 -39.9020 -0.0057
59.9200 -39.9154 -0.0020
59.9400 -39.9287 -0.0017
59.9600 -39.9420 -0.0022
59.9800 -39.9554 0.0019
60.0000 -39.9687 0.0017
60.0200 -39.9820 0.0018
60.0400 -39.9953 0.0046
60.0480 -40.0005 0.0091
