Raw Data
Time Displacement Force
(s) (mm) (N)
0.0000 0.0000 -0.3577
0.0200 -0.0001 -0.3617
0.0400 -0.0019 -0.3755
0.0600 -0.0092 -0.3729
0.0800 -0.0209 -0.3587
0.1000 -0.0334 -0.3607
0.1200 -0.0460 -0.3599
0.1400 -0.0595 -0.3618
0.1600 -0.0735 -0.3563
0.1800 -0.0877 -0.3553
0.2000 -0.1016 -0.3551
0.2200 -0.1152 -0.3565
0.2400 -0.1286 -0.3550
0.2600 -0.1419 -0.3549
0.2800 -0.1552 -0.3533
0.3000 -0.1685 -0.3550
0.3200 -0.1818 -0.3532
0.3400 -0.1952 -0.3521
0.3600 -0.2085 -0.3529
0.3800 -0.2218 -0.3511
0.4000 -0.2351 -0.3518
0.4200 -0.2485 -0.3490
0.4400 -0.2619 -0.3478
0.4600 -0.2752 -0.3477
0.4800 -0.2885 -0.3507
0.5000 -0.3019 -0.3468
0.5200 -0.3153 -0.3481
0.5400 -0.3286 -0.3443
0.5600 -0.3419 -0.3461
0.5800 -0.3552 -0.3446
0.6000 -0.3686 -0.3439
0.6200 -0.3820 -0.3449
0.6400 -0.3953 -0.3434
0.6600 -0.4086 -0.3388
0.6800 -0.4219 -0.3405
0.7000 -0.4352 -0.3388
0.7200 -0.4485 -0.3398
0.7400 -0.4618 -0.3379
0.7600 -0.4752 -0.3354
0.7800 -0.4885 -0.3342
0.8000 -0.5019 -0.3356
0.8200 -0.5152 -0.3348
0.8400 -0.5286 -0.3340
0.8600 -0.5419 -0.3306
0.8800 -0.5553 -0.3305
0.9000 -0.5686 -0.3296
0.9200 -0.5819 -0.3319
0.9400 -0.5952 -0.3292
0.9600 -0.6086 -0.3292
0.9800 -0.6219 -0.3288
1.0000 -0.6352 -0.3294
1.0200 -0.6485 -0.3267
1.0400 -0.6619 -0.3263
1.0600 -0.6752 -0.3239
1.0800 -0.6885 -0.3247
1.1000 -0.7018 -0.3250
1.1200 -0.7151 -0.3234
1.1400 -0.7285 -0.3226
1.1600 -0.7419 -0.3204
1.1800 -0.7552 -0.3234
1.2000 -0.7685 -0.3205
1.2200 -0.7819 -0.3231
1.2400 -0.7953 -0.3207
1.2600 -0.8086 -0.3212
1.2800 -0.8219 -0.3189
1.3000 -0.8353 -0.3201
1.3200 -0.8486 -0.3171
1.3400 -0.8620 -0.3185
1.3600 -0.8753 -0.3178
1.3800 -0.8886 -0.3183
1.4000 -0.9019 -0.3152
1.4200 -0.9152 -0.3159
1.4400 -0.9285 -0.3119
1.4600 -0.9418 -0.3137
1.4800 -0.9551 -0.3133
1.5000 -0.9685 -0.3093
1.5200 -0.9818 -0.3091
1.5400 -0.9952 -0.3079
1.5600 -1.0085 -0.3111
1.5800 -1.0219 -0.3090
1.6000 -1.0353 -0.3097
1.6200 -1.0486 -0.3066
1.6400 -1.0619 -0.3069
1.6600 -1.0752 -0.3060
1.6800 -1.0886 -0.3046
1.7000 -1.1019 -0.3039
1.7200 -1.1153 -0.3055
1.7400 -1.1286 -0.3046
1.7600 -1.1419 -0.3037
1.7800 -1.1552 -0.3028
1.8000 -1.1685 -0.3004
1.8200 -1.1818 -0.2988
1.8400 -1.1952 -0.2987
1.8600 -1.2085 -0.3000
1.8800 -1.2219 -0.2994
1.9000 -1.2352 -0.2999
1.9200 -1.2485 -0.2982
1.9400 -1.2619 -0.2963
1.9600 -1.2753 -0.2955
1.9800 -1.2886 -0.2930
2.0000 -1.3019 -0.2933
2.0200 -1.3152 -0.2944
2.0400 -1.3285 -0.2940
2.0600 -1.3419 -0.2919
2.0800 -1.3553 -0.2930
2.1000 -1.3686 -0.2911
2.1200 -1.3819 -0.2914
2.1400 -1.3952 -0.2923
2.1600 -1.4086 -0.2884
2.1800 -1.4219 -0.2876
2.2000 -1.4352 -0.2881
2.2200 -1.4485 -0.2873
2.2400 -1.4619 -0.2863
2.2600 -1.4752 -0.2860
2.2800 -1.4885 -0.2843
2.3000 -1.5019 -0.2845
2.3200 -1.5153 -0.2836
2.3400 -1.5287 -0.2834
2.3600 -1.5420 -0.2830
2.3800 -1.5553 -0.2838
2.4000 -1.5686 -0.2810
2.4200 -1.5820 -0.2825
2.4400 -1.5953 -0.2807
2.4600 -1.6086 -0.2814
2.4800 -1.6219 -0.2797
2.5000 -1.6352 -0.2799
2.5200 -1.6485 -0.2756
2.5400 -1.6618 -0.2780
2.5600 -1.6751 -0.2772
2.5800 -1.6885 -0.2756
2.6000 -1.7019 -0.2750
2.6200 -1.7152 -0.2756
2.6400 -1.7285 -0.2733
2.6600 -1.7419 -0.2746
2.6800 -1.7553 -0.2738
2.7000 -1.7686 -0.2721
2.7200 -1.7819 -0.2727
2.7400 -1.7952 -0.2738
2.7600 -1.8086 -0.2720
2.7800 -1.8219 -0.2713
2.8000 -1.8353 -0.2700
2.8200 -1.8486 -0.2676
2.8400 -1.8619 -0.2681
2.8600 -1.8752 -0.2670
2.8800 -1.8886 -0.2662
2.9000 -1.9018 -0.2670
2.9200 -1.9151 -0.2683
2.9400 -1.9285 -0.2657
2.9600 -1.9419 -0.2662
2.9800 -1.9552 -0.2622
3.0000 -1.9685 -0.2630
3.0200 -1.9818 -0.2616
3.0400 -1.9952 -0.2627
3.0600 -2.0086 -0.2588
3.0800 -2.0219 -0.2604
3.1000 -2.0352 -0.2600
3.1200 -2.0486 -0.2617
3.1400 -2.0619 -0.2604
3.1600 -2.0753 -0.2596
3.1800 -2.0886 -0.2589
3.2000 -2.1019 -0.2587
3.2200 -2.1153 -0.2576
3.2400 -2.1286 -0.2578
3.2600 -2.1419 -0.2569
3.2800 -2.1552 -0.2572
3.3000 -2.1685 -0.2558
3.3200 -2.1819 -0.2535
3.3400 -2.1952 -0.2555
3.3600 -2.2085 -0.2560
3.3800 -2.2219 -0.2560
3.4000 -2.2353 -0.2570
3.4200 -2.2486 -0.2532
3.4400 -2.2619 -0.2532
3.4600 -2.2752 -0.2526
3.4800 -2.2886 -0.2511
3.5000 -2.3019 -0.2485
3.5200 -2.3152 -0.2495
3.5400 -2.3285 -0.2478
3.5600 -2.3419 -0.2466
3.5800 -2.3552 -0.2476
3.6000 -2.3685 -0.2464
3.6200 -2.3818 -0.2460
3.6400 -2.3952 -0.2472
3.6600 -2.4085 -0.2445
3.6800 -2.4219 -0.2409
3.7000 -2.4352 -0.2434
3.7200 -2.4486 -0.2415
3.7400 -2.4619 -0.2409
3.7600 -2.4753 -0.2404
3.7800 -2.4886 -0.2407
3.8000 -2.5019 -0.2386
3.8200 -2.5152 -0.2364
3.8400 -2.5286 -0.2338
3.8600 -2.5419 -0.2332
3.8800 -2.5553 -0.2342
3.9000 -2.5686 -0.2315
3.9200 -2.5819 -0.2315
3.9400 -2.5952 -0.2299
3.9600 -2.6085 -0.2297
3.9800 -2.6218 -0.2291
4.0000 -2.6352 -0.2315
4.0200 -2.6485 -0.2285
4.0400 -2.6619 -0.2282
4.0600 -2.6753 -0.2275
4.0800 -2.6886 -0.2292
4.1000 -2.7019 -0.2280
4.1200 -2.7152 -0.2286
4.1400 -2.7286 -0.2263
4.1600 -2.7419 -0.2247
4.1800 -2.7552 -0.2266
4.2000 -2.7686 -0.2257
4.2200 -2.7819 -0.2256
4.2400 -2.7953 -0.2249
4.2600 -2.8086 -0.2240
4.2800 -2.8219 -0.2236
4.3000 -2.8353 -0.2243
4.3200 -2.8486 -0.2232
4.3400 -2.8619 -0.2248
4.3600 -2.8752 -0.2234
4.3800 -2.8885 -0.2224
4.4000 -2.9018 -0.2201
4.4200 -2.9152 -0.2223
4.4400 -2.9285 -0.2199
4.4600 -2.9418 -0.2208
4.4800 -2.9552 -0.2200
4.5000 -2.9686 -0.2205
4.5200 -2.9819 -0.2184
4.5400 -2.9952 -0.2181
4.5600 -3.0086 -0.2181
4.5800 -3.0220 -0.2168
4.6000 -3.0353 -0.2171
4.6200 -3.0486 -0.2179
4.6400 -3.0619 -0.2145
4.6600 -3.0752 -0.2164
4.6800 -3.0885 -0.2165
4.7000 -3.1019 -0.2155
4.7200 -3.1152 -0.2162
4.7400 -3.1285 -0.2139
4.7600 -3.1419 -0.2117
4.7800 -3.1553 -0.2120
4.8000 -3.1686 -0.2131
4.8200 -3.1819 -0.2115
4.8400 -3.1952 -0.2125
4.8600 -3.2086 -0.2113
4.8800 -3.2219 -0.2109
4.9000 -3.2352 -0.2094
4.9200 -3.2485 -0.2122
4.9400 -3.2619 -0.2096
4.9600 -3.2752 -0.2103
4.9800 -3.2886 -0.2103
5.0000 -3.3019 -0.2079
5.0200 -3.3152 -0.2083
5.0400 -3.3286 -0.2083
5.0600 -3.3419 -0.2083
5.0800 -3.3552 -0.2082
5.1000 -3.3685 -0.2073
5.1200 -3.3819 -0.2072
5.1400 -3.3952 -0.2076
5.1600 -3.4085 -0.2044
5.1800 -3.4219 -0.2044
5.2000 -3.4352 -0.2064
5.2200 -3.4486 -0.2047
5.2400 -3.4619 -0.2023
5.2600 -3.4752 -0.2019
5.2800 -3.4886 -0.2045
5.3000 -3.5020 -0.2019
5.3200 -3.5153 -0.2034
5.3400 -3.5286 -0.2000
5.3600 -3.5419 -0.1995
5.3800 -3.5552 -0.2006
5.4000 -3.5686 -0.2008
5.4200 -3.5819 -0.1999
5.4400 -3.5952 -0.2002
5.4600 -3.6085 -0.1997
5.4800 -3.6218 -0.1978
5.5000 -3.6352 -0.1985
5.5200 -3.6485 -0.1991
5.5400 -3.6618 -0.1974
5.5600 -3.6752 -0.1969
5.5800 -3.6886 -0.1963
5.6000 -3.7020 -0.1953
5.6200 -3.7153 -0.1973
5.6400 -3.7286 -0.1957
5.6600 -3.7420 -0.1960
5.6800 -3.7553 -0.1927
5.7000 -3.7686 -0.1936
5.7200 -3.7819 -0.1905
5.7400 -3.7952 -0.1933
5.7600 -3.8086 -0.1915
5.7800 -3.8219 -0.1911
5.8000 -3.8352 -0.1901
5.8200 -3.8485 -0.1913
5.8400 -3.8619 -0.1891
5.8600 -3.8752 -0.1903
5.8800 -3.8885 -0.1883
5.9000 -3.9018 -0.1872
5.9200 -3.9152 -0.1883
5.9400 -3.9286 -0.1873
5.9600 -3.9419 -0.1888
5.9800 -3.9552 -0.1872
6.0000 -3.9686 -0.1887
6.0200 -3.9819 -0.1851
6.0400 -3.9953 -0.1860
6.0600 -4.0086 -0.1846
6.0800 -4.0219 -0.1843
6.1000 -4.0353 -0.1829
6.1200 -4.0486 -0.1834
6.1400 -4.0619 -0.1804
6.1600 -4.0752 -0.1826
6.1800 -4.0885 -0.1842
6.2000 -4.1019 -0.1814
6.2200 -4.1152 -0.1795
6.2400 -4.1285 -0.1815
6.2600 -4.1418 -0.1783
6.2800 -4.1552 -0.1806
6.3000 -4.1686 -0.1803
6.3200 -4.1819 -0.1784
6.3400 -4.1952 -0.1793
6.3600 -4.2085 -0.1786
6.3800 -4.2219 -0.1758
6.4000 -4.2353 -0.1785
6.4200 -4.2486 -0.1775
6.4400 -4.2619 -0.1773
6.4600 -4.2752 -0.1756
6.4800 -4.2886 -0.1752
6.5000 -4.3019 -0.1725
6.5200 -4.3152 -0.1742
6.5400 -4.3285 -0.1743
6.5600 -4.3418 -0.1740
6.5800 -4.3552 -0.1745
6.6000 -4.3685 -0.1735
6.6200 -4.3818 -0.1732
6.6400 -4.3952 -0.1738
6.6600 -4.4086 -0.1737
6.6800 -4.4220 -0.1714
6.7000 -4.4353 -0.1735
6.7200 -4.4486 -0.1725
6.7400 -4.4619 -0.1716
6.7600 -4.4753 -0.1705
6.7800 -4.4886 -0.1709
6.8000 -4.5019 -0.1679
6.8200 -4.5152 -0.1710
6.8400 -4.5285 -0.1685
6.8600 -4.5418 -0.1662
6.8800 -4.5551 -0.1673
6.9000 -4.5685 -0.1694
6.9200 -4.5818 -0.1675
6.9400 -4.5952 -0.1662
6.9600 -4.6086 -0.1657
6.9800 -4.6219 -0.1640
7.0000 -4.6352 -0.1628
7.0200 -4.6486 -0.1638
7.0400 -4.6620 -0.1607
7.0600 -4.6753 -0.1627
7.0800 -4.6886 -0.1621
7.1000 -4.7019 -0.1609
7.1200 -4.7153 -0.1613
7.1400 -4.7286 -0.1615
7.1600 -4.7419 -0.1594
7.1800 -4.7552 -0.1594
7.2000 -4.7686 -0.1593
7.2200 -4.7819 -0.1585
7.2400 -4.7952 -0.1600
7.2600 -4.8085 -0.1584
7.2800 -4.8218 -0.1597
7.3000 -4.8352 -0.1594
7.3200 -4.8485 -0.1610
7.3400 -4.8618 -0.1581
7.3600 -4.8752 -0.1574
7.3800 -4.8886 -0.1570
7.4000 -4.9019 -0.1532
7.4200 -4.9152 -0.1556
7.4400 -4.9286 -0.1576
7.4600 -4.9419 -0.1557
7.4800 -4.9553 -0.1547
7.5000 -4.9686 -0.1558
7.5200 -4.9819 -0.1548
7.5400 -4.9952 -0.1548
7.5600 -5.0086 -0.1569
7.5800 -5.0219 -0.1538
7.6000 -5.0352 -0.1536
7.6200 -5.0485 -0.1535
7.6400 -5.0618 -0.1517
7.6600 -5.0752 -0.1521
7.6800 -5.0886 -0.1522
7.7000 -5.1019 -0.1510
7.7200 -5.1152 -0.1499
7.7400 -5.1286 -0.1512
7.7600 -5.1420 -0.1486
7.7800 -5.1553 -0.1513
7.8000 -5.1686 -0.1499
7.8200 -5.1819 -0.1489
7.8400 -5.1952 -0.1460
7.8600 -5.2086 -0.1507
7.8800 -5.2219 -0.1469
7.9000 -5.2352 -0.1489
7.9200 -5.2485 -0.1464
7.9400 -5.2619 -0.1453
7.9600 -5.2752 -0.1465
7.9800 -5.2885 -0.1473
8.0000 -5.3018 -0.1460
8.0200 -5.3152 -0.1456
8.0400 -5.3286 -0.1447
8.0600 -5.3419 -0.1437
8.0800 -5.3552 -0.1433
8.1000 -5.3686 -0.1426
8.1200 -5.3820 -0.1430
8.1400 -5.3953 -0.1426
8.1600 -5.4086 -0.1459
8.1800 -5.4219 -0.1405
8.2000 -5.4353 -0.1418
8.2200 -5.4486 -0.1413
8.2400 -5.4619 -0.1428
8.2600 -5.4752 -0.1405
8.2800 -5.4886 -0.1420
8.3000 -5.5019 -0.1384
8.3200 -5.5152 -0.1397
8.3400 -5.5285 -0.1407
8.3600 -5.5418 -0.1397
8.3800 -5.5552 -0.1373
8.4000 -5.5685 -0.1387
8.4200 -5.5819 -0.1389
8.4400 -5.5952 -0.1366
8.4600 -5.6086 -0.1387
8.4800 -5.6220 -0.1347
8.5000 -5.6353 -0.1369
8.5200 -5.6486 -0.1363
8.5400 -5.6619 -0.1355
8.5600 -5.6753 -0.1358
8.5800 -5.6886 -0.1357
8.6000 -5.7019 -0.1338
8.6200 -5.7152 -0.1329
8.6400 -5.7285 -0.1331
8.6600 -5.7419 -0.1331
8.6800 -5.7552 -0.1321
8.7000 -5.7685 -0.1323
8.7200 -5.7818 -0.1323
8.7400 -5.7951 -0.1315
8.7600 -5.8085 -0.1326
8.7800 -5.8218 -0.1295
8.8000 -5.8352 -0.1308
8.8200 -5.8486 -0.1296
8.8400 -5.8620 -0.1279
8.8600 -5.8753 -0.1267
8.8800 -5.8886 -0.1277
8.9000 -5.9019 -0.1268
8.9200 -5.9153 -0.1237
8.9400 -5.9286 -0.1268
8.9600 -5.9419 -0.1238
8.9800 -5.9552 -0.1250
9.0000 -5.9686 -0.1247
9.0200 -5.9819 -0.1244
9.0400 -5.9952 -0.1232
9.0600 -6.0085 -0.1264
9.0800 -6.0218 -0.1231
9.1000 -6.0352 -0.1240
9.1200 -6.0486 -0.1223
9.1400 -6.0619 -0.1227
9.1600 -6.0752 -0.1204
9.1800 -6.0886 -0.1228
9.2000 -6.1020 -0.1239
9.2200 -6.1153 -0.1221
9.2400 -6.1285 -0.1248
9.2600 -6.1418 -0.1223
9.2800 -6.1552 -0.1196
9.3000 -6.1685 -0.1207
9.3200 -6.1819 -0.1196
9.3400 -6.1952 -0.1180
9.3600 -6.2086 -0.1204
9.3800 -6.2219 -0.1180
9.4000 -6.2353 -0.1186
9.4200 -6.2485 -0.1196
9.4400 -6.2618 -0.1182
9.4600 -6.2752 -0.1148
9.4800 -6.2885 -0.1165
9.5000 -6.3019 -0.1167
9.5200 -6.3152 -0.1168
9.5400 -6.3286 -0.1185
9.5600 -6.3420 -0.1143
9.5800 -6.3553 -0.1143
9.6000 -6.3686 -0.1154
9.6200 -6.3819 -0.1151
9.6400 -6.3953 -0.1122
9.6600 -6.4086 -0.1147
9.6800 -6.4219 -0.1110
9.7000 -6.4352 -0.1118
9.7200 -6.4485 -0.1140
9.7400 -6.4618 -0.1118
9.7600 -6.4752 -0.1098
9.7800 -6.4885 -0.1119
9.8000 -6.5018 -0.1083
9.8200 -6.5152 -0.1092
9.8400 -6.5286 -0.1087
9.8600 -6.5419 -0.1081
9.8800 -6.5552 -0.1063
9.9000 -6.5686 -0.1097
9.9200 -6.5819 -0.1074
9.9400 -6.5953 -0.1064
9.9600 -6.6086 -0.1094
9.9800 -6.6219 -0.1089
10.0000 -6.6353 -0.1080
10.0200 -6.6486 -0.1078
10.0400 -6.6619 -0.1057
10.0600 -6.6752 -0.1059
10.0800 -6.6886 -0.1084
10.1000 -6.7019 -0.1050
10.1200 -6.7152 -0.1034
10.1400 -6.7285 -0.1055
10.1600 -6.7418 -0.1053
10.1800 -6.7552 -0.1024
10.2000 -6.7686 -0.1034
10.2200 -6.7819 -0.1040
10.2400 -6.7952 -0.1024
10.2600 -6.8085 -0.1030
10.2800 -6.8219 -0.1022
10.3000 -6.8353 -0.0997
10.3200 -6.8486 -0.1034
10.3400 -6.8619 -0.1003
10.3600 -6.8752 -0.1027
10.3800 -6.8886 -0.1013
10.4000 -6.9019 -0.1025
10.4200 -6.9152 -0.0990
10.4400 -6.9286 -0.1030
10.4600 -6.9419 -0.0979
10.4800 -6.9553 -0.0979
10.5000 -6.9685 -0.0977
10.5200 -6.9818 -0.0991
10.5400 -6.9952 -0.0962
10.5600 -7.0085 -0.0993
10.5800 -7.0219 -0.0964
10.6000 -7.0352 -0.0963
10.6200 -7.0486 -0.0964
10.6400 -7.0619 -0.0955
10.6600 -7.0753 -0.0949
10.6800 -7.0886 -0.0965
10.7000 -7.1019 -0.0965
10.7200 -7.1152 -0.0947
10.7400 -7.1286 -0.0945
10.7600 -7.1419 -0.0935
10.7800 -7.1552 -0.0910
10.8000 -7.1685 -0.0916
10.8200 -7.1819 -0.0923
10.8400 -7.1952 -0.0908
10.8600 -7.2085 -0.0923
10.8800 -7.2218 -0.0874
10.9000 -7.2352 -0.0885
10.9200 -7.2486 -0.0872
10.9400 -7.2619 -0.0883
10.9600 -7.2752 -0.0861
10.9800 -7.2886 -0.0865
11.0000 -7.3019 -0.0865
11.0200 -7.3153 -0.0854
11.0400 -7.3286 -0.0866
11.0600 -7.3419 -0.0859
11.0800 -7.3552 -0.0823
11.1000 -7.3686 -0.0842
11.1200 -7.3819 -0.0833
11.1400 -7.3952 -0.0840
11.1600 -7.4085 -0.0851
11.1800 -7.4219 -0.0825
11.2000 -7.4352 -0.0817
11.2200 -7.4485 -0.0842
11.2400 -7.4618 -0.0837
11.2600 -7.4752 -0.0807
11.2800 -7.4886 -0.0801
11.3000 -7.5019 -0.0823
11.3200 -7.5152 -0.0783
11.3400 -7.5285 -0.0805
11.3600 -7.5419 -0.0822
11.3800 -7.5553 -0.0791
11.4000 -7.5686 -0.0800
11.4200 -7.5819 -0.0824
11.4400 -7.5953 -0.0787
11.4600 -7.6086 -0.0804
11.4800 -7.6219 -0.0803
11.5000 -7.6353 -0.0790
11.5200 -7.6486 -0.0799
11.5400 -7.6620 -0.0775
11.5600 -7.6753 -0.0759
11.5800 -7.6885 -0.0770
11.6000 -7.7018 -0.0786
11.6200 -7.7152 -0.0755
11.6400 -7.7285 -0.0783
11.6600 -7.7418 -0.0762
11.6800 -7.7552 -0.0759
11.7000 -7.7685 -0.0771
11.7200 -7.7819 -0.0754
11.7400 -7.7953 -0.0727
11.7600 -7.8086 -0.0752
11.7800 -7.8219 -0.0738
11.8000 -7.8353 -0.0721
11.8200 -7.8486 -0.0740
11.8400 -7.8620 -0.0712
11.8600 -7.8753 -0.0711
11.8800 -7.8885 -0.0699
11.9000 -7.9019 -0.0724
11.9200 -7.9152 -0.0679
11.9400 -7.9285 -0.0714
11.9600 -7.9418 -0.0678
11.9800 -7.9552 -0.0691
12.0000 -7.9686 -0.0674
12.0200 -7.9819 -0.0703
12.0400 -7.9952 -0.0665
12.0600 -8.0085 -0.0690
12.0800 -8.0219 -0.0669
12.1000 -8.0353 -0.0661
12.1200 -8.0486 -0.0662
12.1400 -8.0619 -0.0667
12.1600 -8.0752 -0.0636
12.1800 -8.0886 -0.0658
12.2000 -8.1019 -0.0652
12.2200 -8.1152 -0.0620
12.2400 -8.1285 -0.0641
12.2600 -8.1419 -0.0650
12.2800 -8.1553 -0.0628
12.3000 -8.1686 -0.0652
12.3200 -8.1819 -0.0639
12.3400 -8.1952 -0.0633
12.3600 -8.2085 -0.0636
12.3800 -8.2219 -0.0621
12.4000 -8.2352 -0.0618
12.4200 -8.2485 -0.0623
12.4400 -8.2619 -0.0640
12.4600 -8.2753 -0.0613
12.4800 -8.2886 -0.0639
12.5000 -8.3019 -0.0611
12.5200 -8.3153 -0.0582
12.5400 -8.3286 -0.0569
12.5600 -8.3419 -0.0592
12.5800 -8.3552 -0.0569
12.6000 -8.3685 -0.0602
12.6200 -8.3819 -0.0592
12.6400 -8.3952 -0.0565
12.6600 -8.4085 -0.0568
12.6800 -8.4218 -0.0591
12.7000 -8.4351 -0.0553
12.7200 -8.4485 -0.0561
12.7400 -8.4619 -0.0532
12.7600 -8.4752 -0.0556
12.7800 -8.4885 -0.0549
12.8000 -8.5019 -0.0545
12.8200 -8.5152 -0.0526
12.8400 -8.5286 -0.0544
12.8600 -8.5419 -0.0522
12.8800 -8.5552 -0.0534
12.9000 -8.5686 -0.0526
12.9200 -8.5820 -0.0546
12.9400 -8.5953 -0.0527
12.9600 -8.6086 -0.0529
12.9800 -8.6219 -0.0529
13.0000 -8.6353 -0.0500
13.0200 -8.6486 -0.0504
13.0400 -8.6618 -0.0521
13.0600 -8.6752 -0.0493
13.0800 -8.6885 -0.0495
13.1000 -8.7019 -0.0503
13.1200 -8.7152 -0.0493
13.1400 -8.7285 -0.0485
13.1600 -8.7419 -0.0508
13.1800 -8.7553 -0.0480
13.2000 -8.7686 -0.0478
13.2200 -8.7819 -0.0515
13.2400 -8.7952 -0.0468
13.2600 -8.8086 -0.0476
13.2800 -8.8220 -0.0474
13.3000 -8.8353 -0.0460
13.3200 -8.8486 -0.0476
13.3400 -8.8619 -0.0463
13.3600 -8.8753 -0.0446
13.3800 -8.8886 -0.0449
13.4000 -8.9018 -0.0464
13.4200 -8.9152 -0.0451
13.4400 -8.9285 -0.0440
13.4600 -8.9419 -0.0467
13.4800 -8.9552 -0.0436
13.5000 -8.9685 -0.0416
13.5200 -8.9819 -0.0415
13.5400 -8.9953 -0.0401
13.5600 -9.0086 -0.0394
13.5800 -9.0219 -0.0410
13.6000 -9.0352 -0.0381
13.6200 -9.0486 -0.0386
13.6400 -9.0620 -0.0400
13.6600 -9.0753 -0.0375
13.6800 -9.0886 -0.0375
13.7000 -9.1019 -0.0373
13.7200 -9.1153 -0.0344
13.7400 -9.1286 -0.0368
13.7600 -9.1418 -0.0369
13.7800 -9.1552 -0.0352
13.8000 -9.1685 -0.0373
13.8200 -9.1819 -0.0369
13.8400 -9.1952 -0.0359
13.8600 -9.2085 -0.0354
13.8800 -9.2219 -0.0357
13.9000 -9.2353 -0.0340
13.9200 -9.2486 -0.0343
13.9400 -9.2619 -0.0356
13.9600 -9.2753 -0.0351
13.9800 -9.2886 -0.0347
14.0000 -9.3020 -0.0364
14.0200 -9.3153 -0.0335
14.0400 -9.3285 -0.0327
14.0600 -9.3419 -0.0341
14.0800 -9.3552 -0.0305
14.1000 -9.3685 -0.0330
14.1200 -9.3818 -0.0325
14.1400 -9.3951 -0.0312
14.1600 -9.4085 -0.0287
14.1800 -9.4219 -0.0314
14.2000 -9.4352 -0.0282
14.2200 -9.4485 -0.0305
14.2400 -9.4619 -0.0285
14.2600 -9.4753 -0.0294
14.2800 -9.4886 -0.0264
14.3000 -9.5019 -0.0299
14.3200 -9.5152 -0.0249
14.3400 -9.5286 -0.0278
14.3600 -9.5420 -0.0261
14.3800 -9.5553 -0.0258
14.4000 -9.5686 -0.0242
14.4200 -9.5819 -0.0249
14.4400 -9.5953 -0.0231
14.4600 -9.6086 -0.0227
14.4800 -9.6219 -0.0246
14.5000 -9.6352 -0.0216
14.5200 -9.6485 -0.0232
14.5400 -9.6619 -0.0228
14.5600 -9.6752 -0.0208
14.5800 -9.6885 -0.0201
14.6000 -9.7019 -0.0238
14.6200 -9.7153 -0.0205
14.6400 -9.7286 -0.0230
14.6600 -9.7419 -0.0214
14.6800 -9.7552 -0.0208
14.7000 -9.7686 -0.0193
14.7200 -9.7819 -0.0194
14.7400 -9.7953 -0.0171
14.7600 -9.8086 -0.0192
14.7800 -9.8219 -0.0173
14.8000 -9.8352 -0.0159
14.8200 -9.8485 -0.0158
14.8400 -9.8618 -0.0156
14.8600 -9.8751 -0.0139
14.8800 -9.8885 -0.0141
14.9000 -9.9019 -0.0168
14.9200 -9.9152 -0.0162
14.9400 -9.9285 -0.0151
14.9600 -9.9419 -0.0146
14.9800 -9.9553 -0.0115
15.0000 -9.9686 -0.0117
15.0200 -9.9819 -0.0123
15.0400 -9.9952 -0.0140
15.0600 -10.0086 -0.0128
15.0800 -10.0219 -0.0121
15.1000 -10.0352 -0.0109
15.1200 -10.0485 -0.0096
15.1400 -10.0619 -0.0105
15.1600 -10.0752 -0.0089
15.1800 -10.0885 -0.0081
15.2000 -10.1018 -0.0103
15.2200 -10.1152 -0.0099
15.2400 -10.1285 -0.0087
15.2600 -10.1419 -0.0067
15.2800 -10.1552 -0.0065
15.3000 -10.1686 -0.0059
15.3200 -10.1819 -0.0067
15.3400 -10.1953 -0.0067
15.3600 -10.2086 -0.0070
15.3800 -10.2219 -0.0075
15.4000 -10.2352 -0.0061
15.4200 -10.2486 -0.0055
15.4400 -10.2620 -0.0059
15.4600 -10.2753 -0.0052
15.4800 -10.2886 -0.0041
15.5000 -10.3019 -0.0030
15.5200 -10.3152 -0.0020
15.5400 -10.3285 -0.0010
15.5600 -10.3418 -0.0027
15.5800 -10.3551 -0.0029
15.6000 -10.3685 -0.0014
15.6200 -10.3819 -0.0011
15.6400 -10.3952 0.0001
15.6600 -10.4085 0.0009
15.6800 -10.4219 -0.0023
15.7000 -10.4353 -0.0002
15.7200 -10.4486 0.0014
15.7400 -10.4620 0.0003
15.7600 -10.4753 0.0005
15.7800 -10.4886 0.0023
15.8000 -10.5020 0.0013
15.8200 -10.5153 0.0017
15.8400 -10.5286 0.0016
15.8600 -10.5419 0.0045
15.8800 -10.5552 0.0044
15.9000 -10.5685 0.0081
15.9200 -10.5818 0.0033
15.9400 -10.5951 0.0065
15.9600 -10.6085 0.0043
15.9800 -10.6218 0.0038
16.0000 -10.6352 0.0047
16.0200 -10.6485 0.0076
16.0400 -10.6619 0.0057
16.0600 -10.6753 0.0079
16.0800 -10.6886 0.0087
16.1000 -10.7019 0.0068
16.1200 -10.7152 0.0079
16.1400 -10.7286 0.0081
16.1600 -10.7419 0.0080
16.1800 -10.7553 0.0069
16.2000 -10.7685 0.0107
16.2200 -10.7819 0.0076
16.2400 -10.7952 0.0105
16.2600 -10.8085 0.0115
16.2800 -10.8218 0.0114
16.3000 -10.8351 0.0111
16.3200 -10.8485 0.0138
16.3400 -10.8619 0.0119
16.3600 -10.8752 0.0118
16.3800 -10.8885 0.0110
16.4000 -10.9019 0.0122
16.4200 -10.9153 0.0123
16.4400 -10.9286 0.0151
16.4600 -10.9419 0.0131
16.4800 -10.9552 0.0153
16.5000 -10.9685 0.0151
16.5200 -10.9819 0.0145
16.5400 -10.9952 0.0152
16.5600 -11.0086 0.0173
16.5800 -11.0219 0.0157
16.6000 -11.0353 0.0168
16.6200 -11.0486 0.0163
16.6400 -11.0619 0.0171
16.6600 -11.0752 0.0182
16.6800 -11.0885 0.0183
16.7000 -11.1019 0.0166
16.7200 -11.1152 0.0173
16.7400 -11.1285 0.0189
16.7600 -11.1419 0.0185
16.7800 -11.1553 0.0211
16.8000 -11.1687 0.0210
16.8200 -11.1820 0.0188
16.8400 -11.1953 0.0191
16.8600 -11.2086 0.0212
16.8800 -11.2220 0.0203
16.9000 -11.2353 0.0224
16.9200 -11.2486 0.0216
16.9400 -11.2619 0.0218
16.9600 -11.2752 0.0214
16.9800 -11.2885 0.0228
17.0000 -11.3018 0.0213
17.0200 -11.3151 0.0230
17.0400 -11.3285 0.0231
17.0600 -11.3419 0.0256
17.0800 -11.3552 0.0260
17.1000 -11.3685 0.0275
17.1200 -11.3819 0.0269
17.1400 -11.3952 0.0275
17.1600 -11.4086 0.0291
17.1800 -11.4219 0.0290
17.2000 -11.4352 0.0295
17.2200 -11.4486 0.0290
17.2400 -11.4619 0.0290
17.2600 -11.4753 0.0286
17.2800 -11.4886 0.0289
17.3000 -11.5019 0.0290
17.3200 -11.5152 0.0319
17.3400 -11.5286 0.0316
17.3600 -11.5419 0.0323
17.3800 -11.5552 0.0316
17.4000 -11.5685 0.0331
17.4200 -11.5819 0.0344
17.4400 -11.5952 0.0329
17.4600 -11.6085 0.0354
17.4800 -11.6218 0.0340
17.5000 -11.6352 0.0349
17.5200 -11.6486 0.0349
17.5400 -11.6619 0.0346
17.5600 -11.6752 0.0344
17.5800 -11.6885 0.0361
17.6000 -11.7019 0.0352
17.6200 -11.7153 0.0369
17.6400 -11.7286 0.0374
17.6600 -11.7419 0.0369
17.6800 -11.7553 0.0379
17.7000 -11.7686 0.0380
17.7200 -11.7819 0.0402
17.7400 -11.7952 0.0393
17.7600 -11.8085 0.0418
17.7800 -11.8219 0.0412
17.8000 -11.8352 0.0411
17.8200 -11.8485 0.0425
17.8400 -11.8619 0.0393
17.8600 -11.8752 0.0415
17.8800 -11.8886 0.0420
17.9000 -11.9019 0.0422
17.9200 -11.9152 0.0407
17.9400 -11.9286 0.0446
17.9600 -11.9419 0.0443
17.9800 -11.9552 0.0458
18.0000 -11.9685 0.0434
18.0200 -11.9819 0.0455
18.0400 -11.9952 0.0445
18.0600 -12.0086 0.0485
18.0800 -12.0219 0.0450
18.1000 -12.0352 0.0484
18.1200 -12.0485 0.0483
18.1400 -12.0619 0.0495
18.1600 -12.0753 0.0510
18.1800 -12.0886 0.0510
18.2000 -12.1019 0.0505
18.2200 -12.1152 0.0492
18.2400 -12.1286 0.0514
18.2600 -12.1419 0.0510
18.2800 -12.1552 0.0531
18.3000 -12.1685 0.0526
18.3200 -12.1819 0.0539
18.3400 -12.1953 0.0519
18.3600 -12.2086 0.0545
18.3800 -12.2219 0.0512
18.4000 -12.2352 0.0545
18.4200 -12.2485 0.0552
18.4400 -12.2618 0.0565
18.4600 -12.2752 0.0553
18.4800 -12.2885 0.0564
18.5000 -12.3019 0.0559
18.5200 -12.3152 0.0566
18.5400 -12.3286 0.0558
18.5600 -12.3419 0.0564
18.5800 -12.3552 0.0569
18.6000 -12.3686 0.0599
18.6200 -12.3820 0.0579
18.6400 -12.3952 0.0582
18.6600 -12.4085 0.0592
18.6800 -12.4219 0.0602
18.7000 -12.4353 0.0589
18.7200 -12.4486 0.0588
18.7400 -12.4619 0.0599
18.7600 -12.4753 0.0606
18.7800 -12.4886 0.0591
18.8000 -12.5019 0.0598
18.8200 -12.5152 0.0600
18.8400 -12.5285 0.0610
18.8600 -12.5418 0.0613
18.8800 -12.5552 0.0609
18.9000 -12.5685 0.0616
18.9200 -12.5818 0.0609
18.9400 -12.5952 0.0595
18.9600 -12.6086 0.0609
18.9800 -12.6219 0.0615
19.0000 -12.6352 0.0616
19.0200 -12.6486 0.0619
19.0400 -12.6619 0.0638
19.0600 -12.6753 0.0630
19.0800 -12.6886 0.0643
19.1000 -12.7019 0.0653
19.1200 -12.7152 0.0653
19.1400 -12.7285 0.0662
19.1600 -12.7419 0.0660
19.1800 -12.7552 0.0652
19.2000 -12.7685 0.0645
19.2200 -12.7819 0.0667
19.2400 -12.7953 0.0671
19.2600 -12.8086 0.0690
19.2800 -12.8219 0.0688
19.3000 -12.8352 0.0676
19.3200 -12.8486 0.0691
19.3400 -12.8619 0.0700
19.3600 -12.8752 0.0693
19.3800 -12.8885 0.0690
19.4000 -12.9019 0.0696
19.4200 -12.9152 0.0710
19.4400 -12.9286 0.0737
19.4600 -12.9419 0.0731
19.4800 -12.9552 0.0718
19.5000 -12.9686 0.0723
19.5200 -12.9819 0.0731
19.5400 -12.9952 0.0723
19.5600 -13.0085 0.0745
19.5800 -13.0218 0.0733
19.6000 -13.0352 0.0749
19.6200 -13.0485 0.0725
19.6400 -13.0619 0.0753
19.6600 -13.0752 0.0744
19.6800 -13.0886 0.0773
19.7000 -13.1019 0.0777
19.7200 -13.1153 0.0790
19.7400 -13.1286 0.0771
19.7600 -13.1419 0.0771
19.7800 -13.1553 0.0781
19.8000 -13.1686 0.0787
19.8200 -13.1819 0.0797
19.8400 -13.1952 0.0810
19.8600 -13.2086 0.0814
19.8800 -13.2219 0.0813
19.9000 -13.2351 0.0802
19.9200 -13.2485 0.0809
19.9400 -13.2618 0.0833
19.9600 -13.2752 0.0815
19.9800 -13.2885 0.0850
20.0000 -13.3018 0.0832
20.0200 -13.3152 0.0857
20.0400 -13.3286 0.0837
20.0600 -13.3420 0.0880
20.0800 -13.3553 0.0863
20.1000 -13.3686 0.0866
20.1200 -13.3819 0.0869
20.1400 -13.3953 0.0871
20.1600 -13.4086 0.0881
20.1800 -13.4219 0.0897
20.2000 -13.4352 0.0902
20.2200 -13.4486 0.0901
20.2400 -13.4619 0.0888
20.2600 -13.4752 0.0910
20.2800 -13.4885 0.0912
20.3000 -13.5019 0.0934
20.3200 -13.5152 0.0935
20.3400 -13.5285 0.0925
20.3600 -13.5418 0.0941
20.3800 -13.5552 0.0955
20.4000 -13.5686 0.0964
20.4200 -13.5819 0.0977
20.4400 -13.5952 0.0951
20.4600 -13.6086 0.0969
20.4800 -13.6219 0.0967
20.5000 -13.6353 0.0971
20.5200 -13.6486 0.0994
20.5400 -13.6619 0.0978
20.5600 -13.6752 0.0987
20.5800 -13.6886 0.0984
20.6000 -13.7019 0.1003
20.6200 -13.7152 0.0996
20.6400 -13.7285 0.1008
20.6600 -13.7418 0.1009
20.6800 -13.7552 0.1005
20.7000 -13.7685 0.1000
20.7200 -13.7818 0.1017
20.7400 -13.7952 0.1011
20.7600 -13.8086 0.1020
20.7800 -13.8219 0.1014
20.8000 -13.8352 0.1011
20.8200 -13.8485 0.1001
20.8400 -13.8619 0.1023
20.8600 -13.8753 0.1051
20.8800 -13.8886 0.1034
20.9000 -13.9019 0.1025
20.9200 -13.9152 0.1033
20.9400 -13.9286 0.1031
20.9600 -13.9419 0.1053
20.9800 -13.9552 0.1042
21.0000 -13.9685 0.1044
21.0200 -13.9818 0.1062
21.0400 -13.9952 0.1070
21.0600 -14.0085 0.1061
21.0800 -14.0218 0.1039
21.1000 -14.0352 0.1030
21.1200 -14.0486 0.1030
21.1400 -14.0620 0.1053
21.1600 -14.0753 0.1048
21.1800 -14.0886 0.1054
21.2000 -14.1019 0.1077
21.2200 -14.1153 0.1079
21.2400 -14.1286 0.1064
21.2600 -14.1419 0.1093
21.2800 -14.1552 0.1093
21.3000 -14.1685 0.1085
21.3200 -14.1819 0.1068
21.3400 -14.1952 0.1086
21.3600 -14.2085 0.1084
21.3800 -14.2218 0.1111
21.4000 -14.2352 0.1105
21.4200 -14.2485 0.1103
21.4400 -14.2619 0.1108
21.4600 -14.2752 0.1128
21.4800 -14.2886 0.1135
21.5000 -14.3019 0.1164
21.5200 -14.3152 0.1151
21.5400 -14.3286 0.1140
21.5600 -14.3419 0.1145
21.5800 -14.3553 0.1134
21.6000 -14.3686 0.1161
21.6200 -14.3819 0.1148
21.6400 -14.3953 0.1168
21.6600 -14.4086 0.1182
21.6800 -14.4219 0.1218
21.7000 -14.4352 0.1210
21.7200 -14.4485 0.1221
21.7400 -14.4618 0.1215
21.7600 -14.4752 0.1228
21.7800 -14.4885 0.1230
21.8000 -14.5018 0.1259
21.8200 -14.5152 0.1245
21.8400 -14.5286 0.1261
21.8600 -14.5419 0.1265
21.8800 -14.5553 0.1263
21.9000 -14.5686 0.1269
21.9200 -14.5819 0.1276
21.9400 -14.5953 0.1293
21.9600 -14.6086 0.1295
21.9800 -14.6219 0.1308
22.0000 -14.6352 0.1298
22.0200 -14.6485 0.1318
22.0400 -14.6619 0.1329
22.0600 -14.6752 0.1328
22.0800 -14.6885 0.1305
22.1000 -14.7018 0.1337
22.1200 -14.7152 0.1319
22.1400 -14.7286 0.1332
22.1600 -14.7419 0.1340
22.1800 -14.7552 0.1352
22.2000 -14.7686 0.1360
22.2200 -14.7820 0.1383
22.2400 -14.7953 0.1352
22.2600 -14.8086 0.1364
22.2800 -14.8219 0.1356
22.3000 -14.8352 0.1385
22.3200 -14.8486 0.1366
22.3400 -14.8619 0.1363
22.3600 -14.8752 0.1357
22.3800 -14.8885 0.1390
22.4000 -14.9019 0.1372
22.4200 -14.9152 0.1373
22.4400 -14.9285 0.1378
22.4600 -14.9418 0.1386
22.4800 -14.9552 0.1395
22.5000 -14.9686 0.1402
22.5200 -14.9819 0.1403
22.5400 -14.9952 0.1406
22.5600 -15.0086 0.1401
22.5800 -15.0220 0.1406
22.6000 -15.0353 0.1424
22.6200 -15.0486 0.1409
22.6400 -15.0619 0.1406
22.6600 -15.0753 0.1384
22.6800 -15.0886 0.1405
22.7000 -15.1019 0.1396
22.7200 -15.1152 0.1420
22.7400 -15.1286 0.1407
22.7600 -15.1419 0.1422
22.7800 -15.1552 0.1424
22.8000 -15.1685 0.1430
22.8200 -15.1818 0.1427
22.8400 -15.1952 0.1434
22.8600 -15.2085 0.1437
22.8800 -15.2218 0.1438
22.9000 -15.2352 0.1441
22.9200 -15.2486 0.1429
22.9400 -15.2620 0.1416
22.9600 -15.2753 0.1440
22.9800 -15.2886 0.1451
23.0000 -15.3019 0.1454
23.0200 -15.3153 0.1447
23.0400 -15.3286 0.1467
23.0600 -15.3419 0.1449
23.0800 -15.3552 0.1465
23.1000 -15.3685 0.1464
23.1200 -15.3819 0.1476
23.1400 -15.3952 0.1475
23.1600 -15.4085 0.1485
23.1800 -15.4218 0.1487
23.2000 -15.4352 0.1513
23.2200 -15.4485 0.1541
23.2400 -15.4618 0.1532
23.2600 -15.4752 0.1549
23.2800 -15.4886 0.1553
23.3000 -15.5020 0.1560
23.3200 -15.5153 0.1565
23.3400 -15.5286 0.1569
23.3600 -15.5419 0.1576
23.3800 -15.5553 0.1569
23.4000 -15.5686 0.1544
23.4200 -15.5819 0.1570
23.4400 -15.5952 0.1585
23.4600 -15.6086 0.1627
23.4800 -15.6219 0.1608
23.5000 -15.6352 0.1627
23.5200 -15.6485 0.1639
23.5400 -15.6618 0.1626
23.5600 -15.6752 0.1644
23.5800 -15.6886 0.1631
23.6000 -15.7019 0.1629
23.6200 -15.7152 0.1638
23.6400 -15.7286 0.1639
23.6600 -15.7420 0.1649
23.6800 -15.7553 0.1665
23.7000 -15.7685 0.1659
23.7200 -15.7819 0.1653
23.7400 -15.7952 0.1668
23.7600 -15.8086 0.1688
23.7800 -15.8219 0.1668
23.8000 -15.8352 0.1676
23.8200 -15.8486 0.1659
23.8400 -15.8619 0.1668
23.8600 -15.8753 0.1694
23.8800 -15.8885 0.1698
23.9000 -15.9018 0.1704
23.9200 -15.9152 0.1718
23.9400 -15.9285 0.1683
23.9600 -15.9419 0.1701
23.9800 -15.9552 0.1705
24.0000 -15.9686 0.1724
24.0200 -15.9820 0.1696
24.0400 -15.9953 0.1736
24.0600 -16.0086 0.1745
24.0800 -16.0219 0.1758
24.1000 -16.0353 0.1743
24.1200 -16.0486 0.1754
24.1400 -16.0619 0.1764
24.1600 -16.0752 0.1795
24.1800 -16.0885 0.1791
24.2000 -16.1019 0.1773
24.2200 -16.1152 0.1785
24.2400 -16.1285 0.1787
24.2600 -16.1418 0.1789
24.2800 -16.1552 0.1812
24.3000 -16.1685 0.1837
24.3200 -16.1819 0.1838
24.3400 -16.1952 0.1849
24.3600 -16.2085 0.1844
24.3800 -16.2219 0.1840
24.4000 -16.2353 0.1879
24.4200 -16.2486 0.1859
24.4400 -16.2619 0.1866
24.4600 -16.2753 0.1875
24.4800 -16.2886 0.1873
24.5000 -16.3019 0.1888
24.5200 -16.3152 0.1879
24.5400 -16.3286 0.1917
24.5600 -16.3419 0.1886
24.5800 -16.3552 0.1917
24.6000 -16.3685 0.1895
24.6200 -16.3818 0.1923
24.6400 -16.3952 0.1929
24.6600 -16.4085 0.1941
24.6800 -16.4219 0.1922
24.7000 -16.4352 0.1956
24.7200 -16.4485 0.1952
24.7400 -16.4619 0.1944
24.7600 -16.4752 0.1948
24.7800 -16.4886 0.1969
24.8000 -16.5019 0.1957
24.8200 -16.5152 0.1961
24.8400 -16.5286 0.1969
24.8600 -16.5419 0.1958
24.8800 -16.5553 0.1984
24.9000 -16.5686 0.1966
24.9200 -16.5819 0.1988
24.9400 -16.5953 0.2008
24.9600 -16.6085 0.2004
24.9800 -16.6219 0.1980
25.0000 -16.6352 0.2013
25.0200 -16.6486 0.1996
25.0400 -16.6619 0.1998
25.0600 -16.6752 0.2027
25.0800 -16.6886 0.2028
25.1000 -16.7019 0.2009
25.1200 -16.7153 0.2023
25.1400 -16.7286 0.2042
25.1600 -16.7419 0.2023
25.1800 -16.7552 0.2053
25.2000 -16.7686 0.2048
25.2200 -16.7819 0.2058
25.2400 -16.7952 0.2073
25.2600 -16.8086 0.2077
25.2800 -16.8219 0.2047
25.3000 -16.8352 0.2079
25.3200 -16.8485 0.2070
25.3400 -16.8618 0.2070
25.3600 -16.8752 0.2068
25.3800 -16.8886 0.2094
25.4000 -16.9019 0.2080
25.4200 -16.9152 0.2099
25.4400 -16.9285 0.2089
25.4600 -16.9419 0.2089
25.4800 -16.9553 0.2114
25.5000 -16.9686 0.2110
25.5200 -16.9819 0.2098
25.5400 -16.9952 0.2121
25.5600 -17.0085 0.2119
25.5800 -17.0218 0.2120
25.6000 -17.0352 0.2125
25.6200 -17.0485 0.2130
25.6400 -17.0619 0.2137
25.6600 -17.0752 0.2160
25.6800 -17.0885 0.2169
25.7000 -17.1018 0.2175
25.7200 -17.1152 0.2186
25.7400 -17.1285 0.2190
25.7600 -17.1419 0.2192
25.7800 -17.1552 0.2197
25.8000 -17.1685 0.2197
25.8200 -17.1819 0.2198
25.8400 -17.1953 0.2206
25.8600 -17.2086 0.2217
25.8800 -17.2219 0.2205
25.9000 -17.2352 0.2215
25.9200 -17.2486 0.2251
25.9400 -17.2619 0.2236
25.9600 -17.2752 0.2264
25.9800 -17.2886 0.2237
26.0000 -17.3019 0.2244
26.0200 -17.3153 0.2263
26.0400 -17.3286 0.2273
26.0600 -17.3419 0.2259
26.0800 -17.3552 0.2296
26.1000 -17.3685 0.2291
26.1200 -17.3819 0.2293
26.1400 -17.3952 0.2284
26.1600 -17.4085 0.2321
26.1800 -17.4219 0.2271
26.2000 -17.4353 0.2316
26.2200 -17.4486 0.2285
26.2400 -17.4619 0.2299
26.2600 -17.4753 0.2311
26.2800 -17.4886 0.2336
26.3000 -17.5020 0.2308
26.3200 -17.5153 0.2354
26.3400 -17.5286 0.2332
26.3600 -17.5419 0.2332
26.3800 -17.5552 0.2357
26.4000 -17.5686 0.2375
26.4200 -17.5819 0.2375
26.4400 -17.5952 0.2371
26.4600 -17.6086 0.2384
26.4800 -17.6219 0.2368
26.5000 -17.6352 0.2397
26.5200 -17.6486 0.2375
26.5400 -17.6619 0.2388
26.5600 -17.6753 0.2389
26.5800 -17.6886 0.2425
26.6000 -17.7019 0.2378
26.6200 -17.7152 0.2414
26.6400 -17.7286 0.2382
26.6600 -17.7419 0.2412
26.6800 -17.7552 0.2423
26.7000 -17.7686 0.2453
26.7200 -17.7819 0.2420
26.7400 -17.7952 0.2447
26.7600 -17.8085 0.2451
26.7800 -17.8218 0.2438
26.8000 -17.8352 0.2505
26.8200 -17.8485 0.2500
26.8400 -17.8619 0.2443
26.8600 -17.8752 0.2482
26.8800 -17.8885 0.2504
26.9000 -17.9019 0.2486
26.9200 -17.9153 0.2499
26.9400 -17.9286 0.2511
26.9600 -17.9419 0.2496
26.9800 -17.9552 0.2518
27.0000 -17.9686 0.2550
27.0200 -17.9819 0.2535
27.0400 -17.9952 0.2534
27.0600 -18.0086 0.2542
27.0800 -18.0219 0.2562
27.1000 -18.0352 0.2575
27.1200 -18.0485 0.2584
27.1400 -18.0618 0.2565
27.1600 -18.0751 0.2561
27.1800 -18.0885 0.2573
27.2000 -18.1019 0.2582
27.2200 -18.1152 0.2592
27.2400 -18.1285 0.2601
27.2600 -18.1419 0.2586
27.2800 -18.1553 0.2605
27.3000 -18.1686 0.2626
27.3200 -18.1819 0.2630
27.3400 -18.1953 0.2622
27.3600 -18.2086 0.2617
27.3800 -18.2220 0.2622
27.4000 -18.2353 0.2633
27.4200 -18.2486 0.2671
27.4400 -18.2619 0.2642
27.4600 -18.2752 0.2638
27.4800 -18.2886 0.2651
27.5000 -18.3019 0.2648
27.5200 -18.3152 0.2673
27.5400 -18.3285 0.2693
27.5600 -18.3419 0.2658
27.5800 -18.3552 0.2669
27.6000 -18.3685 0.2690
27.6200 -18.3819 0.2665
27.6400 -18.3952 0.2676
27.6600 -18.4086 0.2676
27.6800 -18.4219 0.2663
27.7000 -18.4352 0.2704
27.7200 -18.4486 0.2699
27.7400 -18.4620 0.2724
27.7600 -18.4753 0.2722
27.7800 -18.4886 0.2746
27.8000 -18.5019 0.2724
27.8200 -18.5153 0.2748
27.8400 -18.5286 0.2743
27.8600 -18.5418 0.2748
27.8800 -18.5552 0.2747
27.9000 -18.5685 0.2781
27.9200 -18.5819 0.2766
27.9400 -18.5952 0.2787
27.9600 -18.6085 0.2805
27.9800 -18.6219 0.2806
28.0000 -18.6353 0.2796
28.0200 -18.6486 0.2827
28.0400 -18.6619 0.2799
28.0600 -18.6752 0.2792
28.0800 -18.6886 0.2816
28.1000 -18.7019 0.2819
28.1200 -18.7153 0.2838
28.1400 -18.7286 0.2836
28.1600 -18.7419 0.2825
28.1800 -18.7552 0.2829
28.2000 -18.7686 0.2869
28.2200 -18.7818 0.2840
28.2400 -18.7952 0.2857
28.2600 -18.8085 0.2868
28.2800 -18.8219 0.2894
28.3000 -18.8352 0.2858
28.3200 -18.8485 0.2920
28.3400 -18.8619 0.2887
28.3600 -18.8753 0.2903
28.3800 -18.8886 0.2890
28.4000 -18.9019 0.2892
28.4200 -18.9153 0.2911
28.4400 -18.9286 0.2943
28.4600 -18.9420 0.2931
28.4800 -18.9553 0.2955
28.5000 -18.9685 0.2963
28.5200 -18.9818 0.2954
28.5400 -18.9952 0.2956
28.5600 -19.0085 0.2984
28.5800 -19.0218 0.2983
28.6000 -19.0352 0.2982
28.6200 -19.0485 0.3022
28.6400 -19.0619 0.2993
28.6600 -19.0752 0.3013
28.6800 -19.0885 0.3020
28.7000 -19.1019 0.3010
28.7200 -19.1153 0.2996
28.7400 -19.1286 0.3042
28.7600 -19.1419 0.3037
28.7800 -19.1552 0.3043
28.8000 -19.1686 0.3073
28.8200 -19.1820 0.3065
28.8400 -19.1953 0.3056
28.8600 -19.2086 0.3089
28.8800 -19.2219 0.3084
28.9000 -19.2353 0.3079
28.9200 -19.2486 0.3114
28.9400 -19.2619 0.3088
28.9600 -19.2752 0.3120
28.9800 -19.2885 0.3125
29.0000 -19.3019 0.3110
29.0200 -19.3152 0.3110
29.0400 -19.3285 0.3137
29.0600 -19.3418 0.3153
29.0800 -19.3552 0.3141
29.1000 -19.3686 0.3181
29.1200 -19.3819 0.3147
29.1400 -19.3952 0.3150
29.1600 -19.4086 0.3152
29.1800 -19.4220 0.3158
29.2000 -19.4353 0.3167
29.2200 -19.4486 0.3175
29.2400 -19.4619 0.3188
29.2600 -19.4752 0.3194
29.2800 -19.4886 0.3218
29.3000 -19.5018 0.3211
29.3200 -19.5151 0.3239
29.3400 -19.5285 0.3213
29.3600 -19.5419 0.3238
29.3800 -19.5552 0.3243
29.4000 -19.5685 0.3287
29.4200 -19.5819 0.3273
29.4400 -19.5952 0.3276
29.4600 -19.6086 0.3306
29.4800 -19.6219 0.3326
29.5000 -19.6352 0.3304
29.5200 -19.6486 0.3317
29.5400 -19.6619 0.3298
29.5600 -19.6752 0.3305
29.5800 -19.6885 0.3326
29.6000 -19.7019 0.3311
29.6200 -19.7152 0.3319
29.6400 -19.7285 0.3331
29.6600 -19.7418 0.3324
29.6800 -19.7551 0.3314
29.7000 -19.7685 0.3336
29.7200 -19.7819 0.3336
29.7400 -19.7952 0.3339
29.7600 -19.8085 0.3352
29.7800 -19.8219 0.3353
29.8000 -19.8353 0.3344
29.8200 -19.8486 0.3377
29.8400 -19.8619 0.3247
29.8600 -19.8752 0.2889
29.8800 -19.8886 0.2383
29.9000 -19.9020 0.1819
29.9200 -19.9153 0.1263
29.9400 -19.9286 0.0824
29.9600 -19.9419 0.0359
29.9800 -19.9552 -0.0007
30.0000 -19.9685 -0.0390
30.0200 -19.9818 -0.0771
30.0400 -19.9951 -0.1192
30.0600 -20.0085 -0.1457
30.0800 -20.0219 -0.1751
30.1000 -20.0352 -0.2027
30.1200 -20.0485 -0.2239
30.1400 -20.0619 -0.2404
30.1600 -20.0753 -0.2579
30.1800 -20.0886 -0.2792
30.2000 -20.1020 -0.2843
30.2200 -20.1153 -0.2923
30.2400 -20.1286 -0.3021
30.2600 -20.1419 -0.3140
30.2800 -20.1553 -0.3387
30.3000 -20.1686 -0.3552
30.3200 -20.1819 -0.3796
30.3400 -20.1952 -0.4036
30.3600 -20.2086 -0.4298
30.3800 -20.2219 -0.4611
30.4000 -20.2352 -0.4856
30.4200 -20.2485 -0.5161
30.4400 -20.2618 -0.5392
30.4600 -20.2752 -0.5685
30.4800 -20.2885 -0.5870
30.5000 -20.3019 -0.6102
30.5200 -20.3153 -0.6280
30.5400 -20.3286 -0.6434
30.5600 -20.3420 -0.6552
30.5800 -20.3553 -0.6724
30.6000 -20.3686 -0.6868
30.6200 -20.3819 -0.7043
30.6400 -20.3953 -0.7162
30.6600 -20.4086 -0.7264
30.6800 -20.4219 -0.7407
30.7000 -20.4352 -0.7601
30.7200 -20.4485 -0.7669
30.7400 -20.4618 -0.7686
30.7600 -20.4752 -0.7682
30.7800 -20.4885 -0.7673
30.8000 -20.5019 -0.7676
30.8200 -20.5152 -0.7684
30.8400 -20.5286 -0.7680
30.8600 -20.5419 -0.7662
30.8800 -20.5552 -0.7654
30.9000 -20.5686 -0.7659
30.9200 -20.5819 -0.7662
30.9400 -20.5952 -0.7663
30.9600 -20.6085 -0.7644
30.9800 -20.6219 -0.7630
31.0000 -20.6352 -0.7660
31.0200 -20.6486 -0.7636
31.0400 -20.6619 -0.7632
31.0600 -20.6752 -0.7627
31.0800 -20.6886 -0.7650
31.1000 -20.7019 -0.7622
31.1200 -20.7152 -0.7630
31.1400 -20.7285 -0.7632
31.1600 -20.7419 -0.7632
31.1800 -20.7552 -0.7614
31.2000 -20.7685 -0.7614
31.2200 -20.7819 -0.7601
31.2400 -20.7952 -0.7616
31.2600 -20.8086 -0.7584
31.2800 -20.8220 -0.7566
31.3000 -20.8353 -0.7598
31.3200 -20.8486 -0.7568
31.3400 -20.8620 -0.7581
31.3600 -20.8753 -0.7539
31.3800 -20.8886 -0.7557
31.4000 -20.9019 -0.7527
31.4200 -20.9152 -0.7564
31.4400 -20.9285 -0.7503
31.4600 -20.9418 -0.7513
31.4800 -20.9551 -0.7517
31.5000 -20.9685 -0.7529
31.5200 -20.9819 -0.7502
31.5400 -20.9952 -0.7541
31.5600 -21.0086 -0.7483
31.5800 -21.0219 -0.7490
31.6000 -21.0352 -0.7520
31.6200 -21.0486 -0.7481
31.6400 -21.0619 -0.7443
31.6600 -21.0752 -0.7460
31.6800 -21.0886 -0.7428
31.7000 -21.1019 -0.7405
31.7200 -21.1153 -0.7405
31.7400 -21.1286 -0.7385
31.7600 -21.1419 -0.7401
31.7800 -21.1552 -0.7393
31.8000 -21.1686 -0.7349
31.8200 -21.1819 -0.7345
31.8400 -21.1952 -0.7365
31.8600 -21.2085 -0.7337
31.8800 -21.2219 -0.7348
31.9000 -21.2352 -0.7344
31.9200 -21.2485 -0.7320
31.9400 -21.2619 -0.7302
31.9600 -21.2752 -0.7310
31.9800 -21.2886 -0.7292
32.0000 -21.3019 -0.7281
32.0200 -21.3152 -0.7266
32.0400 -21.3286 -0.7287
32.0600 -21.3419 -0.7269
32.0800 -21.3553 -0.7294
32.1000 -21.3686 -0.7256
32.1200 -21.3819 -0.7259
32.1400 -21.3952 -0.7307
32.1600 -21.4086 -0.7292
32.1800 -21.4219 -0.7254
32.2000 -21.4352 -0.7301
32.2200 -21.4485 -0.7268
32.2400 -21.4619 -0.7263
32.2600 -21.4752 -0.7253
32.2800 -21.4885 -0.7263
32.3000 -21.5019 -0.7208
32.3200 -21.5152 -0.7240
32.3400 -21.5286 -0.7215
32.3600 -21.5419 -0.7206
32.3800 -21.5552 -0.7223
32.4000 -21.5686 -0.7184
32.4200 -21.5819 -0.7145
32.4400 -21.5952 -0.7176
32.4600 -21.6086 -0.7168
32.4800 -21.6219 -0.7130
32.5000 -21.6352 -0.7129
32.5200 -21.6486 -0.7088
32.5400 -21.6619 -0.7109
32.5600 -21.6752 -0.7110
32.5800 -21.6885 -0.7110
32.6000 -21.7019 -0.7093
32.6200 -21.7152 -0.7099
32.6400 -21.7286 -0.7097
32.6600 -21.7419 -0.7065
32.6800 -21.7552 -0.7059
32.7000 -21.7686 -0.7049
32.7200 -21.7819 -0.7025
32.7400 -21.7952 -0.7028
32.7600 -21.8086 -0.7020
32.7800 -21.8219 -0.7018
32.8000 -21.8353 -0.7023
32.8200 -21.8486 -0.7015
32.8400 -21.8619 -0.6986
32.8600 -21.8752 -0.6998
32.8800 -21.8885 -0.6975
32.9000 -21.9019 -0.6979
32.9200 -21.9152 -0.6978
32.9400 -21.9285 -0.6956
32.9600 -21.9419 -0.6941
32.9800 -21.9552 -0.6958
33.0000 -21.9686 -0.6956
33.0200 -21.9819 -0.6962
33.0400 -21.9952 -0.6954
33.0600 -22.0086 -0.6954
33.0800 -22.0220 -0.6950
33.1000 -22.0353 -0.6958
33.1200 -22.0486 -0.6941
33.1400 -22.0619 -0.6927
33.1600 -22.0753 -0.6953
33.1800 -22.0886 -0.6953
33.2000 -22.1019 -0.6927
33.2200 -22.1152 -0.6945
33.2400 -22.1286 -0.6934
33.2600 -22.1419 -0.6933
33.2800 -22.1552 -0.6945
33.3000 -22.1685 -0.6942
33.3200 -22.1818 -0.6926
33.3400 -22.1952 -0.6938
33.3600 -22.2085 -0.6937
33.3800 -22.2218 -0.6911
33.4000 -22.2352 -0.6917
33.4200 -22.2486 -0.6926
33.4400 -22.2620 -0.6898
33.4600 -22.2753 -0.6919
33.4800 -22.2886 -0.6903
33.5000 -22.3019 -0.6856
33.5200 -22.3153 -0.6871
33.5400 -22.3286 -0.6877
33.5600 -22.3419 -0.6865
33.5800 -22.3552 -0.6874
33.6000 -22.3686 -0.6863
33.6200 -22.3819 -0.6859
33.6400 -22.3952 -0.6866
33.6600 -22.4085 -0.6875
33.6800 -22.4219 -0.6825
33.7000 -22.4353 -0.6854
33.7200 -22.4486 -0.6856
33.7400 -22.4619 -0.6839
33.7600 -22.4752 -0.6847
33.7800 -22.4886 -0.6857
33.8000 -22.5020 -0.6824
33.8200 -22.5153 -0.6845
33.8400 -22.5285 -0.6849
33.8600 -22.5419 -0.6829
33.8800 -22.5552 -0.6825
33.9000 -22.5686 -0.6831
33.9200 -22.5819 -0.6798
33.9400 -22.5952 -0.6823
33.9600 -22.6086 -0.6814
33.9800 -22.6219 -0.6788
34.0000 -22.6352 -0.6804
34.0200 -22.6485 -0.6797
34.0400 -22.6618 -0.6769
34.0600 -22.6752 -0.6766
34.0800 -22.6886 -0.6767
34.1000 -22.7019 -0.6776
34.1200 -22.7152 -0.6778
34.1400 -22.7286 -0.6772
34.1600 -22.7419 -0.6742
34.1800 -22.7553 -0.6750
34.2000 -22.7686 -0.6746
34.2200 -22.7819 -0.6694
34.2400 -22.7953 -0.6726
34.2600 -22.8086 -0.6705
34.2800 -22.8219 -0.6709
34.3000 -22.8352 -0.6717
34.3200 -22.8486 -0.6726
34.3400 -22.8619 -0.6671
34.3600 -22.8752 -0.6702
34.3800 -22.8885 -0.6664
34.4000 -22.9018 -0.6677
34.4200 -22.9152 -0.6654
34.4400 -22.9285 -0.6670
34.4600 -22.9419 -0.6641
34.4800 -22.9552 -0.6679
34.5000 -22.9686 -0.6639
34.5200 -22.9820 -0.6593
34.5400 -22.9953 -0.6628
34.5600 -23.0086 -0.6616
34.5800 -23.0219 -0.6603
34.6000 -23.0353 -0.6580
34.6200 -23.0486 -0.6585
34.6400 -23.0619 -0.6568
34.6600 -23.0752 -0.6562
34.6800 -23.0886 -0.6564
34.7000 -23.1019 -0.6538
34.7200 -23.1152 -0.6517
34.7400 -23.1285 -0.6531
34.7600 -23.1418 -0.6501
34.7800 -23.1552 -0.6530
34.8000 -23.1685 -0.6509
34.8200 -23.1819 -0.6510
34.8400 -23.1952 -0.6502
34.8600 -23.2085 -0.6490
34.8800 -23.2219 -0.6474
34.9000 -23.2352 -0.6479
34.9200 -23.2485 -0.6467
34.9400 -23.2619 -0.6462
34.9600 -23.2753 -0.6488
34.9800 -23.2886 -0.6457
35.0000 -23.3019 -0.6438
35.0200 -23.3152 -0.6435
35.0400 -23.3286 -0.6439
35.0600 -23.3419 -0.6432
35.0800 -23.3552 -0.6429
35.1000 -23.3685 -0.6463
35.1200 -23.3818 -0.6435
35.1400 -23.3952 -0.6431
35.1600 -23.4085 -0.6456
35.1800 -23.4218 -0.6456
35.2000 -23.4352 -0.6420
35.2200 -23.4485 -0.6424
35.2400 -23.4619 -0.6406
35.2600 -23.4752 -0.6421
35.2800 -23.4885 -0.6450
35.3000 -23.5019 -0.6412
35.3200 -23.5153 -0.6437
35.3400 -23.5286 -0.6445
35.3600 -23.5419 -0.6412
35.3800 -23.5552 -0.6416
35.4000 -23.5686 -0.6437
35.4200 -23.5819 -0.6409
35.4400 -23.5952 -0.6388
35.4600 -23.6085 -0.6399
35.4800 -23.6218 -0.6413
35.5000 -23.6352 -0.6400
35.5200 -23.6485 -0.6399
35.5400 -23.6618 -0.6374
35.5600 -23.6752 -0.6404
35.5800 -23.6886 -0.6393
35.6000 -23.7020 -0.6368
35.6200 -23.7153 -0.6376
35.6400 -23.7286 -0.6371
35.6600 -23.7419 -0.6351
35.6800 -23.7553 -0.6363
35.7000 -23.7686 -0.6350
35.7200 -23.7819 -0.6339
35.7400 -23.7952 -0.6333
35.7600 -23.8085 -0.6348
35.7800 -23.8218 -0.6345
35.8000 -23.8351 -0.6310
35.8200 -23.8485 -0.6336
35.8400 -23.8618 -0.6342
35.8600 -23.8752 -0.6318
35.8800 -23.8886 -0.6308
35.9000 -23.9019 -0.6310
35.9200 -23.9152 -0.6264
35.9400 -23.9286 -0.6287
35.9600 -23.9420 -0.6281
35.9800 -23.9553 -0.6303
36.0000 -23.9686 -0.6258
36.0200 -23.9819 -0.6256
36.0400 -23.9953 -0.6239
36.0600 -24.0086 -0.6271
36.0800 -24.0219 -0.6250
36.1000 -24.0353 -0.6247
36.1200 -24.0486 -0.6253
36.1400 -24.0619 -0.6226
36.1600 -24.0752 -0.6214
36.1800 -24.0885 -0.6242
36.2000 -24.1019 -0.6196
36.2200 -24.1152 -0.6203
36.2400 -24.1285 -0.6200
36.2600 -24.1418 -0.6195
36.2800 -24.1552 -0.6190
36.3000 -24.1685 -0.6180
36.3200 -24.1819 -0.6177
36.3400 -24.1953 -0.6175
36.3600 -24.2086 -0.6184
36.3800 -24.2219 -0.6164
36.4000 -24.2353 -0.6159
36.4200 -24.2486 -0.6154
36.4400 -24.2619 -0.6149
36.4600 -24.2752 -0.6153
36.4800 -24.2885 -0.6167
36.5000 -24.3019 -0.6119
36.5200 -24.3152 -0.6128
36.5400 -24.3285 -0.6130
36.5600 -24.3418 -0.6118
36.5800 -24.3552 -0.6099
36.6000 -24.3686 -0.6118
36.6200 -24.3819 -0.6104
36.6400 -24.3952 -0.6124
36.6600 -24.4086 -0.6105
36.6800 -24.4219 -0.6105
36.7000 -24.4353 -0.6084
36.7200 -24.4486 -0.6102
36.7400 -24.4619 -0.6094
36.7600 -24.4752 -0.6087
36.7800 -24.4886 -0.6075
36.8000 -24.5019 -0.6070
36.8200 -24.5152 -0.6053
36.8400 -24.5285 -0.6050
36.8600 -24.5419 -0.6040
36.8800 -24.5552 -0.6035
36.9000 -24.5685 -0.6051
36.9200 -24.5818 -0.6016
36.9400 -24.5952 -0.6014
36.9600 -24.6086 -0.6024
36.9800 -24.6219 -0.6024
37.0000 -24.6352 -0.6043
37.0200 -24.6486 -0.6029
37.0400 -24.6620 -0.6010
37.0600 -24.6753 -0.6011
37.0800 -24.6886 -0.6007
37.1000 -24.7019 -0.6006
37.1200 -24.7153 -0.6017
37.1400 -24.7286 -0.6023
37.1600 -24.7419 -0.6008
37.1800 -24.7552 -0.6002
37.2000 -24.7686 -0.6016
37.2200 -24.7819 -0.5995
37.2400 -24.7952 -0.5997
37.2600 -24.8085 -0.5989
37.2800 -24.8218 -0.5990
37.3000 -24.8352 -0.5993
37.3200 -24.8485 -0.5984
37.3400 -24.8619 -0.6003
37.3600 -24.8752 -0.5999
37.3800 -24.8885 -0.6003
37.4000 -24.9019 -0.5973
37.4200 -24.9153 -0.5986
37.4400 -24.9286 -0.5984
37.4600 -24.9419 -0.5989
37.4800 -24.9553 -0.5983
37.5000 -24.9686 -0.5990
37.5200 -24.9819 -0.5970
37.5400 -24.9952 -0.5962
37.5600 -25.0085 -0.5976
37.5800 -25.0219 -0.5965
37.6000 -25.0352 -0.5968
37.6200 -25.0485 -0.5966
37.6400 -25.0618 -0.5986
37.6600 -25.0752 -0.5960
37.6800 -25.0885 -0.5969
37.7000 -25.1019 -0.5957
37.7200 -25.1152 -0.5966
37.7400 -25.1286 -0.5938
37.7600 -25.1420 -0.5926
37.7800 -25.1553 -0.5929
37.8000 -25.1686 -0.5960
37.8200 -25.1819 -0.5945
37.8400 -25.1953 -0.5945
37.8600 -25.2086 -0.5942
37.8800 -25.2219 -0.5923
37.9000 -25.2352 -0.5909
37.9200 -25.2485 -0.5908
37.9400 -25.2619 -0.5898
37.9600 -25.2752 -0.5877
37.9800 -25.2885 -0.5899
38.0000 -25.3018 -0.5869
38.0200 -25.3152 -0.5871
38.0400 -25.3286 -0.5880
38.0600 -25.3419 -0.5879
38.0800 -25.3552 -0.5870
38.1000 -25.3686 -0.5866
38.1200 -25.3819 -0.5854
38.1400 -25.3953 -0.5857
38.1600 -25.4085 -0.5843
38.1800 -25.4218 -0.5845
38.2000 -25.4352 -0.5822
38.2200 -25.4486 -0.5808
38.2400 -25.4619 -0.5798
38.2600 -25.4752 -0.5798
38.2800 -25.4885 -0.5792
38.3000 -25.5018 -0.5798
38.3200 -25.5152 -0.5775
38.3400 -25.5285 -0.5794
38.3600 -25.5418 -0.5768
38.3800 -25.5552 -0.5781
38.4000 -25.5685 -0.5777
38.4200 -25.5819 -0.5783
38.4400 -25.5952 -0.5759
38.4600 -25.6086 -0.5763
38.4800 -25.6219 -0.5742
38.5000 -25.6353 -0.5746
38.5200 -25.6486 -0.5747
38.5400 -25.6619 -0.5738
38.5600 -25.6753 -0.5734
38.5800 -25.6886 -0.5742
38.6000 -25.7020 -0.5727
38.6200 -25.7153 -0.5727
38.6400 -25.7286 -0.5738
38.6600 -25.7419 -0.5714
38.6800 -25.7552 -0.5697
38.7000 -25.7685 -0.5702
38.7200 -25.7818 -0.5707
38.7400 -25.7951 -0.5709
38.7600 -25.8085 -0.5706
38.7800 -25.8219 -0.5684
38.8000 -25.8352 -0.5684
38.8200 -25.8486 -0.5707
38.8400 -25.8619 -0.5686
38.8600 -25.8753 -0.5672
38.8800 -25.8886 -0.5704
38.9000 -25.9019 -0.5660
38.9200 -25.9152 -0.5674
38.9400 -25.9286 -0.5667
38.9600 -25.9419 -0.5679
38.9800 -25.9552 -0.5653
39.0000 -25.9686 -0.5664
39.0200 -25.9819 -0.5637
39.0400 -25.9953 -0.5649
39.0600 -26.0085 -0.5674
39.0800 -26.0218 -0.5658
39.1000 -26.0352 -0.5642
39.1200 -26.0485 -0.5633
39.1400 -26.0619 -0.5637
39.1600 -26.0752 -0.5639
39.1800 -26.0885 -0.5651
39.2000 -26.1019 -0.5640
39.2200 -26.1153 -0.5630
39.2400 -26.1286 -0.5632
39.2600 -26.1419 -0.5636
39.2800 -26.1552 -0.5645
39.3000 -26.1686 -0.5649
39.3200 -26.1819 -0.5623
39.3400 -26.1953 -0.5628
39.3600 -26.2086 -0.5637
39.3800 -26.2219 -0.5639
39.4000 -26.2353 -0.5633
39.4200 -26.2486 -0.5636
39.4400 -26.2618 -0.5627
39.4600 -26.2752 -0.5620
39.4800 -26.2886 -0.5610
39.5000 -26.3019 -0.5599
39.5200 -26.3152 -0.5586
39.5400 -26.3285 -0.5586
39.5600 -26.3419 -0.5586
39.5800 -26.3553 -0.5584
39.6000 -26.3686 -0.5599
39.6200 -26.3819 -0.5587
39.6400 -26.3952 -0.5560
39.6600 -26.4086 -0.5576
39.6800 -26.4219 -0.5580
39.7000 -26.4352 -0.5572
39.7200 -26.4486 -0.5581
39.7400 -26.4619 -0.5567
39.7600 -26.4752 -0.5540
39.7800 -26.4885 -0.5534
39.8000 -26.5019 -0.5549
39.8200 -26.5152 -0.5547
39.8400 -26.5286 -0.5537
39.8600 -26.5419 -0.5521
39.8800 -26.5552 -0.5511
39.9000 -26.5685 -0.5515
39.9200 -26.5819 -0.5527
39.9400 -26.5953 -0.5492
39.9600 -26.6086 -0.5498
39.9800 -26.6219 -0.5503
40.0000 -26.6352 -0.5500
40.0200 -26.6486 -0.5478
40.0400 -26.6619 -0.5505
40.0600 -26.6752 -0.5457
40.0800 -26.6885 -0.5481
40.1000 -26.7019 -0.5435
40.1200 -26.7152 -0.5464
40.1400 -26.7285 -0.5451
40.1600 -26.7418 -0.5472
40.1800 -26.7552 -0.5439
40.2000 -26.7685 -0.5439
40.2200 -26.7819 -0.5430
40.2400 -26.7952 -0.5427
40.2600 -26.8085 -0.5417
40.2800 -26.8219 -0.5405
40.3000 -26.8353 -0.5409
40.3200 -26.8486 -0.5388
40.3400 -26.8619 -0.5408
40.3600 -26.8752 -0.5390
40.3800 -26.8886 -0.5402
40.4000 -26.9019 -0.5400
40.4200 -26.9152 -0.5422
40.4400 -26.9286 -0.5390
40.4600 -26.9419 -0.5431
40.4800 -26.9552 -0.5395
40.5000 -26.9686 -0.5408
40.5200 -26.9819 -0.5398
40.5400 -26.9952 -0.5413
40.5600 -27.0085 -0.5388
40.5800 -27.0218 -0.5400
40.6000 -27.0352 -0.5398
40.6200 -27.0485 -0.5384
40.6400 -27.0619 -0.5386
40.6600 -27.0753 -0.5391
40.6800 -27.0886 -0.5389
40.7000 -27.1019 -0.5370
40.7200 -27.1152 -0.5383
40.7400 -27.1286 -0.5383
40.7600 -27.1420 -0.5377
40.7800 -27.1553 -0.5381
40.8000 -27.1686 -0.5357
40.8200 -27.1819 -0.5373
40.8400 -27.1952 -0.5379
40.8600 -27.2086 -0.5350
40.8800 -27.2219 -0.5358
40.9000 -27.2352 -0.5355
40.9200 -27.2486 -0.5331
40.9400 -27.2619 -0.5340
40.9600 -27.2752 -0.5342
40.9800 -27.2886 -0.5334
41.0000 -27.3019 -0.5321
41.0200 -27.3153 -0.5311
41.0400 -27.3286 -0.5308
41.0600 -27.3419 -0.5306
41.0800 -27.3552 -0.5318
41.1000 -27.3686 -0.5307
41.1200 -27.3819 -0.5304
41.1400 -27.3953 -0.5279
41.1600 -27.4086 -0.5255
41.1800 -27.4219 -0.5256
41.2000 -27.4352 -0.5278
41.2200 -27.4486 -0.5254
41.2400 -27.4618 -0.5261
41.2600 -27.4752 -0.5249
41.2800 -27.4885 -0.5260
41.3000 -27.5019 -0.5241
41.3200 -27.5152 -0.5218
41.3400 -27.5286 -0.5215
41.3600 -27.5419 -0.5196
41.3800 -27.5553 -0.5196
41.4000 -27.5686 -0.5167
41.4200 -27.5819 -0.5204
41.4400 -27.5952 -0.5170
41.4600 -27.6086 -0.5188
41.4800 -27.6220 -0.5198
41.5000 -27.6353 -0.5215
41.5200 -27.6486 -0.5177
41.5400 -27.6619 -0.5174
41.5600 -27.6752 -0.5146
41.5800 -27.6885 -0.5153
41.6000 -27.7018 -0.5144
41.6200 -27.7151 -0.5153
41.6400 -27.7285 -0.5152
41.6600 -27.7419 -0.5157
41.6800 -27.7552 -0.5165
41.7000 -27.7685 -0.5159
41.7200 -27.7819 -0.5150
41.7400 -27.7953 -0.5135
41.7600 -27.8086 -0.5147
41.7800 -27.8219 -0.5152
41.8000 -27.8353 -0.5144
41.8200 -27.8486 -0.5147
41.8400 -27.8620 -0.5137
41.8600 -27.8753 -0.5121
41.8800 -27.8886 -0.5131
41.9000 -27.9019 -0.5125
41.9200 -27.9152 -0.5130
41.9400 -27.9286 -0.5129
41.9600 -27.9419 -0.5136
41.9800 -27.9552 -0.5140
42.0000 -27.9685 -0.5114
42.0200 -27.9819 -0.5105
42.0400 -27.9952 -0.5135
42.0600 -28.0085 -0.5128
42.0800 -28.0219 -0.5142
42.1000 -28.0352 -0.5133
42.1200 -28.0486 -0.5141
42.1400 -28.0619 -0.5124
42.1600 -28.0752 -0.5156
42.1800 -28.0886 -0.5113
42.2000 -28.1020 -0.5104
42.2200 -28.1153 -0.5101
42.2400 -28.1286 -0.5126
42.2600 -28.1419 -0.5127
42.2800 -28.1553 -0.5130
42.3000 -28.1686 -0.5092
42.3200 -28.1818 -0.5100
42.3400 -28.1952 -0.5113
42.3600 -28.2085 -0.5112
42.3800 -28.2219 -0.5093
42.4000 -28.2352 -0.5091
42.4200 -28.2485 -0.5082
42.4400 -28.2619 -0.5088
42.4600 -28.2752 -0.5101
42.4800 -28.2886 -0.5066
42.5000 -28.3019 -0.5070
42.5200 -28.3152 -0.5063
42.5400 -28.3286 -0.5067
42.5600 -28.3419 -0.5056
42.5800 -28.3553 -0.5061
42.6000 -28.3686 -0.5070
42.6200 -28.3819 -0.5047
42.6400 -28.3953 -0.5053
42.6600 -28.4086 -0.5042
42.6800 -28.4219 -0.5040
42.7000 -28.4352 -0.5040
42.7200 -28.4485 -0.5040
42.7400 -28.4619 -0.5028
42.7600 -28.4752 -0.5044
42.7800 -28.4885 -0.5034
42.8000 -28.5018 -0.5013
42.8200 -28.5152 -0.5025
42.8400 -28.5286 -0.5004
42.8600 -28.5419 -0.5037
42.8800 -28.5553 -0.5018
42.9000 -28.5686 -0.5034
42.9200 -28.5820 -0.4977
42.9400 -28.5953 -0.5024
42.9600 -28.6086 -0.4997
42.9800 -28.6219 -0.4999
43.0000 -28.6352 -0.4989
43.0200 -28.6485 -0.4973
43.0400 -28.6618 -0.4981
43.0600 -28.6751 -0.4972
43.0800 -28.6885 -0.4979
43.1000 -28.7019 -0.4936
43.1200 -28.7152 -0.4978
43.1400 -28.7285 -0.4946
43.1600 -28.7419 -0.4942
43.1800 -28.7553 -0.4925
43.2000 -28.7686 -0.4927
43.2200 -28.7819 -0.4898
43.2400 -28.7952 -0.4948
43.2600 -28.8086 -0.4880
43.2800 -28.8219 -0.4901
43.3000 -28.8353 -0.4906
43.3200 -28.8486 -0.4908
43.3400 -28.8619 -0.4877
43.3600 -28.8753 -0.4856
43.3800 -28.8886 -0.4862
43.4000 -28.9019 -0.4852
43.4200 -28.9152 -0.4880
43.4400 -28.9285 -0.4864
43.4600 -28.9419 -0.4854
43.4800 -28.9552 -0.4850
43.5000 -28.9685 -0.4839
43.5200 -28.9818 -0.4820
43.5400 -28.9952 -0.4845
43.5600 -29.0086 -0.4788
43.5800 -29.0219 -0.4824
43.6000 -29.0352 -0.4825
43.6200 -29.0486 -0.4820
43.6400 -29.0619 -0.4793
43.6600 -29.0753 -0.4811
43.6800 -29.0886 -0.4795
43.7000 -29.1019 -0.4802
43.7200 -29.1152 -0.4804
43.7400 -29.1286 -0.4795
43.7600 -29.1419 -0.4788
43.7800 -29.1552 -0.4799
43.8000 -29.1685 -0.4776
43.8200 -29.1819 -0.4764
43.8400 -29.1952 -0.4783
43.8600 -29.2086 -0.4799
43.8800 -29.2219 -0.4764
43.9000 -29.2352 -0.4801
43.9200 -29.2486 -0.4763
43.9400 -29.2619 -0.4793
43.9600 -29.2752 -0.4773
43.9800 -29.2886 -0.4798
44.0000 -29.3019 -0.4752
44.0200 -29.3152 -0.4781
44.0400 -29.3285 -0.4746
44.0600 -29.3419 -0.4767
44.0800 -29.3552 -0.4758
44.1000 -29.3685 -0.4748
44.1200 -29.3818 -0.4731
44.1400 -29.3951 -0.4742
44.1600 -29.4085 -0.4755
44.1800 -29.4219 -0.4741
44.2000 -29.4353 -0.4764
44.2200 -29.4486 -0.4755
44.2400 -29.4619 -0.4771
44.2600 -29.4753 -0.4746
44.2800 -29.4886 -0.4760
44.3000 -29.5019 -0.4737
44.3200 -29.5152 -0.4760
44.3400 -29.5286 -0.4735
44.3600 -29.5419 -0.4740
44.3800 -29.5553 -0.4735
44.4000 -29.5686 -0.4721
44.4200 -29.5819 -0.4718
44.4400 -29.5952 -0.4704
44.4600 -29.6085 -0.4715
44.4800 -29.6218 -0.4671
44.5000 -29.6351 -0.4717
44.5200 -29.6485 -0.4698
44.5400 -29.6619 -0.4714
44.5600 -29.6752 -0.4723
44.5800 -29.6885 -0.4712
44.6000 -29.7019 -0.4721
44.6200 -29.7152 -0.4705
44.6400 -29.7286 -0.4712
44.6600 -29.7420 -0.4709
44.6800 -29.7553 -0.4721
44.7000 -29.7686 -0.4689
44.7200 -29.7819 -0.4703
44.7400 -29.7953 -0.4697
44.7600 -29.8086 -0.4723
44.7800 -29.8219 -0.4722
44.8000 -29.8352 -0.4701
44.8200 -29.8486 -0.4722
44.8400 -29.8618 -0.4681
44.8600 -29.8751 -0.4707
44.8800 -29.8885 -0.4681
44.9000 -29.9018 -0.4707
44.9200 -29.9152 -0.4693
44.9400 -29.9285 -0.4685
44.9600 -29.9419 -0.4663
44.9800 -29.9552 -0.4656
45.0000 -29.9686 -0.4667
45.0200 -29.9820 -0.4651
45.0400 -29.9953 -0.4659
45.0600 -30.0086 -0.4637
45.0800 -30.0219 -0.4642
45.1000 -30.0353 -0.4625
45.1200 -30.0486 -0.4623
45.1400 -30.0619 -0.4579
45.1600 -30.0752 -0.4599
45.1800 -30.0886 -0.4583
45.2000 -30.1019 -0.4582
45.2200 -30.1152 -0.4578
45.2400 -30.1285 -0.4583
45.2600 -30.1419 -0.4564
45.2800 -30.1552 -0.4561
45.3000 -30.1686 -0.4562
45.3200 -30.1819 -0.4513
45.3400 -30.1952 -0.4528
45.3600 -30.2086 -0.4535
45.3800 -30.2219 -0.4511
45.4000 -30.2352 -0.4531
45.4200 -30.2485 -0.4540
45.4400 -30.2619 -0.4516
45.4600 -30.2753 -0.4532
45.4800 -30.2886 -0.4520
45.5000 -30.3019 -0.4517
45.5200 -30.3152 -0.4515
45.5400 -30.3286 -0.4522
45.5600 -30.3419 -0.4507
45.5800 -30.3552 -0.4530
45.6000 -30.3685 -0.4522
45.6200 -30.3819 -0.4507
45.6400 -30.3952 -0.4509
45.6600 -30.4085 -0.4529
45.6800 -30.4219 -0.4516
45.7000 -30.4352 -0.4526
45.7200 -30.4486 -0.4523
45.7400 -30.4620 -0.4492
45.7600 -30.4753 -0.4517
45.7800 -30.4886 -0.4519
45.8000 -30.5020 -0.4483
45.8200 -30.5153 -0.4498
45.8400 -30.5286 -0.4521
45.8600 -30.5419 -0.4502
45.8800 -30.5552 -0.4515
45.9000 -30.5685 -0.4519
45.9200 -30.5818 -0.4475
45.9400 -30.5951 -0.4480
45.9600 -30.6085 -0.4473
45.9800 -30.6218 -0.4477
46.0000 -30.6352 -0.4470
46.0200 -30.6485 -0.4483
46.0400 -30.6618 -0.4455
46.0600 -30.6752 -0.4464
46.0800 -30.6886 -0.4479
46.1000 -30.7019 -0.4480
46.1200 -30.7152 -0.4448
46.1400 -30.7286 -0.4449
46.1600 -30.7419 -0.4430
46.1800 -30.7553 -0.4444
46.2000 -30.7686 -0.4460
46.2200 -30.7819 -0.4424
46.2400 -30.7952 -0.4443
46.2600 -30.8086 -0.4424
46.2800 -30.8219 -0.4401
46.3000 -30.8352 -0.4405
46.3200 -30.8485 -0.4425
46.3400 -30.8619 -0.4409
46.3600 -30.8752 -0.4419
46.3800 -30.8885 -0.4407
46.4000 -30.9019 -0.4381
46.4200 -30.9152 -0.4385
46.4400 -30.9286 -0.4410
46.4600 -30.9419 -0.4363
46.4800 -30.9552 -0.4390
46.5000 -30.9685 -0.4378
46.5200 -30.9819 -0.4374
46.5400 -30.9953 -0.4361
46.5600 -31.0086 -0.4372
46.5800 -31.0219 -0.4332
46.6000 -31.0353 -0.4339
46.6200 -31.0486 -0.4319
46.6400 -31.0619 -0.4316
46.6600 -31.0752 -0.4317
46.6800 -31.0885 -0.4335
46.7000 -31.1019 -0.4307
46.7200 -31.1152 -0.4306
46.7400 -31.1286 -0.4317
46.7600 -31.1419 -0.4286
46.7800 -31.1552 -0.4326
46.8000 -31.1686 -0.4303
46.8200 -31.1820 -0.4283
46.8400 -31.1952 -0.4270
46.8600 -31.2085 -0.4302
46.8800 -31.2219 -0.4248
46.9000 -31.2352 -0.4252
46.9200 -31.2486 -0.4250
46.9400 -31.2619 -0.4250
46.9600 -31.2752 -0.4239
46.9800 -31.2885 -0.4254
47.0000 -31.3019 -0.4216
47.0200 -31.3152 -0.4244
47.0400 -31.3285 -0.4248
47.0600 -31.3419 -0.4223
47.0800 -31.3553 -0.4232
47.1000 -31.3686 -0.4223
47.1200 -31.3819 -0.4214
47.1400 -31.3952 -0.4196
47.1600 -31.4086 -0.4212
47.1800 -31.4220 -0.4186
47.2000 -31.4353 -0.4179
47.2200 -31.4486 -0.4199
47.2400 -31.4619 -0.4186
47.2600 -31.4753 -0.4176
47.2800 -31.4886 -0.4185
47.3000 -31.5019 -0.4151
47.3200 -31.5152 -0.4157
47.3400 -31.5285 -0.4176
47.3600 -31.5419 -0.4152
47.3800 -31.5552 -0.4156
47.4000 -31.5685 -0.4158
47.4200 -31.5819 -0.4131
47.4400 -31.5952 -0.4134
47.4600 -31.6086 -0.4143
47.4800 -31.6219 -0.4125
47.5000 -31.6352 -0.4135
47.5200 -31.6486 -0.4173
47.5400 -31.6620 -0.4149
47.5600 -31.6753 -0.4149
47.5800 -31.6886 -0.4139
47.6000 -31.7019 -0.4130
47.6200 -31.7153 -0.4124
47.6400 -31.7286 -0.4142
47.6600 -31.7419 -0.4129
47.6800 -31.7552 -0.4144
47.7000 -31.7686 -0.4129
47.7200 -31.7819 -0.4138
47.7400 -31.7952 -0.4112
47.7600 -31.8085 -0.4124
47.7800 -31.8218 -0.4119
47.8000 -31.8352 -0.4123
47.8200 -31.8485 -0.4133
47.8400 -31.8618 -0.4111
47.8600 -31.8752 -0.4122
47.8800 -31.8886 -0.4118
47.9000 -31.9020 -0.4107
47.9200 -31.9153 -0.4097
47.9400 -31.9286 -0.4107
47.9600 -31.9419 -0.4078
47.9800 -31.9553 -0.4080
48.0000 -31.9686 -0.4046
48.0200 -31.9819 -0.4057
48.0400 -31.9952 -0.4050
48.0600 -32.0086 -0.4078
48.0800 -32.0219 -0.4047
48.1000 -32.0352 -0.4070
48.1200 -32.0485 -0.4052
48.1400 -32.0619 -0.4058
48.1600 -32.0752 -0.4032
48.1800 -32.0886 -0.4039
48.2000 -32.1019 -0.4018
48.2200 -32.1152 -0.4008
48.2400 -32.1286 -0.4013
48.2600 -32.1420 -0.4017
48.2800 -32.1553 -0.4009
48.3000 -32.1685 -0.4035
48.3200 -32.1819 -0.3997
48.3400 -32.1952 -0.3975
48.3600 -32.2086 -0.4006
48.3800 -32.2219 -0.3983
48.4000 -32.2352 -0.3959
48.4200 -32.2486 -0.3952
48.4400 -32.2619 -0.3938
48.4600 -32.2752 -0.3944
48.4800 -32.2885 -0.3960
48.5000 -32.3018 -0.3933
48.5200 -32.3152 -0.3929
48.5400 -32.3285 -0.3926
48.5600 -32.3418 -0.3918
48.5800 -32.3552 -0.3914
48.6000 -32.3685 -0.3952
48.6200 -32.3819 -0.3931
48.6400 -32.3953 -0.3909
48.6600 -32.4086 -0.3926
48.6800 -32.4219 -0.3885
48.7000 -32.4353 -0.3896
48.7200 -32.4486 -0.3879
48.7400 -32.4619 -0.3878
48.7600 -32.4752 -0.3856
48.7800 -32.4886 -0.3881
48.8000 -32.5019 -0.3874
48.8200 -32.5152 -0.3863
48.8400 -32.5285 -0.3860
48.8600 -32.5418 -0.3853
48.8800 -32.5552 -0.3844
48.9000 -32.5685 -0.3858
48.9200 -32.5819 -0.3844
48.9400 -32.5952 -0.3849
48.9600 -32.6086 -0.3834
48.9800 -32.6220 -0.3826
49.0000 -32.6353 -0.3801
49.0200 -32.6486 -0.3816
49.0400 -32.6619 -0.3812
49.0600 -32.6753 -0.3786
49.0800 -32.6886 -0.3790
49.1000 -32.7019 -0.3775
49.1200 -32.7152 -0.3791
49.1400 -32.7286 -0.3798
49.1600 -32.7419 -0.3797
49.1800 -32.7552 -0.3773
49.2000 -32.7685 -0.3780
49.2200 -32.7818 -0.3769
49.2400 -32.7952 -0.3774
49.2600 -32.8086 -0.3807
49.2800 -32.8219 -0.3783
49.3000 -32.8352 -0.3770
49.3200 -32.8485 -0.3765
49.3400 -32.8619 -0.3772
49.3600 -32.8753 -0.3733
49.3800 -32.8886 -0.3775
49.4000 -32.9019 -0.3740
49.4200 -32.9153 -0.3751
49.4400 -32.9286 -0.3765
49.4600 -32.9419 -0.3754
49.4800 -32.9552 -0.3740
49.5000 -32.9686 -0.3756
49.5200 -32.9819 -0.3752
49.5400 -32.9952 -0.3743
49.5600 -33.0085 -0.3762
49.5800 -33.0218 -0.3738
49.6000 -33.0352 -0.3746
49.6200 -33.0485 -0.3738
49.6400 -33.0618 -0.3746
49.6600 -33.0752 -0.3704
49.6800 -33.0885 -0.3729
49.7000 -33.1019 -0.3695
49.7200 -33.1152 -0.3728
49.7400 -33.1285 -0.3748
49.7600 -33.1419 -0.3753
49.7800 -33.1553 -0.3730
49.8000 -33.1686 -0.3711
49.8200 -33.1819 -0.3728
49.8400 -33.1952 -0.3720
49.8600 -33.2086 -0.3705
49.8800 -33.2219 -0.3719
49.9000 -33.2352 -0.3701
49.9200 -33.2485 -0.3732
49.9400 -33.2618 -0.3711
49.9600 -33.2752 -0.3680
49.9800 -33.2886 -0.3702
50.0000 -33.3019 -0.3710
50.0200 -33.3152 -0.3702
50.0400 -33.3285 -0.3711
50.0600 -33.3419 -0.3705
50.0800 -33.3553 -0.3688
50.1000 -33.3686 -0.3674
50.1200 -33.3819 -0.3664
50.1400 -33.3953 -0.3649
50.1600 -33.4086 -0.3656
50.1800 -33.4219 -0.3665
50.2000 -33.4352 -0.3624
50.2200 -33.4485 -0.3644
50.2400 -33.4619 -0.3652
50.2600 -33.4752 -0.3634
50.2800 -33.4885 -0.3616
50.3000 -33.5018 -0.3637
50.3200 -33.5152 -0.3593
50.3400 -33.5286 -0.3633
50.3600 -33.5419 -0.3608
50.3800 -33.5552 -0.3596
50.4000 -33.5686 -0.3593
50.4200 -33.5820 -0.3607
50.4400 -33.5953 -0.3561
50.4600 -33.6086 -0.3585
50.4800 -33.6219 -0.3571
50.5000 -33.6353 -0.3556
50.5200 -33.6487 -0.3570
50.5400 -33.6620 -0.3560
50.5600 -33.6753 -0.3530
50.5800 -33.6886 -0.3527
50.6000 -33.7019 -0.3506
50.6200 -33.7153 -0.3486
50.6400 -33.7285 -0.3514
50.6600 -33.7419 -0.3510
50.6800 -33.7552 -0.3503
50.7000 -33.7686 -0.3493
50.7200 -33.7818 -0.3505
50.7400 -33.7952 -0.3466
50.7600 -33.8085 -0.3495
50.7800 -33.8219 -0.3461
50.8000 -33.8353 -0.3452
50.8200 -33.8486 -0.3463
50.8400 -33.8619 -0.3465
50.8600 -33.8752 -0.3442
50.8800 -33.8886 -0.3457
50.9000 -33.9019 -0.3456
50.9200 -33.9152 -0.3419
50.9400 -33.9286 -0.3425
50.9600 -33.9419 -0.3421
50.9800 -33.9552 -0.3384
51.0000 -33.9684 -0.3395
51.0200 -33.9817 -0.3397
51.0400 -33.9951 -0.3381
51.0600 -34.0085 -0.3389
51.0800 -34.0219 -0.3361
51.1000 -34.0352 -0.3346
51.1200 -34.0486 -0.3355
51.1400 -34.0619 -0.3376
51.1600 -34.0753 -0.3316
51.1800 -34.0886 -0.3334
51.2000 -34.1019 -0.3344
51.2200 -34.1152 -0.3317
51.2400 -34.1286 -0.3329
51.2600 -34.1419 -0.3363
51.2800 -34.1552 -0.3329
51.3000 -34.1685 -0.3347
51.3200 -34.1819 -0.3333
51.3400 -34.1952 -0.3328
51.3600 -34.2085 -0.3344
51.3800 -34.2218 -0.3348
51.4000 -34.2352 -0.3317
51.4200 -34.2486 -0.3325
51.4400 -34.2619 -0.3321
51.4600 -34.2752 -0.3302
51.4800 -34.2886 -0.3329
51.5000 -34.3020 -0.3323
51.5200 -34.3153 -0.3305
51.5400 -34.3286 -0.3312
51.5600 -34.3419 -0.3320
51.5800 -34.3553 -0.3304
51.6000 -34.3686 -0.3311
51.6200 -34.3819 -0.3314
51.6400 -34.3952 -0.3309
51.6600 -34.4086 -0.3297
51.6800 -34.4219 -0.3300
51.7000 -34.4352 -0.3282
51.7200 -34.4485 -0.3293
51.7400 -34.4618 -0.3301
51.7600 -34.4752 -0.3293
51.7800 -34.4886 -0.3302
51.8000 -34.5019 -0.3309
51.8200 -34.5152 -0.3261
51.8400 -34.5286 -0.3264
51.8600 -34.5420 -0.3264
51.8800 -34.5553 -0.3259
51.9000 -34.5686 -0.3261
51.9200 -34.5819 -0.3254
51.9400 -34.5953 -0.3219
51.9600 -34.6086 -0.3238
51.9800 -34.6219 -0.3233
52.0000 -34.6352 -0.3210
52.0200 -34.6485 -0.3196
52.0400 -34.6619 -0.3198
52.0600 -34.6752 -0.3162
52.0800 -34.6885 -0.3160
52.1000 -34.7018 -0.3134
52.1200 -34.7151 -0.3129
52.1400 -34.7285 -0.3119
52.1600 -34.7419 -0.3116
52.1800 -34.7552 -0.3079
52.2000 -34.7685 -0.3086
52.2200 -34.7819 -0.3098
52.2400 -34.7953 -0.3057
52.2600 -34.8086 -0.3061
52.2800 -34.8219 -0.3071
52.3000 -34.8353 -0.3037
52.3200 -34.8486 -0.3031
52.3400 -34.8619 -0.3042
52.3600 -34.8752 -0.3009
52.3800 -34.8885 -0.3033
52.4000 -34.9019 -0.3015
52.4200 -34.9152 -0.2982
52.4400 -34.9285 -0.2989
52.4600 -34.9418 -0.3015
52.4800 -34.9552 -0.3015
52.5000 -34.9686 -0.3010
52.5200 -34.9819 -0.3002
52.5400 -34.9952 -0.2972
52.5600 -35.0086 -0.2992
52.5800 -35.0219 -0.2976
52.6000 -35.0353 -0.2962
52.6200 -35.0486 -0.2977
52.6400 -35.0619 -0.2964
52.6600 -35.0752 -0.2964
52.6800 -35.0886 -0.2959
52.7000 -35.1019 -0.2962
52.7200 -35.1152 -0.2915
52.7400 -35.1286 -0.2926
52.7600 -35.1419 -0.2934
52.7800 -35.1553 -0.2930
52.8000 -35.1686 -0.2917
52.8200 -35.1819 -0.2946
52.8400 -35.1952 -0.2921
52.8600 -35.2085 -0.2920
52.8800 -35.2219 -0.2933
52.9000 -35.2352 -0.2905
52.9200 -35.2485 -0.2913
52.9400 -35.2619 -0.2902
52.9600 -35.2753 -0.2900
52.9800 -35.2886 -0.2887
53.0000 -35.3019 -0.2910
53.0200 -35.3153 -0.2871
53.0400 -35.3286 -0.2885
53.0600 -35.3420 -0.2879
53.0800 -35.3553 -0.2867
53.1000 -35.3686 -0.2847
53.1200 -35.3819 -0.2865
53.1400 -35.3952 -0.2849
53.1600 -35.4085 -0.2847
53.1800 -35.4218 -0.2852
53.2000 -35.4351 -0.2829
53.2200 -35.4485 -0.2848
53.2400 -35.4619 -0.2826
53.2600 -35.4752 -0.2833
53.2800 -35.4886 -0.2824
53.3000 -35.5019 -0.2837
53.3200 -35.5153 -0.2807
53.3400 -35.5286 -0.2795
53.3600 -35.5419 -0.2819
53.3800 -35.5552 -0.2800
53.4000 -35.5686 -0.2793
53.4200 -35.5819 -0.2803
53.4400 -35.5952 -0.2800
53.4600 -35.6085 -0.2768
53.4800 -35.6219 -0.2798
53.5000 -35.6352 -0.2762
53.5200 -35.6485 -0.2745
53.5400 -35.6618 -0.2778
53.5600 -35.6752 -0.2735
53.5800 -35.6885 -0.2728
53.6000 -35.7019 -0.2724
53.6200 -35.7152 -0.2724
53.6400 -35.7285 -0.2700
53.6600 -35.7419 -0.2736
53.6800 -35.7552 -0.2700
53.7000 -35.7686 -0.2710
53.7200 -35.7819 -0.2701
53.7400 -35.7952 -0.2709
53.7600 -35.8086 -0.2702
53.7800 -35.8219 -0.2724
53.8000 -35.8352 -0.2698
53.8200 -35.8486 -0.2704
53.8400 -35.8619 -0.2713
53.8600 -35.8753 -0.2706
53.8800 -35.8885 -0.2670
53.9000 -35.9018 -0.2684
53.9200 -35.9152 -0.2674
53.9400 -35.9285 -0.2648
53.9600 -35.9419 -0.2680
53.9800 -35.9552 -0.2640
54.0000 -35.9685 -0.2633
54.0200 -35.9819 -0.2615
54.0400 -35.9953 -0.2612
54.0600 -36.0086 -0.2602
54.0800 -36.0219 -0.2619
54.1000 -36.0352 -0.2590
54.1200 -36.0486 -0.2581
54.1400 -36.0619 -0.2587
54.1600 -36.0752 -0.2563
54.1800 -36.0885 -0.2541
54.2000 -36.1019 -0.2571
54.2200 -36.1152 -0.2555
54.2400 -36.1285 -0.2537
54.2600 -36.1418 -0.2541
54.2800 -36.1552 -0.2541
54.3000 -36.1686 -0.2516
54.3200 -36.1819 -0.2542
54.3400 -36.1952 -0.2522
54.3600 -36.2085 -0.2510
54.3800 -36.2219 -0.2518
54.4000 -36.2353 -0.2509
54.4200 -36.2486 -0.2468
54.4400 -36.2619 -0.2494
54.4600 -36.2752 -0.2468
54.4800 -36.2886 -0.2476
54.5000 -36.3019 -0.2478
54.5200 -36.3152 -0.2471
54.5400 -36.3285 -0.2462
54.5600 -36.3419 -0.2473
54.5800 -36.3552 -0.2441
54.6000 -36.3685 -0.2411
54.6200 -36.3818 -0.2428
54.6400 -36.3952 -0.2408
54.6600 -36.4086 -0.2412
54.6800 -36.4219 -0.2399
54.7000 -36.4352 -0.2411
54.7200 -36.4486 -0.2383
54.7400 -36.4619 -0.2393
54.7600 -36.4753 -0.2363
54.7800 -36.4886 -0.2354
54.8000 -36.5019 -0.2359
54.8200 -36.5152 -0.2336
54.8400 -36.5286 -0.2351
54.8600 -36.5419 -0.2348
54.8800 -36.5553 -0.2352
54.9000 -36.5686 -0.2318
54.9200 -36.5819 -0.2306
54.9400 -36.5953 -0.2288
54.9600 -36.6086 -0.2301
54.9800 -36.6219 -0.2319
55.0000 -36.6352 -0.2293
55.0200 -36.6485 -0.2272
55.0400 -36.6618 -0.2266
55.0600 -36.6752 -0.2262
55.0800 -36.6885 -0.2232
55.1000 -36.7019 -0.2242
55.1200 -36.7153 -0.2254
55.1400 -36.7286 -0.2231
55.1600 -36.7419 -0.2236
55.1800 -36.7552 -0.2214
55.2000 -36.7686 -0.2190
55.2200 -36.7819 -0.2185
55.2400 -36.7952 -0.2193
55.2600 -36.8086 -0.2173
55.2800 -36.8219 -0.2183
55.3000 -36.8352 -0.2162
55.3200 -36.8486 -0.2156
55.3400 -36.8619 -0.2156
55.3600 -36.8752 -0.2157
55.3800 -36.8885 -0.2135
55.4000 -36.9019 -0.2155
55.4200 -36.9152 -0.2139
55.4400 -36.9286 -0.2128
55.4600 -36.9419 -0.2127
55.4800 -36.9553 -0.2120
55.5000 -36.9686 -0.2090
55.5200 -36.9819 -0.2088
55.5400 -36.9952 -0.2075
55.5600 -37.0085 -0.2057
55.5800 -37.0219 -0.2073
55.6000 -37.0352 -0.2071
55.6200 -37.0486 -0.2053
55.6400 -37.0619 -0.2038
55.6600 -37.0752 -0.2027
55.6800 -37.0886 -0.2011
55.7000 -37.1018 -0.2027
55.7200 -37.1152 -0.2012
55.7400 -37.1285 -0.2003
55.7600 -37.1419 -0.1989
55.7800 -37.1552 -0.2002
55.8000 -37.1685 -0.1963
55.8200 -37.1819 -0.1989
55.8400 -37.1953 -0.1967
55.8600 -37.2086 -0.1945
55.8800 -37.2219 -0.1937
55.9000 -37.2353 -0.1945
55.9200 -37.2486 -0.1932
55.9400 -37.2620 -0.1939
55.9600 -37.2753 -0.1947
55.9800 -37.2886 -0.1923
56.0000 -37.3019 -0.1908
56.0200 -37.3153 -0.1895
56.0400 -37.3286 -0.1868
56.0600 -37.3418 -0.1904
56.0800 -37.3551 -0.1879
56.1000 -37.3685 -0.1857
56.1200 -37.3819 -0.1858
56.1400 -37.3952 -0.1853
56.1600 -37.4085 -0.1837
56.1800 -37.4219 -0.1861
56.2000 -37.4353 -0.1851
56.2200 -37.4486 -0.1848
56.2400 -37.4619 -0.1836
56.2600 -37.4753 -0.1816
56.2800 -37.4886 -0.1799
56.3000 -37.5020 -0.1779
56.3200 -37.5153 -0.1789
56.3400 -37.5286 -0.1761
56.3600 -37.5419 -0.1788
56.3800 -37.5552 -0.1772
56.4000 -37.5686 -0.1756
56.4200 -37.5819 -0.1739
56.4400 -37.5952 -0.1733
56.4600 -37.6085 -0.1708
56.4800 -37.6219 -0.1716
56.5000 -37.6352 -0.1691
56.5200 -37.6485 -0.1687
56.5400 -37.6619 -0.1683
56.5600 -37.6752 -0.1675
56.5800 -37.6886 -0.1665
56.6000 -37.7019 -0.1660
56.6200 -37.7152 -0.1642
56.6400 -37.7286 -0.1616
56.6600 -37.7419 -0.1625
56.6800 -37.7553 -0.1622
56.7000 -37.7686 -0.1605
56.7200 -37.7819 -0.1618
56.7400 -37.7953 -0.1627
56.7600 -37.8086 -0.1591
56.7800 -37.8219 -0.1586
56.8000 -37.8352 -0.1583
56.8200 -37.8485 -0.1571
56.8400 -37.8619 -0.1570
56.8600 -37.8752 -0.1577
56.8800 -37.8885 -0.1548
56.9000 -37.9018 -0.1544
56.9200 -37.9152 -0.1544
56.9400 -37.9286 -0.1515
56.9600 -37.9419 -0.1522
56.9800 -37.9552 -0.1519
57.0000 -37.9686 -0.1512
57.0200 -37.9819 -0.1505
57.0400 -37.9953 -0.1515
57.0600 -38.0086 -0.1474
57.0800 -38.0219 -0.1463
57.1000 -38.0353 -0.1453
57.1200 -38.0486 -0.1407
57.1400 -38.0619 -0.1423
57.1600 -38.0752 -0.1434
57.1800 -38.0885 -0.1401
57.2000 -38.1019 -0.1420
57.2200 -38.1152 -0.1396
57.2400 -38.1285 -0.1390
57.2600 -38.1419 -0.1404
57.2800 -38.1552 -0.1407
57.3000 -38.1686 -0.1373
57.3200 -38.1819 -0.1383
57.3400 -38.1953 -0.1372
57.3600 -38.2086 -0.1362
57.3800 -38.2220 -0.1353
57.4000 -38.2353 -0.1365
57.4200 -38.2486 -0.1341
57.4400 -38.2619 -0.1344
57.4600 -38.2752 -0.1335
57.4800 -38.2885 -0.1324
57.5000 -38.3018 -0.1316
57.5200 -38.3151 -0.1327
57.5400 -38.3285 -0.1293
57.5600 -38.3419 -0.1291
57.5800 -38.3552 -0.1288
57.6000 -38.3685 -0.1282
57.6200 -38.3819 -0.1275
57.6400 -38.3953 -0.1267
57.6600 -38.4086 -0.1223
57.6800 -38.4219 -0.1223
57.7000 -38.4352 -0.1233
57.7200 -38.4486 -0.1197
57.7400 -38.4619 -0.1208
57.7600 -38.4753 -0.1182
57.7800 -38.4886 -0.1178
57.8000 -38.5019 -0.1180
57.8200 -38.5153 -0.1173
57.8400 -38.5286 -0.1137
57.8600 -38.5419 -0.1118
57.8800 -38.5552 -0.1115
57.9000 -38.5685 -0.1108
57.9200 -38.5819 -0.1090
57.9400 -38.5952 -0.1094
57.9600 -38.6085 -0.1066
57.9800 -38.6218 -0.1073
58.0000 -38.6352 -0.1054
58.0200 -38.6486 -0.1056
58.0400 -38.6619 -0.1036
58.0600 -38.6752 -0.1037
58.0800 -38.6886 -0.1024
58.1000 -38.7019 -0.1029
58.1200 -38.7153 -0.1029
58.1400 -38.7286 -0.1007
58.1600 -38.7419 -0.0989
58.1800 -38.7552 -0.0996
58.2000 -38.7686 -0.0964
58.2200 -38.7819 -0.0999
58.2400 -38.7952 -0.0982
58.2600 -38.8085 -0.0946
58.2800 -38.8219 -0.0933
58.3000 -38.8352 -0.0932
58.3200 -38.8486 -0.0930
58.3400 -38.8619 -0.0906
58.3600 -38.8752 -0.0893
58.3800 -38.8886 -0.0892
58.4000 -38.9019 -0.0865
58.4200 -38.9152 -0.0854
58.4400 -38.9286 -0.0833
58.4600 -38.9419 -0.0820
58.4800 -38.9553 -0.0830
58.5000 -38.9686 -0.0791
58.5200 -38.9819 -0.0786
58.5400 -38.9952 -0.0793
58.5600 -39.0086 -0.0777
58.5800 -39.0219 -0.0768
58.6000 -39.0352 -0.0767
58.6200 -39.0485 -0.0743
58.6400 -39.0619 -0.0714
58.6600 -39.0753 -0.0727
58.6800 -39.0886 -0.0734
58.7000 -39.1019 -0.0707
58.7200 -39.1152 -0.0709
58.7400 -39.1286 -0.0652
58.7600 -39.1419 -0.0657
58.7800 -39.1552 -0.0643
58.8000 -39.1686 -0.0639
58.8200 -39.1819 -0.0632
58.8400 -39.1953 -0.0637
58.8600 -39.2086 -0.0603
58.8800 -39.2219 -0.0605
58.9000 -39.2352 -0.0590
58.9200 -39.2485 -0.0570
58.9400 -39.2618 -0.0555
58.9600 -39.2751 -0.0563
58.9800 -39.2885 -0.0540
59.0000 -39.3018 -0.0515
59.0200 -39.3152 -0.0520
59.0400 -39.3285 -0.0503
59.0600 -39.3418 -0.0504
59.0800 -39.3552 -0.0501
59.1000 -39.3686 -0.0479
59.1200 -39.3820 -0.0474
59.1400 -39.3953 -0.0477
59.1600 -39.4086 -0.0457
59.1800 -39.4219 -0.0451
59.2000 -39.4353 -0.0446
59.2200 -39.4486 -0.0438
59.2400 -39.4619 -0.0411
59.2600 -39.4752 -0.0410
59.2800 -39.4886 -0.0379
59.3000 -39.5019 -0.0388
59.3200 -39.5151 -0.0374
59.3400 -39.5285 -0.0373
59.3600 -39.5418 -0.0373
59.3800 -39.5552 -0.0364
59.4000 -39.5685 -0.0351
59.4200 -39.5818 -0.0324
59.4400 -39.5952 -0.0316
59.4600 -39.6086 -0.0314
59.4800 -39.6220 -0.0301
59.5000 -39.6353 -0.0297
59.5200 -39.6486 -0.0288
59.5400 -39.6619 -0.0267
59.5600 -39.6753 -0.0275
59.5800 -39.6886 -0.0257
59.6000 -39.7019 -0.0265
59.6200 -39.7152 -0.0242
59.6400 -39.7286 -0.0228
59.6600 -39.7419 -0.0221
59.6800 -39.7552 -0.0221
59.7000 -39.7685 -0.0197
59.7200 -39.7819 -0.0170
59.7400 -39.7952 -0.0157
59.7600 -39.8086 -0.0163
59.7800 -39.8219 -0.0142
59.8000 -39.8352 -0.0127
59.8200 -39.8486 -0.0121
59.8400 -39.8619 -0.0090
59.8600 -39.8752 -0.0070
59.8800 -39.8885 -0.0065
59.9000 -39.9019 -0.0070
59.9200 -39.9153 -0.0052
59.9400 -39.9286 -0.0040
59.9600 -39.9419 -0.0006
59.9800 -39.9552 0.0000
60.0000 -39.9686 -0.0025
60.0200 -39.9819 0.0016
60.0400 -39.9952 0.0029
60.0480 -40.0004 0.0075
