Raw Data
Time Displacement Force
(s) (mm) (N)
0.0000 0.0001 -0.1100
0.0200 0.0001 -0.1116
0.0400 0.0009 -0.0733
0.0600 0.0042 -0.0668
0.0800 0.0097 -0.1089
0.1000 0.0154 -0.1157
0.1200 0.0213 -0.0805
0.1400 0.0280 -0.1044
0.1600 0.0353 -0.1131
0.1800 0.0428 -0.0959
0.2000 0.0499 -0.1104
0.2200 0.0568 -0.1114
0.2400 0.0635 -0.0921
0.2600 0.0701 -0.1108
0.2800 0.0768 -0.1013
0.3000 0.0835 -0.0896
0.3200 0.0902 -0.1140
0.3400 0.0969 -0.0937
0.3600 0.1036 -0.0895
0.3800 0.1103 -0.1167
0.4000 0.1169 -0.0901
0.4200 0.1236 -0.0874
0.4400 0.1303 -0.1037
0.4600 0.1370 -0.0875
0.4800 0.1437 -0.0922
0.5000 0.1504 -0.1014
0.5200 0.1571 -0.0866
0.5400 0.1637 -0.0844
0.5600 0.1702 -0.0997
0.5800 0.1769 -0.0822
0.6000 0.1836 -0.0882
0.6200 0.1903 -0.0920
0.6400 0.1970 -0.0817
0.6600 0.2037 -0.0857
0.6800 0.2103 -0.0865
0.7000 0.2170 -0.0791
0.7200 0.2236 -0.0847
0.7400 0.2302 -0.0832
0.7600 0.2369 -0.0741
0.7800 0.2436 -0.0801
0.8000 0.2503 -0.0841
0.8200 0.2569 -0.0740
0.8400 0.2636 -0.0789
0.8600 0.2703 -0.0731
0.8800 0.2770 -0.0732
0.9000 0.2836 -0.0772
0.9200 0.2902 -0.0755
0.9400 0.2968 -0.0716
0.9600 0.3035 -0.0690
0.9800 0.3102 -0.0786
1.0000 0.3169 -0.0742
1.0200 0.3236 -0.0711
1.0400 0.3303 -0.0760
1.0600 0.3370 -0.0657
1.0800 0.3436 -0.0700
1.1000 0.3502 -0.0747
1.1200 0.3569 -0.0683
1.1400 0.3636 -0.0683
1.1600 0.3703 -0.0728
1.1800 0.3770 -0.0668
1.2000 0.3837 -0.0713
1.2200 0.3904 -0.0747
1.2400 0.3970 -0.0685
1.2600 0.4037 -0.0736
1.2800 0.4103 -0.0699
1.3000 0.4169 -0.0684
1.3200 0.4236 -0.0765
1.3400 0.4303 -0.0801
1.3600 0.4370 -0.0695
1.3800 0.4437 -0.0750
1.4000 0.4503 -0.0707
1.4200 0.4570 -0.0751
1.4400 0.4637 -0.0792
1.4600 0.4702 -0.0702
1.4800 0.4769 -0.0751
1.5000 0.4835 -0.0798
1.5200 0.4902 -0.0766
1.5400 0.4969 -0.0816
1.5600 0.5036 -0.0728
1.5800 0.5103 -0.0817
1.6000 0.5170 -0.0872
1.6200 0.5236 -0.0771
1.6400 0.5302 -0.0798
1.6600 0.5368 -0.0870
1.6800 0.5435 -0.0767
1.7000 0.5503 -0.0843
1.7200 0.5570 -0.0901
1.7400 0.5636 -0.0767
1.7600 0.5703 -0.0842
1.7800 0.5770 -0.0928
1.8000 0.5837 -0.0750
1.8200 0.5903 -0.0893
1.8400 0.5969 -0.0932
1.8600 0.6036 -0.0763
1.8800 0.6103 -0.0875
1.9000 0.6170 -0.0902
1.9200 0.6237 -0.0798
1.9400 0.6304 -0.0906
1.9600 0.6370 -0.0918
1.9800 0.6437 -0.0821
2.0000 0.6503 -0.0924
2.0200 0.6569 -0.0843
2.0400 0.6636 -0.0769
2.0600 0.6703 -0.0953
2.0800 0.6770 -0.0912
2.1000 0.6837 -0.0799
2.1200 0.6903 -0.0938
2.1400 0.6970 -0.0872
2.1600 0.7037 -0.0814
2.1800 0.7103 -0.0976
2.2000 0.7169 -0.0879
2.2200 0.7236 -0.0789
2.2400 0.7303 -0.0948
2.2600 0.7370 -0.0837
2.2800 0.7436 -0.0867
2.3000 0.7503 -0.0958
2.3200 0.7570 -0.0836
2.3400 0.7636 -0.0839
2.3600 0.7703 -0.0952
2.3800 0.7769 -0.0807
2.4000 0.7835 -0.0896
2.4200 0.7902 -0.0929
2.4400 0.7969 -0.0839
2.4600 0.8036 -0.0934
2.4800 0.8103 -0.0871
2.5000 0.8170 -0.0858
2.5200 0.8237 -0.0983
2.5400 0.8303 -0.0872
2.5600 0.8369 -0.0857
2.5800 0.8436 -0.0923
2.6000 0.8503 -0.0883
2.6200 0.8570 -0.0887
2.6400 0.8637 -0.0909
2.6600 0.8704 -0.0875
2.6800 0.8770 -0.0902
2.7000 0.8837 -0.0938
2.7200 0.8903 -0.0861
2.7400 0.8969 -0.0910
2.7600 0.9036 -0.0928
2.7800 0.9103 -0.0861
2.8000 0.9170 -0.0960
2.8200 0.9237 -0.0884
2.8400 0.9304 -0.0845
2.8600 0.9370 -0.0952
2.8800 0.9437 -0.0924
2.9000 0.9503 -0.0908
2.9200 0.9569 -0.0931
2.9400 0.9635 -0.0898
2.9600 0.9702 -0.0904
2.9800 0.9770 -0.0959
3.0000 0.9837 -0.0947
3.0200 0.9903 -0.0927
3.0400 0.9970 -0.0913
3.0600 1.0037 -0.0938
3.0800 1.0103 -0.0976
3.1000 1.0168 -0.0894
3.1200 1.0235 -0.0898
3.1400 1.0302 -0.0974
3.1600 1.0370 -0.0920
3.1800 1.0436 -0.0928
3.2000 1.0503 -0.0972
3.2200 1.0570 -0.0944
3.2400 1.0637 -0.0951
3.2600 1.0703 -0.0960
3.2800 1.0769 -0.0931
3.3000 1.0836 -0.0954
3.3200 1.0903 -0.0900
3.3400 1.0970 -0.0923
3.3600 1.1037 -0.0914
3.3800 1.1104 -0.0985
3.4000 1.1171 -0.0955
3.4200 1.1237 -0.0896
3.4400 1.1303 -0.0952
3.4600 1.1369 -0.0956
3.4800 1.1436 -0.0919
3.5000 1.1503 -0.0952
3.5200 1.1570 -0.0941
3.5400 1.1637 -0.0948
3.5600 1.1704 -0.0936
3.5800 1.1770 -0.0986
3.6000 1.1837 -0.0962
3.6200 1.1903 -0.0929
3.6400 1.1969 -0.0967
3.6600 1.2035 -0.0936
3.6800 1.2103 -0.0952
3.7000 1.2170 -0.0937
3.7200 1.2236 -0.0960
3.7400 1.2303 -0.0943
3.7600 1.2370 -0.0939
3.7800 1.2437 -0.0956
3.8000 1.2503 -0.0947
3.8200 1.2569 -0.0966
3.8400 1.2636 -0.0958
3.8600 1.2703 -0.0911
3.8800 1.2770 -0.0942
3.9000 1.2836 -0.0965
3.9200 1.2903 -0.0953
3.9400 1.2970 -0.0966
3.9600 1.3037 -0.0946
3.9800 1.3103 -0.0901
4.0000 1.3169 -0.0960
4.0200 1.3235 -0.0925
4.0400 1.3302 -0.0919
4.0600 1.3369 -0.0969
4.0800 1.3437 -0.0901
4.1000 1.3503 -0.0909
4.1200 1.3570 -0.0953
4.1400 1.3637 -0.0890
4.1600 1.3703 -0.0966
4.1800 1.3769 -0.0953
4.2000 1.3836 -0.0875
4.2200 1.3903 -0.0927
4.2400 1.3970 -0.0985
4.2600 1.4037 -0.0929
4.2800 1.4104 -0.0962
4.3000 1.4170 -0.0916
4.3200 1.4237 -0.0920
4.3400 1.4303 -0.0971
4.3600 1.4369 -0.0912
4.3800 1.4435 -0.0955
4.4000 1.4502 -0.0927
4.4200 1.4570 -0.0901
4.4400 1.4636 -0.0959
4.4600 1.4703 -0.0930
4.4800 1.4770 -0.0924
4.5000 1.4837 -0.1000
4.5200 1.4903 -0.0979
4.5400 1.4969 -0.0898
4.5600 1.5035 -0.0961
4.5800 1.5102 -0.0961
4.6000 1.5169 -0.0948
4.6200 1.5236 -0.0993
4.6400 1.5303 -0.0881
4.6600 1.5370 -0.0980
4.6800 1.5437 -0.1051
4.7000 1.5503 -0.0905
4.7200 1.5569 -0.0977
4.7400 1.5636 -0.1021
4.7600 1.5703 -0.0859
4.7800 1.5770 -0.1026
4.8000 1.5837 -0.1003
4.8200 1.5904 -0.0892
4.8400 1.5971 -0.0991
4.8600 1.6037 -0.0998
4.8800 1.6103 -0.0953
4.9000 1.6169 -0.1024
4.9200 1.6236 -0.1001
4.9400 1.6303 -0.0947
4.9600 1.6370 -0.1042
4.9800 1.6437 -0.1075
5.0000 1.6503 -0.0964
5.0200 1.6570 -0.0982
5.0400 1.6637 -0.1041
5.0600 1.6703 -0.0991
5.0800 1.6769 -0.0964
5.1000 1.6835 -0.1076
5.1200 1.6902 -0.0979
5.1400 1.6969 -0.0981
5.1600 1.7036 -0.1077
5.1800 1.7103 -0.0939
5.2000 1.7170 -0.1033
5.2200 1.7237 -0.1112
5.2400 1.7303 -0.0946
5.2600 1.7369 -0.1003
5.2800 1.7435 -0.1099
5.3000 1.7502 -0.0979
5.3200 1.7569 -0.1008
5.3400 1.7636 -0.1134
5.3600 1.7703 -0.0976
5.3800 1.7770 -0.0945
5.4000 1.7836 -0.1094
5.4200 1.7903 -0.1017
5.4400 1.7969 -0.1022
5.4600 1.8036 -0.1078
5.4800 1.8102 -0.0998
5.5000 1.8170 -0.1036
5.5200 1.8237 -0.1126
5.5400 1.8304 -0.0982
5.5600 1.8371 -0.1026
5.5800 1.8437 -0.1099
5.6000 1.8504 -0.0965
5.6200 1.8569 -0.1028
5.6400 1.8636 -0.1143
5.6600 1.8702 -0.0932
5.6800 1.8770 -0.1087
5.7000 1.8837 -0.1125
5.7200 1.8903 -0.0977
5.7400 1.8970 -0.1070
5.7600 1.9037 -0.1164
5.7800 1.9103 -0.0972
5.8000 1.9169 -0.1059
5.8200 1.9235 -0.1101
5.8400 1.9302 -0.1014
5.8600 1.9369 -0.1132
5.8800 1.9436 -0.1084
5.9000 1.9503 -0.0976
5.9200 1.9570 -0.1143
5.9400 1.9636 -0.1079
5.9600 1.9703 -0.1006
5.9800 1.9769 -0.1145
6.0000 1.9835 -0.1086
6.0200 1.9902 -0.1014
6.0400 1.9969 -0.1188
6.0600 2.0036 -0.1073
6.0800 2.0103 -0.1002
6.1000 2.0170 -0.1201
6.1200 2.0237 -0.1086
6.1400 2.0304 -0.1046
6.1600 2.0369 -0.1189
6.1800 2.0436 -0.1057
6.2000 2.0502 -0.1063
6.2200 2.0570 -0.1187
6.2400 2.0637 -0.1051
6.2600 2.0703 -0.1136
6.2800 2.0770 -0.1151
6.3000 2.0837 -0.1065
6.3200 2.0903 -0.1147
6.3400 2.0969 -0.1152
6.3600 2.1035 -0.1013
6.3800 2.1102 -0.1140
6.4000 2.1170 -0.1163
6.4200 2.1237 -0.1095
6.4400 2.1303 -0.1125
6.4600 2.1370 -0.1079
6.4800 2.1437 -0.1110
6.5000 2.1504 -0.1118
6.5200 2.1570 -0.1056
6.5400 2.1636 -0.1156
6.5600 2.1703 -0.1124
6.5800 2.1769 -0.1105
6.6000 2.1836 -0.1080
6.6200 2.1903 -0.1125
6.6400 2.1970 -0.1087
6.6600 2.2037 -0.1150
6.6800 2.2103 -0.1127
6.7000 2.2169 -0.1085
6.7200 2.2235 -0.1129
6.7400 2.2302 -0.1077
6.7600 2.2369 -0.1114
6.7800 2.2436 -0.1176
6.8000 2.2503 -0.1062
6.8200 2.2570 -0.1147
6.8400 2.2637 -0.1152
6.8600 2.2703 -0.1055
6.8800 2.2769 -0.1193
6.9000 2.2836 -0.1131
6.9200 2.2902 -0.1057
6.9400 2.2969 -0.1183
6.9600 2.3036 -0.1135
6.9800 2.3103 -0.1109
7.0000 2.3170 -0.1116
7.0200 2.3237 -0.1157
7.0400 2.3303 -0.1155
7.0600 2.3370 -0.1114
7.0800 2.3436 -0.1130
7.1000 2.3502 -0.1132
7.1200 2.3569 -0.1141
7.1400 2.3636 -0.1150
7.1600 2.3703 -0.1149
7.1800 2.3770 -0.1126
7.2000 2.3837 -0.1163
7.2200 2.3904 -0.1086
7.2400 2.3970 -0.1148
7.2600 2.4036 -0.1184
7.2800 2.4102 -0.1120
7.3000 2.4169 -0.1077
7.3200 2.4237 -0.1179
7.3400 2.4303 -0.1166
7.3600 2.4370 -0.1078
7.3800 2.4437 -0.1182
7.4000 2.4503 -0.1175
7.4200 2.4569 -0.1130
7.4400 2.4635 -0.1159
7.4600 2.4702 -0.1076
7.4800 2.4769 -0.1141
7.5000 2.4836 -0.1188
7.5200 2.4903 -0.1131
7.5400 2.4969 -0.1111
7.5600 2.5036 -0.1174
7.5800 2.5103 -0.1171
7.6000 2.5169 -0.1133
7.6200 2.5236 -0.1151
7.6400 2.5302 -0.1140
7.6600 2.5369 -0.1165
7.6800 2.5437 -0.1175
7.7000 2.5504 -0.1095
7.7200 2.5570 -0.1149
7.7400 2.5637 -0.1173
7.7600 2.5704 -0.1130
7.7800 2.5770 -0.1225
7.8000 2.5836 -0.1131
7.8200 2.5902 -0.1118
7.8400 2.5970 -0.1193
7.8600 2.6037 -0.1155
7.8800 2.6103 -0.1172
7.9000 2.6170 -0.1239
7.9200 2.6237 -0.1108
7.9400 2.6303 -0.1162
7.9600 2.6369 -0.1270
7.9800 2.6436 -0.1139
8.0000 2.6502 -0.1136
8.0200 2.6569 -0.1243
8.0400 2.6636 -0.1172
8.0600 2.6703 -0.1213
8.0800 2.6770 -0.1197
8.1000 2.6837 -0.1140
8.1200 2.6903 -0.1237
8.1400 2.6970 -0.1238
8.1600 2.7035 -0.1120
8.1800 2.7102 -0.1205
8.2000 2.7169 -0.1216
8.2200 2.7236 -0.1179
8.2400 2.7303 -0.1207
8.2600 2.7370 -0.1212
8.2800 2.7437 -0.1181
8.3000 2.7504 -0.1223
8.3200 2.7570 -0.1226
8.3400 2.7635 -0.1202
8.3600 2.7702 -0.1207
8.3800 2.7769 -0.1185
8.4000 2.7836 -0.1240
8.4200 2.7903 -0.1215
8.4400 2.7970 -0.1168
8.4600 2.8037 -0.1261
8.4800 2.8103 -0.1226
8.5000 2.8170 -0.1196
8.5200 2.8236 -0.1266
8.5400 2.8302 -0.1228
8.5600 2.8369 -0.1240
8.5800 2.8437 -0.1198
8.6000 2.8504 -0.1233
8.6200 2.8570 -0.1294
8.6400 2.8637 -0.1240
8.6600 2.8704 -0.1202
8.6800 2.8770 -0.1286
8.7000 2.8836 -0.1194
8.7200 2.8902 -0.1212
8.7400 2.8969 -0.1298
8.7600 2.9036 -0.1179
8.7800 2.9103 -0.1197
8.8000 2.9170 -0.1311
8.8200 2.9237 -0.1175
8.8400 2.9303 -0.1282
8.8600 2.9369 -0.1330
8.8800 2.9435 -0.1120
8.9000 2.9502 -0.1264
8.9200 2.9569 -0.1339
8.9400 2.9636 -0.1091
8.9600 2.9703 -0.1298
8.9800 2.9769 -0.1345
9.0000 2.9836 -0.1086
9.0200 2.9903 -0.1259
9.0400 2.9970 -0.1334
9.0600 3.0036 -0.1170
9.0800 3.0102 -0.1317
9.1000 3.0169 -0.1187
9.1200 3.0236 -0.1146
9.1400 3.0303 -0.1452
9.1600 3.0370 -0.1262
9.1800 3.0437 -0.1072
9.2000 3.0504 -0.1379
9.2200 3.0570 -0.1259
9.2400 3.0636 -0.1154
9.2600 3.0702 -0.1360
9.2800 3.0769 -0.1166
9.3000 3.0836 -0.1190
9.3200 3.0904 -0.1343
9.3400 3.0970 -0.1162
9.3600 3.1037 -0.1235
9.3800 3.1104 -0.1431
9.4000 3.1170 -0.1114
9.4200 3.1236 -0.1162
9.4400 3.1302 -0.1368
9.4600 3.1369 -0.1268
9.4800 3.1436 -0.1274
9.5000 3.1503 -0.1243
9.5200 3.1570 -0.1165
9.5400 3.1637 -0.1302
9.5600 3.1704 -0.1310
9.5800 3.1770 -0.1238
9.6000 3.1836 -0.1240
9.6200 3.1902 -0.1218
9.6400 3.1969 -0.1280
9.6600 3.2036 -0.1282
9.6800 3.2103 -0.1231
9.7000 3.2170 -0.1306
9.7200 3.2236 -0.1230
9.7400 3.2303 -0.1237
9.7600 3.2370 -0.1331
9.7800 3.2436 -0.1267
9.8000 3.2502 -0.1221
9.8200 3.2569 -0.1284
9.8400 3.2636 -0.1238
9.8600 3.2703 -0.1270
9.8800 3.2770 -0.1325
9.9000 3.2837 -0.1179
9.9200 3.2904 -0.1287
9.9400 3.2970 -0.1324
9.9600 3.3036 -0.1183
9.9800 3.3102 -0.1325
10.0000 3.3169 -0.1283
10.0200 3.3237 -0.1192
10.0400 3.3304 -0.1315
10.0600 3.3370 -0.1325
10.0800 3.3437 -0.1230
10.1000 3.3503 -0.1311
10.1200 3.3570 -0.1315
10.1400 3.3636 -0.1250
10.1600 3.3702 -0.1339
10.1800 3.3769 -0.1289
10.2000 3.3836 -0.1219
10.2200 3.3903 -0.1329
10.2400 3.3970 -0.1281
10.2600 3.4036 -0.1274
10.2800 3.4103 -0.1319
10.3000 3.4170 -0.1250
10.3200 3.4236 -0.1298
10.3400 3.4302 -0.1290
10.3600 3.4369 -0.1276
10.3800 3.4436 -0.1282
10.4000 3.4503 -0.1314
10.4200 3.4570 -0.1335
10.4400 3.4636 -0.1253
10.4600 3.4703 -0.1306
10.4800 3.4770 -0.1354
10.5000 3.4836 -0.1252
10.5200 3.4902 -0.1338
10.5400 3.4969 -0.1286
10.5600 3.5036 -0.1278
10.5800 3.5103 -0.1350
10.6000 3.5170 -0.1365
10.6200 3.5237 -0.1262
10.6400 3.5304 -0.1345
10.6600 3.5370 -0.1324
10.6800 3.5436 -0.1240
10.7000 3.5502 -0.1358
10.7200 3.5569 -0.1290
10.7400 3.5636 -0.1289
10.7600 3.5703 -0.1402
10.7800 3.5770 -0.1260
10.8000 3.5837 -0.1273
10.8200 3.5904 -0.1423
10.8400 3.5970 -0.1290
10.8600 3.6036 -0.1222
10.8800 3.6102 -0.1398
10.9000 3.6169 -0.1281
10.9200 3.6236 -0.1242
10.9400 3.6303 -0.1409
10.9600 3.6370 -0.1258
10.9800 3.6437 -0.1292
11.0000 3.6504 -0.1403
11.0200 3.6570 -0.1241
11.0400 3.6636 -0.1314
11.0600 3.6702 -0.1391
11.0800 3.6769 -0.1175
11.1000 3.6836 -0.1359
11.1200 3.6903 -0.1404
11.1400 3.6969 -0.1174
11.1600 3.7036 -0.1353
11.1800 3.7103 -0.1436
11.2000 3.7170 -0.1206
11.2200 3.7236 -0.1339
11.2400 3.7302 -0.1385
11.2600 3.7369 -0.1241
11.2800 3.7436 -0.1301
11.3000 3.7503 -0.1367
11.3200 3.7570 -0.1275
11.3400 3.7637 -0.1356
11.3600 3.7704 -0.1349
11.3800 3.7771 -0.1281
11.4000 3.7836 -0.1409
11.4200 3.7902 -0.1298
11.4400 3.7969 -0.1277
11.4600 3.8036 -0.1391
11.4800 3.8104 -0.1295
11.5000 3.8170 -0.1299
11.5200 3.8237 -0.1387
11.5400 3.8304 -0.1317
11.5600 3.8370 -0.1346
11.5800 3.8436 -0.1283
11.6000 3.8502 -0.1326
11.6200 3.8569 -0.1384
11.6400 3.8636 -0.1249
11.6600 3.8703 -0.1324
11.6800 3.8769 -0.1419
11.7000 3.8836 -0.1224
11.7200 3.8903 -0.1308
11.7400 3.8970 -0.1477
11.7600 3.9036 -0.1314
11.7800 3.9102 -0.1261
11.8000 3.9168 -0.1367
11.8200 3.9235 -0.1285
11.8400 3.9303 -0.1417
11.8600 3.9369 -0.1356
11.8800 3.9436 -0.1235
11.9000 3.9503 -0.1395
11.9200 3.9570 -0.1387
11.9400 3.9636 -0.1276
11.9600 3.9702 -0.1393
11.9800 3.9769 -0.1325
12.0000 3.9836 -0.1320
12.0200 3.9903 -0.1368
12.0400 3.9970 -0.1318
12.0600 4.0037 -0.1327
12.0800 4.0104 -0.1399
12.1000 4.0170 -0.1294
12.1200 4.0236 -0.1283
12.1400 4.0303 -0.1400
12.1600 4.0369 -0.1389
12.1800 4.0436 -0.1315
12.2000 4.0503 -0.1382
12.2200 4.0570 -0.1329
12.2400 4.0637 -0.1344
12.2600 4.0704 -0.1370
12.2800 4.0770 -0.1374
12.3000 4.0836 -0.1367
12.3200 4.0902 -0.1326
12.3400 4.0969 -0.1371
12.3600 4.1036 -0.1380
12.3800 4.1103 -0.1356
12.4000 4.1170 -0.1367
12.4200 4.1237 -0.1357
12.4400 4.1304 -0.1355
12.4600 4.1370 -0.1352
12.4800 4.1436 -0.1409
12.5000 4.1502 -0.1390
12.5200 4.1569 -0.1379
12.5400 4.1636 -0.1284
12.5600 4.1703 -0.1413
12.5800 4.1770 -0.1460
12.6000 4.1836 -0.1257
12.6200 4.1903 -0.1399
12.6400 4.1970 -0.1435
12.6600 4.2036 -0.1286
12.6800 4.2103 -0.1409
12.7000 4.2169 -0.1432
12.7200 4.2236 -0.1290
12.7400 4.2303 -0.1417
12.7600 4.2370 -0.1380
12.7800 4.2437 -0.1313
12.8000 4.2504 -0.1425
12.8200 4.2570 -0.1402
12.8400 4.2636 -0.1322
12.8600 4.2702 -0.1426
12.8800 4.2769 -0.1365
12.9000 4.2836 -0.1393
12.9200 4.2903 -0.1451
12.9400 4.2970 -0.1338
12.9600 4.3037 -0.1385
12.9800 4.3104 -0.1456
13.0000 4.3170 -0.1357
13.0200 4.3236 -0.1403
13.0400 4.3302 -0.1388
13.0600 4.3369 -0.1371
13.0800 4.3436 -0.1355
13.1000 4.3503 -0.1427
13.1200 4.3570 -0.1414
13.1400 4.3637 -0.1371
13.1600 4.3703 -0.1383
13.1800 4.3770 -0.1470
13.2000 4.3836 -0.1406
13.2200 4.3902 -0.1367
13.2400 4.3969 -0.1432
13.2600 4.4035 -0.1393
13.2800 4.4103 -0.1373
13.3000 4.4169 -0.1412
13.3200 4.4236 -0.1426
13.3400 4.4303 -0.1417
13.3600 4.4370 -0.1406
13.3800 4.4436 -0.1403
13.4000 4.4502 -0.1414
13.4200 4.4569 -0.1397
13.4400 4.4636 -0.1351
13.4600 4.4703 -0.1444
13.4800 4.4770 -0.1446
13.5000 4.4837 -0.1371
13.5200 4.4904 -0.1430
13.5400 4.4970 -0.1413
13.5600 4.5036 -0.1404
13.5800 4.5102 -0.1399
13.6000 4.5169 -0.1498
13.6200 4.5236 -0.1440
13.6400 4.5303 -0.1398
13.6600 4.5370 -0.1362
13.6800 4.5437 -0.1482
13.7000 4.5504 -0.1417
13.7200 4.5570 -0.1387
13.7400 4.5636 -0.1471
13.7600 4.5702 -0.1351
13.7800 4.5768 -0.1383
13.8000 4.5835 -0.1522
13.8200 4.5903 -0.1354
13.8400 4.5970 -0.1370
13.8600 4.6037 -0.1497
13.8800 4.6103 -0.1386
13.9000 4.6170 -0.1427
13.9200 4.6237 -0.1487
13.9400 4.6302 -0.1313
13.9600 4.6369 -0.1430
13.9800 4.6435 -0.1467
14.0000 4.6503 -0.1337
14.0200 4.6570 -0.1471
14.0400 4.6637 -0.1467
14.0600 4.6703 -0.1378
14.0800 4.6770 -0.1444
14.1000 4.6836 -0.1494
14.1200 4.6902 -0.1390
14.1400 4.6969 -0.1417
14.1600 4.7036 -0.1426
14.1800 4.7103 -0.1403
14.2000 4.7170 -0.1439
14.2200 4.7237 -0.1461
14.2400 4.7304 -0.1407
14.2600 4.7371 -0.1456
14.2800 4.7437 -0.1441
14.3000 4.7503 -0.1431
14.3200 4.7569 -0.1426
14.3400 4.7636 -0.1451
14.3600 4.7703 -0.1386
14.3800 4.7770 -0.1433
14.4000 4.7837 -0.1500
14.4200 4.7904 -0.1406
14.4400 4.7971 -0.1446
14.4600 4.8037 -0.1460
14.4800 4.8103 -0.1396
14.5000 4.8169 -0.1464
14.5200 4.8236 -0.1405
14.5400 4.8303 -0.1426
14.5600 4.8370 -0.1460
14.5800 4.8436 -0.1408
14.6000 4.8503 -0.1388
14.6200 4.8570 -0.1452
14.6400 4.8636 -0.1470
14.6600 4.8702 -0.1401
14.6800 4.8769 -0.1436
14.7000 4.8835 -0.1426
14.7200 4.8903 -0.1426
14.7400 4.8970 -0.1462
14.7600 4.9036 -0.1457
14.7800 4.9103 -0.1448
14.8000 4.9170 -0.1431
14.8200 4.9236 -0.1479
14.8400 4.9303 -0.1444
14.8600 4.9369 -0.1440
14.8800 4.9436 -0.1444
14.9000 4.9503 -0.1456
14.9200 4.9570 -0.1480
14.9400 4.9637 -0.1464
14.9600 4.9704 -0.1449
14.9800 4.9770 -0.1484
15.0000 4.9837 -0.1541
15.0200 4.9902 -0.1396
15.0400 4.9969 -0.1469
15.0600 5.0036 -0.1517
15.0800 5.0103 -0.1442
15.1000 5.0170 -0.1417
15.1200 5.0237 -0.1518
15.1400 5.0304 -0.1471
15.1600 5.0370 -0.1444
15.1800 5.0436 -0.1545
15.2000 5.0502 -0.1475
15.2200 5.0569 -0.1424
15.2400 5.0635 -0.1586
15.2600 5.0703 -0.1430
15.2800 5.0770 -0.1460
15.3000 5.0837 -0.1555
15.3200 5.0904 -0.1431
15.3400 5.0971 -0.1493
15.3600 5.1037 -0.1546
15.3800 5.1103 -0.1438
15.4000 5.1168 -0.1531
15.4200 5.1235 -0.1537
15.4400 5.1302 -0.1394
15.4600 5.1369 -0.1541
15.4800 5.1436 -0.1559
15.5000 5.1503 -0.1356
15.5200 5.1570 -0.1576
15.5400 5.1636 -0.1576
15.5600 5.1702 -0.1437
15.5800 5.1769 -0.1514
15.6000 5.1836 -0.1506
15.6200 5.1903 -0.1437
15.6400 5.1970 -0.1556
15.6600 5.2037 -0.1522
15.6800 5.2103 -0.1427
15.7000 5.2171 -0.1549
15.7200 5.2237 -0.1500
15.7400 5.2304 -0.1485
15.7600 5.2370 -0.1518
15.7800 5.2436 -0.1480
15.8000 5.2503 -0.1511
15.8200 5.2570 -0.1532
15.8400 5.2637 -0.1437
15.8600 5.2704 -0.1534
15.8800 5.2771 -0.1528
15.9000 5.2837 -0.1442
15.9200 5.2903 -0.1512
15.9400 5.2969 -0.1530
15.9600 5.3035 -0.1458
15.9800 5.3102 -0.1534
16.0000 5.3169 -0.1511
16.0200 5.3236 -0.1478
16.0400 5.3303 -0.1537
16.0600 5.3370 -0.1497
16.0800 5.3437 -0.1480
16.1000 5.3503 -0.1571
16.1200 5.3569 -0.1493
16.1400 5.3636 -0.1438
16.1600 5.3703 -0.1589
16.1800 5.3770 -0.1509
16.2000 5.3836 -0.1400
16.2200 5.3903 -0.1581
16.2400 5.3970 -0.1483
16.2600 5.4037 -0.1456
16.2800 5.4103 -0.1590
16.3000 5.4169 -0.1491
16.3200 5.4236 -0.1473
16.3400 5.4303 -0.1570
16.3600 5.4370 -0.1538
16.3800 5.4437 -0.1437
16.4000 5.4503 -0.1549
16.4200 5.4570 -0.1526
16.4400 5.4637 -0.1459
16.4600 5.4703 -0.1487
16.4800 5.4769 -0.1525
16.5000 5.4835 -0.1505
16.5200 5.4903 -0.1499
16.5400 5.4970 -0.1528
16.5600 5.5037 -0.1491
16.5800 5.5104 -0.1494
16.6000 5.5170 -0.1524
16.6200 5.5237 -0.1466
16.6400 5.5302 -0.1539
16.6600 5.5369 -0.1462
16.6800 5.5436 -0.1476
16.7000 5.5503 -0.1521
16.7200 5.5570 -0.1541
16.7400 5.5636 -0.1462
16.7600 5.5703 -0.1524
16.7800 5.5769 -0.1511
16.8000 5.5836 -0.1485
16.8200 5.5902 -0.1557
16.8400 5.5968 -0.1480
16.8600 5.6035 -0.1477
16.8800 5.6103 -0.1525
16.9000 5.6170 -0.1530
16.9200 5.6236 -0.1505
16.9400 5.6303 -0.1533
16.9600 5.6370 -0.1537
16.9800 5.6437 -0.1475
17.0000 5.6503 -0.1528
17.0200 5.6569 -0.1511
17.0400 5.6636 -0.1544
17.0600 5.6703 -0.1506
17.0800 5.6770 -0.1501
17.1000 5.6837 -0.1527
17.1200 5.6904 -0.1507
17.1400 5.6970 -0.1579
17.1600 5.7037 -0.1487
17.1800 5.7103 -0.1489
17.2000 5.7169 -0.1583
17.2200 5.7236 -0.1507
17.2400 5.7303 -0.1485
17.2600 5.7370 -0.1580
17.2800 5.7437 -0.1553
17.3000 5.7503 -0.1452
17.3200 5.7570 -0.1589
17.3400 5.7637 -0.1515
17.3600 5.7703 -0.1459
17.3800 5.7769 -0.1595
17.4000 5.7836 -0.1503
17.4200 5.7902 -0.1514
17.4400 5.7970 -0.1568
17.4600 5.8036 -0.1507
17.4800 5.8103 -0.1550
17.5000 5.8170 -0.1624
17.5200 5.8237 -0.1467
17.5400 5.8303 -0.1528
17.5600 5.8368 -0.1576
17.5800 5.8435 -0.1553
17.6000 5.8502 -0.1559
17.6200 5.8569 -0.1500
17.6400 5.8636 -0.1528
17.6600 5.8703 -0.1629
17.6800 5.8770 -0.1491
17.7000 5.8837 -0.1455
17.7200 5.8903 -0.1664
17.7400 5.8969 -0.1571
17.7600 5.9036 -0.1448
17.7800 5.9103 -0.1615
17.8000 5.9170 -0.1546
17.8200 5.9237 -0.1555
17.8400 5.9303 -0.1658
17.8600 5.9371 -0.1450
17.8800 5.9437 -0.1523
17.9000 5.9504 -0.1708
17.9200 5.9570 -0.1500
17.9400 5.9636 -0.1539
17.9600 5.9703 -0.1606
17.9800 5.9770 -0.1504
18.0000 5.9837 -0.1669
18.0200 5.9904 -0.1594
18.0400 5.9970 -0.1416
18.0600 6.0037 -0.1704
18.0800 6.0103 -0.1681
18.1000 6.0169 -0.1384
18.1200 6.0235 -0.1604
18.1400 6.0302 -0.1627
18.1600 6.0370 -0.1505
18.1800 6.0437 -0.1667
18.2000 6.0503 -0.1595
18.2200 6.0570 -0.1457
18.2400 6.0637 -0.1628
18.2600 6.0703 -0.1609
18.2800 6.0769 -0.1594
18.3000 6.0836 -0.1565
18.3200 6.0903 -0.1570
18.3400 6.0970 -0.1557
18.3600 6.1036 -0.1558
18.3800 6.1103 -0.1574
18.4000 6.1169 -0.1613
18.4200 6.1236 -0.1571
18.4400 6.1303 -0.1547
18.4600 6.1369 -0.1614
18.4800 6.1436 -0.1589
18.5000 6.1503 -0.1598
18.5200 6.1570 -0.1587
18.5400 6.1637 -0.1494
18.5600 6.1704 -0.1636
18.5800 6.1770 -0.1592
18.6000 6.1837 -0.1484
18.6200 6.1903 -0.1677
18.6400 6.1969 -0.1607
18.6600 6.2036 -0.1435
18.6800 6.2103 -0.1641
18.7000 6.2170 -0.1634
18.7200 6.2237 -0.1478
18.7400 6.2304 -0.1654
18.7600 6.2370 -0.1546
18.7800 6.2437 -0.1529
18.8000 6.2503 -0.1708
18.8200 6.2569 -0.1540
18.8400 6.2636 -0.1479
18.8600 6.2703 -0.1678
18.8800 6.2770 -0.1578
18.9000 6.2836 -0.1482
18.9200 6.2903 -0.1617
18.9400 6.2970 -0.1592
18.9600 6.3037 -0.1542
18.9800 6.3103 -0.1644
19.0000 6.3169 -0.1509
19.0200 6.3235 -0.1580
19.0400 6.3302 -0.1632
19.0600 6.3369 -0.1537
19.0800 6.3436 -0.1587
19.1000 6.3503 -0.1625
19.1200 6.3570 -0.1585
19.1400 6.3637 -0.1545
19.1600 6.3703 -0.1666
19.1800 6.3769 -0.1603
19.2000 6.3835 -0.1545
19.2200 6.3902 -0.1625
19.2400 6.3970 -0.1586
19.2600 6.4037 -0.1579
19.2800 6.4104 -0.1568
19.3000 6.4171 -0.1638
19.3200 6.4237 -0.1578
19.3400 6.4303 -0.1585
19.3600 6.4369 -0.1630
19.3800 6.4436 -0.1514
19.4000 6.4502 -0.1635
19.4200 6.4569 -0.1625
19.4400 6.4637 -0.1515
19.4600 6.4703 -0.1691
19.4800 6.4770 -0.1594
19.5000 6.4837 -0.1497
19.5200 6.4904 -0.1718
19.5400 6.4969 -0.1581
19.5600 6.5035 -0.1538
19.5800 6.5102 -0.1664
19.6000 6.5169 -0.1590
19.6200 6.5236 -0.1528
19.6400 6.5303 -0.1680
19.6600 6.5370 -0.1555
19.6800 6.5437 -0.1629
19.7000 6.5503 -0.1669
19.7200 6.5569 -0.1545
19.7400 6.5635 -0.1586
19.7600 6.5702 -0.1641
19.7800 6.5769 -0.1575
19.8000 6.5836 -0.1598
19.8200 6.5903 -0.1645
19.8400 6.5970 -0.1532
19.8600 6.6036 -0.1585
19.8800 6.6103 -0.1675
19.9000 6.6169 -0.1607
19.9200 6.6236 -0.1585
19.9400 6.6302 -0.1589
19.9600 6.6369 -0.1680
19.9800 6.6436 -0.1576
20.0000 6.6503 -0.1624
20.0200 6.6570 -0.1634
20.0400 6.6637 -0.1572
20.0600 6.6704 -0.1633
20.0800 6.6770 -0.1610
20.1000 6.6836 -0.1512
20.1200 6.6903 -0.1630
20.1400 6.6970 -0.1658
20.1600 6.7037 -0.1562
20.1800 6.7104 -0.1655
20.2000 6.7170 -0.1655
20.2200 6.7237 -0.1582
20.2400 6.7303 -0.1637
20.2600 6.7369 -0.1590
20.2800 6.7435 -0.1627
20.3000 6.7502 -0.1618
20.3200 6.7569 -0.1594
20.3400 6.7636 -0.1654
20.3600 6.7703 -0.1614
20.3800 6.7769 -0.1623
20.4000 6.7836 -0.1624
20.4200 6.7903 -0.1602
20.4400 6.7969 -0.1623
20.4600 6.8035 -0.1594
20.4800 6.8102 -0.1594
20.5000 6.8169 -0.1624
20.5200 6.8236 -0.1605
20.5400 6.8303 -0.1594
20.5600 6.8370 -0.1633
20.5800 6.8437 -0.1620
20.6000 6.8504 -0.1641
20.6200 6.8570 -0.1677
20.6400 6.8636 -0.1549
20.6600 6.8702 -0.1637
20.6800 6.8770 -0.1657
20.7000 6.8837 -0.1536
20.7200 6.8904 -0.1680
20.7400 6.8970 -0.1652
20.7600 6.9037 -0.1540
20.7800 6.9103 -0.1652
20.8000 6.9169 -0.1628
20.8200 6.9235 -0.1543
20.8400 6.9302 -0.1665
20.8600 6.9369 -0.1644
20.8800 6.9436 -0.1557
20.9000 6.9503 -0.1667
20.9200 6.9570 -0.1632
20.9400 6.9637 -0.1549
20.9600 6.9704 -0.1632
20.9800 6.9770 -0.1668
21.0000 6.9836 -0.1578
21.0200 6.9903 -0.1611
21.0400 6.9969 -0.1646
21.0600 7.0036 -0.1596
21.0800 7.0103 -0.1615
21.1000 7.0170 -0.1578
21.1200 7.0237 -0.1647
21.1400 7.0304 -0.1590
21.1600 7.0369 -0.1560
21.1800 7.0435 -0.1660
21.2000 7.0502 -0.1609
21.2200 7.0569 -0.1569
21.2400 7.0636 -0.1682
21.2600 7.0703 -0.1590
21.2800 7.0770 -0.1642
21.3000 7.0836 -0.1674
21.3200 7.0903 -0.1601
21.3400 7.0969 -0.1611
21.3600 7.1035 -0.1682
21.3800 7.1102 -0.1587
21.4000 7.1169 -0.1605
21.4200 7.1237 -0.1697
21.4400 7.1303 -0.1624
21.4600 7.1370 -0.1566
21.4800 7.1437 -0.1710
21.5000 7.1504 -0.1664
21.5200 7.1570 -0.1543
21.5400 7.1636 -0.1635
21.5600 7.1702 -0.1666
21.5800 7.1769 -0.1591
21.6000 7.1836 -0.1628
21.6200 7.1903 -0.1649
21.6400 7.1970 -0.1642
21.6600 7.2037 -0.1662
21.6800 7.2104 -0.1580
21.7000 7.2170 -0.1602
21.7200 7.2236 -0.1729
21.7400 7.2302 -0.1585
21.7600 7.2369 -0.1583
21.7800 7.2437 -0.1733
21.8000 7.2503 -0.1588
21.8200 7.2570 -0.1590
21.8400 7.2637 -0.1738
21.8600 7.2703 -0.1634
21.8800 7.2769 -0.1587
21.9000 7.2835 -0.1667
21.9200 7.2902 -0.1660
21.9400 7.2969 -0.1626
21.9600 7.3036 -0.1653
21.9800 7.3103 -0.1621
22.0000 7.3169 -0.1587
22.0200 7.3236 -0.1743
22.0400 7.3303 -0.1629
22.0600 7.3370 -0.1660
22.0800 7.3436 -0.1688
22.1000 7.3502 -0.1506
22.1200 7.3569 -0.1614
22.1400 7.3636 -0.1804
22.1600 7.3703 -0.1550
22.1800 7.3770 -0.1542
22.2000 7.3837 -0.1777
22.2200 7.3904 -0.1590
22.2400 7.3970 -0.1605
22.2600 7.4036 -0.1744
22.2800 7.4102 -0.1543
22.3000 7.4169 -0.1637
22.3200 7.4236 -0.1725
22.3400 7.4303 -0.1536
22.3600 7.4370 -0.1721
22.3800 7.4437 -0.1724
22.4000 7.4503 -0.1486
22.4200 7.4570 -0.1661
22.4400 7.4636 -0.1770
22.4600 7.4702 -0.1547
22.4800 7.4769 -0.1565
22.5000 7.4836 -0.1753
22.5200 7.4903 -0.1643
22.5400 7.4970 -0.1589
22.5600 7.5037 -0.1695
22.5800 7.5103 -0.1673
22.6000 7.5170 -0.1672
22.6200 7.5235 -0.1634
22.6400 7.5302 -0.1647
22.6600 7.5369 -0.1678
22.6800 7.5436 -0.1648
22.7000 7.5503 -0.1637
22.7200 7.5570 -0.1651
22.7400 7.5637 -0.1660
22.7600 7.5704 -0.1608
22.7800 7.5770 -0.1624
22.8000 7.5836 -0.1713
22.8200 7.5902 -0.1605
22.8400 7.5969 -0.1678
22.8600 7.6036 -0.1738
22.8800 7.6103 -0.1641
22.9000 7.6170 -0.1620
22.9200 7.6237 -0.1720
22.9400 7.6304 -0.1640
22.9600 7.6370 -0.1658
22.9800 7.6436 -0.1697
23.0000 7.6502 -0.1606
23.0200 7.6569 -0.1665
23.0400 7.6636 -0.1722
23.0600 7.6703 -0.1606
23.0800 7.6770 -0.1656
23.1000 7.6837 -0.1691
23.1200 7.6904 -0.1632
23.1400 7.6970 -0.1699
23.1600 7.7036 -0.1705
23.1800 7.7102 -0.1593
23.2000 7.7169 -0.1665
23.2200 7.7236 -0.1676
23.2400 7.7303 -0.1621
23.2600 7.7370 -0.1683
23.2800 7.7437 -0.1685
23.3000 7.7503 -0.1633
23.3200 7.7570 -0.1679
23.3400 7.7635 -0.1667
23.3600 7.7702 -0.1620
23.3800 7.7769 -0.1702
23.4000 7.7836 -0.1641
23.4200 7.7903 -0.1641
23.4400 7.7969 -0.1693
23.4600 7.8036 -0.1633
23.4800 7.8103 -0.1642
23.5000 7.8169 -0.1690
23.5200 7.8236 -0.1646
23.5400 7.8302 -0.1647
23.5600 7.8369 -0.1661
23.5800 7.8436 -0.1665
23.6000 7.8503 -0.1694
23.6200 7.8570 -0.1655
23.6400 7.8637 -0.1659
23.6600 7.8704 -0.1699
23.6800 7.8770 -0.1643
23.7000 7.8836 -0.1665
23.7200 7.8902 -0.1648
23.7400 7.8969 -0.1628
23.7600 7.9036 -0.1671
23.7800 7.9104 -0.1710
23.8000 7.9170 -0.1613
23.8200 7.9237 -0.1720
23.8400 7.9304 -0.1694
23.8600 7.9370 -0.1580
23.8800 7.9436 -0.1716
23.9000 7.9502 -0.1654
23.9200 7.9569 -0.1592
23.9400 7.9636 -0.1757
23.9600 7.9703 -0.1670
23.9800 7.9770 -0.1605
24.0000 7.9837 -0.1749
24.0200 7.9903 -0.1662
24.0400 7.9970 -0.1652
24.0600 8.0036 -0.1729
24.0800 8.0102 -0.1611
24.1000 8.0169 -0.1630
24.1200 8.0236 -0.1768
24.1400 8.0303 -0.1619
24.1600 8.0370 -0.1668
24.1800 8.0436 -0.1741
24.2000 8.0503 -0.1599
24.2200 8.0570 -0.1672
24.2400 8.0636 -0.1781
24.2600 8.0702 -0.1607
24.2800 8.0769 -0.1670
24.3000 8.0836 -0.1681
24.3200 8.0903 -0.1620
24.3400 8.0970 -0.1699
24.3600 8.1037 -0.1731
24.3800 8.1104 -0.1641
24.4000 8.1170 -0.1709
24.4200 8.1236 -0.1700
24.4400 8.1302 -0.1643
24.4600 8.1369 -0.1734
24.4800 8.1436 -0.1639
24.5000 8.1504 -0.1664
24.5200 8.1570 -0.1745
24.5400 8.1637 -0.1620
24.5600 8.1704 -0.1677
24.5800 8.1770 -0.1727
24.6000 8.1836 -0.1657
24.6200 8.1902 -0.1686
24.6400 8.1969 -0.1703
24.6600 8.2036 -0.1641
24.6800 8.2103 -0.1710
24.7000 8.2170 -0.1709
24.7200 8.2236 -0.1647
24.7400 8.2303 -0.1779
24.7600 8.2370 -0.1639
24.7800 8.2436 -0.1652
24.8000 8.2502 -0.1723
24.8200 8.2569 -0.1669
24.8400 8.2636 -0.1736
24.8600 8.2703 -0.1710
24.8800 8.2770 -0.1643
24.9000 8.2836 -0.1739
24.9200 8.2903 -0.1717
24.9400 8.2970 -0.1656
24.9600 8.3036 -0.1781
24.9800 8.3102 -0.1707
25.0000 8.3169 -0.1580
25.0200 8.3236 -0.1796
25.0400 8.3303 -0.1722
25.0600 8.3370 -0.1675
25.0800 8.3437 -0.1760
25.1000 8.3504 -0.1697
25.1200 8.3570 -0.1697
25.1400 8.3636 -0.1752
25.1600 8.3702 -0.1652
25.1800 8.3769 -0.1739
25.2000 8.3836 -0.1754
25.2200 8.3903 -0.1649
25.2400 8.3970 -0.1704
25.2600 8.4037 -0.1782
25.2800 8.4104 -0.1628
25.3000 8.4170 -0.1745
25.3200 8.4236 -0.1691
25.3400 8.4302 -0.1654
25.3600 8.4369 -0.1765
25.3800 8.4436 -0.1684
25.4000 8.4503 -0.1698
25.4200 8.4570 -0.1705
25.4400 8.4637 -0.1732
25.4600 8.4703 -0.1755
25.4800 8.4770 -0.1695
25.5000 8.4836 -0.1712
25.5200 8.4902 -0.1732
25.5400 8.4968 -0.1691
25.5600 8.5035 -0.1655
25.5800 8.5102 -0.1745
25.6000 8.5169 -0.1725
25.6200 8.5236 -0.1602
25.6400 8.5303 -0.1823
25.6600 8.5370 -0.1722
25.6800 8.5436 -0.1647
25.7000 8.5502 -0.1775
25.7200 8.5569 -0.1723
25.7400 8.5636 -0.1642
25.7600 8.5703 -0.1775
25.7800 8.5770 -0.1750
25.8000 8.5837 -0.1633
25.8200 8.5904 -0.1739
25.8400 8.5971 -0.1748
25.8600 8.6036 -0.1660
25.8800 8.6102 -0.1802
25.9000 8.6169 -0.1699
25.9200 8.6236 -0.1660
25.9400 8.6303 -0.1766
25.9600 8.6370 -0.1731
25.9800 8.6437 -0.1652
26.0000 8.6504 -0.1791
26.0200 8.6570 -0.1748
26.0400 8.6636 -0.1670
26.0600 8.6702 -0.1734
26.0800 8.6769 -0.1715
26.1000 8.6836 -0.1693
26.1200 8.6903 -0.1772
26.1400 8.6970 -0.1703
26.1600 8.7036 -0.1667
26.1800 8.7103 -0.1767
26.2000 8.7170 -0.1732
26.2200 8.7236 -0.1684
26.2400 8.7302 -0.1794
26.2600 8.7368 -0.1739
26.2800 8.7435 -0.1694
26.3000 8.7502 -0.1809
26.3200 8.7569 -0.1719
26.3400 8.7636 -0.1714
26.3600 8.7703 -0.1789
26.3800 8.7770 -0.1772
26.4000 8.7836 -0.1739
26.4200 8.7902 -0.1733
26.4400 8.7969 -0.1724
26.4600 8.8036 -0.1733
26.4800 8.8103 -0.1735
26.5000 8.8170 -0.1731
26.5200 8.8237 -0.1703
26.5400 8.8304 -0.1773
26.5600 8.8370 -0.1722
26.5800 8.8437 -0.1738
26.6000 8.8503 -0.1796
26.6200 8.8569 -0.1702
26.6400 8.8636 -0.1722
26.6600 8.8703 -0.1745
26.6800 8.8770 -0.1738
26.7000 8.8837 -0.1744
26.7200 8.8904 -0.1722
26.7400 8.8971 -0.1808
26.7600 8.9036 -0.1699
26.7800 8.9102 -0.1679
26.8000 8.9169 -0.1762
26.8200 8.9236 -0.1715
26.8400 8.9303 -0.1701
26.8600 8.9370 -0.1792
26.8800 8.9437 -0.1657
26.9000 8.9503 -0.1733
26.9200 8.9570 -0.1846
26.9400 8.9636 -0.1669
26.9600 8.9702 -0.1720
26.9800 8.9768 -0.1749
27.0000 8.9835 -0.1655
27.0200 8.9903 -0.1761
27.0400 8.9970 -0.1746
27.0600 9.0036 -0.1645
27.0800 9.0103 -0.1783
27.1000 9.0170 -0.1738
27.1200 9.0237 -0.1692
27.1400 9.0303 -0.1752
27.1600 9.0369 -0.1735
27.1800 9.0436 -0.1703
27.2000 9.0503 -0.1799
27.2200 9.0570 -0.1711
27.2400 9.0637 -0.1734
27.2600 9.0704 -0.1813
27.2800 9.0771 -0.1701
27.3000 9.0837 -0.1706
27.3200 9.0903 -0.1794
27.3400 9.0969 -0.1690
27.3600 9.1036 -0.1765
27.3800 9.1103 -0.1775
27.4000 9.1170 -0.1722
27.4200 9.1237 -0.1749
27.4400 9.1304 -0.1769
27.4600 9.1370 -0.1753
27.4800 9.1436 -0.1797
27.5000 9.1502 -0.1739
27.5200 9.1569 -0.1723
27.5400 9.1636 -0.1788
27.5600 9.1703 -0.1731
27.5800 9.1770 -0.1762
27.6000 9.1837 -0.1813
27.6200 9.1903 -0.1675
27.6400 9.1970 -0.1764
27.6600 9.2036 -0.1802
27.6800 9.2102 -0.1711
27.7000 9.2168 -0.1777
27.7200 9.2235 -0.1750
27.7400 9.2302 -0.1692
27.7600 9.2369 -0.1817
27.7800 9.2436 -0.1788
27.8000 9.2503 -0.1720
27.8200 9.2570 -0.1796
27.8400 9.2636 -0.1734
27.8600 9.2702 -0.1717
27.8800 9.2769 -0.1804
27.9000 9.2836 -0.1747
27.9200 9.2903 -0.1779
27.9400 9.2970 -0.1810
27.9600 9.3037 -0.1703
27.9800 9.3104 -0.1800
28.0000 9.3170 -0.1778
28.0200 9.3237 -0.1764
28.0400 9.3303 -0.1797
28.0600 9.3369 -0.1751
28.0800 9.3436 -0.1738
28.1000 9.3503 -0.1824
28.1200 9.3570 -0.1781
28.1400 9.3637 -0.1782
28.1600 9.3703 -0.1811
28.1800 9.3770 -0.1724
28.2000 9.3836 -0.1782
28.2200 9.3902 -0.1765
28.2400 9.3969 -0.1739
28.2600 9.4035 -0.1840
28.2800 9.4103 -0.1747
28.3000 9.4170 -0.1729
28.3200 9.4236 -0.1797
28.3400 9.4303 -0.1824
28.3600 9.4370 -0.1778
28.3800 9.4436 -0.1778
28.4000 9.4502 -0.1804
28.4200 9.4569 -0.1764
28.4400 9.4635 -0.1785
28.4600 9.4703 -0.1792
28.4800 9.4770 -0.1787
28.5000 9.4837 -0.1770
28.5200 9.4903 -0.1754
28.5400 9.4970 -0.1832
28.5600 9.5036 -0.1786
28.5800 9.5102 -0.1762
28.6000 9.5169 -0.1832
28.6200 9.5236 -0.1763
28.6400 9.5303 -0.1796
28.6600 9.5370 -0.1833
28.6800 9.5437 -0.1799
28.7000 9.5503 -0.1767
28.7200 9.5570 -0.1781
28.7400 9.5637 -0.1831
28.7600 9.5703 -0.1795
28.7800 9.5769 -0.1734
28.8000 9.5836 -0.1848
28.8200 9.5903 -0.1784
28.8400 9.5970 -0.1749
28.8600 9.6037 -0.1815
28.8800 9.6104 -0.1794
28.9000 9.6171 -0.1776
28.9200 9.6237 -0.1874
28.9400 9.6303 -0.1752
28.9600 9.6369 -0.1722
28.9800 9.6436 -0.1878
29.0000 9.6503 -0.1811
29.0200 9.6570 -0.1758
29.0400 9.6636 -0.1846
29.0600 9.6703 -0.1801
29.0800 9.6770 -0.1744
29.1000 9.6837 -0.1868
29.1200 9.6903 -0.1786
29.1400 9.6969 -0.1769
29.1600 9.7036 -0.1864
29.1800 9.7103 -0.1744
29.2000 9.7169 -0.1740
29.2200 9.7236 -0.1909
29.2400 9.7303 -0.1736
29.2600 9.7370 -0.1719
29.2800 9.7437 -0.1902
29.3000 9.7503 -0.1810
29.3200 9.7569 -0.1757
29.3400 9.7636 -0.1891
29.3600 9.7703 -0.1780
29.3800 9.7770 -0.1737
29.4000 9.7837 -0.1901
29.4200 9.7904 -0.1825
29.4400 9.7971 -0.1828
29.4600 9.8037 -0.1912
29.4800 9.8103 -0.1750
29.5000 9.8169 -0.1805
29.5200 9.8235 -0.1883
29.5400 9.8303 -0.1799
29.5600 9.8370 -0.1805
29.5800 9.8437 -0.1881
29.6000 9.8504 -0.1830
29.6200 9.8570 -0.1797
29.6400 9.8637 -0.1877
29.6600 9.8703 -0.1821
29.6800 9.8769 -0.1775
29.7000 9.8836 -0.1903
29.7200 9.8903 -0.1838
29.7400 9.8970 -0.1779
29.7600 9.9036 -0.1858
29.7800 9.9103 -0.1868
29.8000 9.9170 -0.1762
29.8200 9.9237 -0.1902
29.8400 9.9303 -0.1876
29.8600 9.9368 -0.1730
29.8800 9.9435 -0.1870
29.9000 9.9502 -0.1849
29.9200 9.9569 -0.1827
29.9400 9.9636 -0.1875
29.9600 9.9703 -0.1823
29.9800 9.9770 -0.1799
30.0000 9.9836 -0.1936
30.0200 9.9902 -0.1823
30.0400 9.9969 -0.1753
30.0600 10.0035 -0.1920
30.0800 10.0103 -0.1842
30.1000 10.0170 -0.1753
30.1200 10.0237 -0.1971
30.1400 10.0304 -0.1795
30.1600 10.0370 -0.1842
30.1800 10.0437 -0.1956
30.2000 10.0503 -0.1767
30.2200 10.0569 -0.1847
30.2400 10.0636 -0.1947
30.2600 10.0703 -0.1771
30.2800 10.0770 -0.1862
30.3000 10.0837 -0.1913
30.3200 10.0904 -0.1764
30.3400 10.0970 -0.1821
30.3600 10.1037 -0.1945
30.3800 10.1103 -0.1831
30.4000 10.1169 -0.1844
30.4200 10.1235 -0.1822
30.4400 10.1302 -0.1812
30.4600 10.1369 -0.1892
30.4800 10.1436 -0.1878
30.5000 10.1503 -0.1848
30.5200 10.1570 -0.1840
30.5400 10.1637 -0.1877
30.5600 10.1703 -0.1902
30.5800 10.1769 -0.1825
30.6000 10.1835 -0.1866
30.6200 10.1902 -0.1912
30.6400 10.1970 -0.1859
30.6600 10.2037 -0.1839
30.6800 10.2103 -0.1868
30.7000 10.2170 -0.1844
30.7200 10.2237 -0.1837
30.7400 10.2303 -0.1855
30.7600 10.2369 -0.1836
30.7800 10.2436 -0.1885
30.8000 10.2503 -0.1837
30.8200 10.2570 -0.1807
30.8400 10.2637 -0.1883
30.8600 10.2703 -0.1906
30.8800 10.2770 -0.1832
30.9000 10.2837 -0.1872
30.9200 10.2903 -0.1868
30.9400 10.2969 -0.1834
30.9600 10.3036 -0.1924
30.9800 10.3103 -0.1887
31.0000 10.3170 -0.1786
31.0200 10.3237 -0.1942
31.0400 10.3303 -0.1871
31.0600 10.3370 -0.1815
31.0800 10.3437 -0.1973
31.1000 10.3503 -0.1850
31.1200 10.3569 -0.1743
31.1400 10.3635 -0.1953
31.1600 10.3702 -0.1885
31.1800 10.3770 -0.1835
31.2000 10.3836 -0.1931
31.2200 10.3903 -0.1825
31.2400 10.3970 -0.1834
31.2600 10.4037 -0.1936
31.2800 10.4103 -0.1854
31.3000 10.4169 -0.1852
31.3200 10.4235 -0.1900
31.3400 10.4302 -0.1857
31.3600 10.4369 -0.1854
31.3800 10.4436 -0.1873
31.4000 10.4503 -0.1842
31.4200 10.4570 -0.1909
31.4400 10.4637 -0.1908
31.4600 10.4703 -0.1811
31.4800 10.4769 -0.1881
31.5000 10.4835 -0.1874
31.5200 10.4903 -0.1921
31.5400 10.4970 -0.1860
31.5600 10.5037 -0.1871
31.5800 10.5104 -0.1874
31.6000 10.5170 -0.1805
31.6200 10.5237 -0.1910
31.6400 10.5303 -0.1977
31.6600 10.5369 -0.1789
31.6800 10.5436 -0.1819
31.7000 10.5503 -0.1955
31.7200 10.5570 -0.1885
31.7400 10.5637 -0.1912
31.7600 10.5704 -0.1915
31.7800 10.5771 -0.1778
31.8000 10.5837 -0.1945
31.8200 10.5903 -0.1940
31.8400 10.5969 -0.1810
31.8600 10.6035 -0.1853
31.8800 10.6102 -0.1915
31.9000 10.6170 -0.1872
31.9200 10.6237 -0.1905
31.9400 10.6303 -0.1910
31.9600 10.6370 -0.1826
31.9800 10.6437 -0.1913
32.0000 10.6503 -0.1945
32.0200 10.6569 -0.1843
32.0400 10.6635 -0.1896
32.0600 10.6702 -0.1894
32.0800 10.6769 -0.1889
32.1000 10.6836 -0.1894
32.1200 10.6903 -0.1914
32.1400 10.6970 -0.1881
32.1600 10.7037 -0.1896
32.1800 10.7103 -0.1968
32.2000 10.7169 -0.1877
32.2200 10.7236 -0.1871
32.2400 10.7303 -0.1940
32.2600 10.7370 -0.1890
32.2800 10.7437 -0.1874
32.3000 10.7504 -0.1964
32.3200 10.7571 -0.1892
32.3400 10.7637 -0.1888
32.3600 10.7704 -0.1974
32.3800 10.7770 -0.1902
32.4000 10.7836 -0.1873
32.4200 10.7902 -0.1966
32.4400 10.7970 -0.1861
32.4600 10.8037 -0.1886
32.4800 10.8103 -0.1971
32.5000 10.8170 -0.1872
32.5200 10.8237 -0.1860
32.5400 10.8303 -0.1946
32.5600 10.8369 -0.1898
32.5800 10.8435 -0.1876
32.6000 10.8502 -0.1957
32.6200 10.8570 -0.1921
32.6400 10.8637 -0.1829
32.6600 10.8703 -0.1985
32.6800 10.8770 -0.1887
32.7000 10.8837 -0.1909
32.7200 10.8903 -0.1995
32.7400 10.8969 -0.1847
32.7600 10.9035 -0.1877
32.7800 10.9102 -0.1933
32.8000 10.9169 -0.1948
32.8200 10.9236 -0.1960
32.8400 10.9303 -0.1878
32.8600 10.9370 -0.1877
32.8800 10.9437 -0.1926
32.9000 10.9503 -0.1910
32.9200 10.9569 -0.1974
32.9400 10.9636 -0.1884
32.9600 10.9702 -0.1835
32.9800 10.9769 -0.1962
33.0000 10.9836 -0.1963
33.0200 10.9903 -0.1880
33.0400 10.9970 -0.1952
33.0600 11.0037 -0.1928
33.0800 11.0103 -0.1909
33.1000 11.0169 -0.1973
33.1200 11.0236 -0.1901
33.1400 11.0303 -0.1861
33.1600 11.0370 -0.1987
33.1800 11.0437 -0.1906
33.2000 11.0504 -0.1897
33.2200 11.0571 -0.1997
33.2400 11.0637 -0.1923
33.2600 11.0703 -0.1900
33.2800 11.0769 -0.1984
33.3000 11.0835 -0.1886
33.3200 11.0902 -0.1966
33.3400 11.0969 -0.1995
33.3600 11.1036 -0.1884
33.3800 11.1103 -0.1898
33.4000 11.1170 -0.1976
33.4200 11.1237 -0.1931
33.4400 11.1303 -0.1993
33.4600 11.1369 -0.1929
33.4800 11.1435 -0.1816
33.5000 11.1502 -0.1950
33.5200 11.1569 -0.2050
33.5400 11.1636 -0.1881
33.5600 11.1703 -0.1903
33.5800 11.1770 -0.1947
33.6000 11.1837 -0.1886
33.6200 11.1903 -0.2073
33.6400 11.1969 -0.1941
33.6600 11.2035 -0.1831
33.6800 11.2102 -0.1931
33.7000 11.2170 -0.1972
33.7200 11.2237 -0.1945
33.7400 11.2304 -0.1967
33.7600 11.2371 -0.1916
33.7800 11.2437 -0.1871
33.8000 11.2504 -0.1938
33.8200 11.2569 -0.2031
33.8400 11.2636 -0.1993
33.8600 11.2702 -0.1811
33.8800 11.2770 -0.1828
33.9000 11.2837 -0.2032
33.9200 11.2903 -0.1960
33.9400 11.2970 -0.1957
33.9600 11.3037 -0.1933
33.9800 11.3104 -0.1882
34.0000 11.3169 -0.2012
34.0200 11.3235 -0.2012
34.0400 11.3302 -0.1883
34.0600 11.3369 -0.1984
34.0800 11.3436 -0.2017
34.1000 11.3503 -0.1921
34.1200 11.3570 -0.1959
34.1400 11.3637 -0.2010
34.1600 11.3703 -0.1989
34.1800 11.3769 -0.2084
34.2000 11.3835 -0.1904
34.2200 11.3902 -0.1877
34.2400 11.3969 -0.2139
34.2600 11.4036 -0.2017
34.2800 11.4103 -0.1882
34.3000 11.4170 -0.2028
34.3200 11.4236 -0.1980
34.3400 11.4303 -0.1972
34.3600 11.4369 -0.2069
34.3800 11.4435 -0.1937
34.4000 11.4502 -0.1920
34.4200 11.4569 -0.2088
34.4400 11.4636 -0.1972
34.4600 11.4703 -0.1915
34.4800 11.4770 -0.2056
34.5000 11.4837 -0.1920
34.5200 11.4904 -0.1885
34.5400 11.4970 -0.1987
34.5600 11.5036 -0.1935
34.5800 11.5102 -0.2017
34.6000 11.5170 -0.2056
34.6200 11.5237 -0.1781
34.6400 11.5303 -0.1921
34.6600 11.5370 -0.2167
34.6800 11.5437 -0.2054
34.7000 11.5503 -0.1948
34.7200 11.5569 -0.1945
34.7400 11.5635 -0.1846
34.7600 11.5702 -0.2018
34.7800 11.5769 -0.2149
34.8000 11.5836 -0.2057
34.8200 11.5903 -0.1914
34.8400 11.5969 -0.1884
34.8600 11.6036 -0.1874
34.8800 11.6103 -0.2148
34.9000 11.6169 -0.2272
34.9200 11.6235 -0.1855
34.9400 11.6302 -0.1684
34.9600 11.6369 -0.2063
34.9800 11.6436 -0.2196
35.0000 11.6503 -0.2038
35.0200 11.6570 -0.1977
35.0400 11.6637 -0.1867
35.0600 11.6704 -0.1927
35.0800 11.6770 -0.2207
35.1000 11.6836 -0.2009
35.1200 11.6902 -0.1862
35.1400 11.6969 -0.2057
35.1600 11.7036 -0.1942
35.1800 11.7103 -0.1977
35.2000 11.7170 -0.2133
35.2200 11.7237 -0.1901
35.2400 11.7303 -0.1924
35.2600 11.7370 -0.2167
35.2800 11.7436 -0.1961
35.3000 11.7502 -0.1917
35.3200 11.7569 -0.2052
35.3400 11.7637 -0.1936
35.3600 11.7703 -0.2060
35.3800 11.7770 -0.2134
35.4000 11.7837 -0.1816
35.4200 11.7904 -0.1909
35.4400 11.7970 -0.2118
35.4600 11.8036 -0.2022
35.4800 11.8102 -0.1955
35.5000 11.8169 -0.1979
35.5200 11.8236 -0.1909
35.5400 11.8303 -0.2017
35.5600 11.8370 -0.2062
35.5800 11.8437 -0.1909
35.6000 11.8504 -0.1898
35.6200 11.8570 -0.1992
35.6400 11.8635 -0.2049
35.6600 11.8702 -0.2033
35.6800 11.8769 -0.1934
35.7000 11.8836 -0.1912
35.7200 11.8903 -0.2010
35.7400 11.8970 -0.2040
35.7600 11.9037 -0.2058
35.7800 11.9103 -0.1916
35.8000 11.9169 -0.1870
35.8200 11.9236 -0.2082
35.8400 11.9302 -0.2014
35.8600 11.9369 -0.2000
35.8800 11.9436 -0.1988
35.9000 11.9503 -0.1842
35.9200 11.9570 -0.1978
35.9400 11.9637 -0.2126
35.9600 11.9704 -0.2030
35.9800 11.9770 -0.1885
36.0000 11.9836 -0.1917
36.0200 11.9902 -0.1955
36.0400 11.9969 -0.2086
36.0600 12.0036 -0.2030
36.0800 12.0103 -0.1887
36.1000 12.0170 -0.1939
36.1200 12.0237 -0.2010
36.1400 12.0304 -0.2029
36.1600 12.0370 -0.2078
36.1800 12.0436 -0.1937
36.2000 12.0502 -0.1910
36.2200 12.0569 -0.2030
36.2400 12.0637 -0.1999
36.2600 12.0703 -0.1972
36.2800 12.0770 -0.2058
36.3000 12.0837 -0.1973
36.3200 12.0903 -0.1985
36.3400 12.0969 -0.2025
36.3600 12.1035 -0.1991
36.3800 12.1102 -0.1975
36.4000 12.1169 -0.2033
36.4200 12.1236 -0.2002
36.4400 12.1303 -0.1991
36.4600 12.1369 -0.1975
36.4800 12.1436 -0.2023
36.5000 12.1503 -0.2006
36.5200 12.1570 -0.2028
36.5400 12.1636 -0.2028
36.5600 12.1702 -0.1984
36.5800 12.1769 -0.1982
36.6000 12.1836 -0.2042
36.6200 12.1903 -0.2064
36.6400 12.1970 -0.1992
36.6600 12.2037 -0.2033
36.6800 12.2104 -0.2036
36.7000 12.2170 -0.2011
36.7200 12.2236 -0.2061
36.7400 12.2302 -0.2051
36.7600 12.2370 -0.1999
36.7800 12.2437 -0.2062
36.8000 12.2504 -0.2055
36.8200 12.2570 -0.2019
36.8400 12.2637 -0.2032
36.8600 12.2703 -0.2082
36.8800 12.2770 -0.1927
36.9000 12.2836 -0.2071
36.9200 12.2902 -0.2138
36.9400 12.2969 -0.1989
36.9600 12.3036 -0.2048
36.9800 12.3103 -0.2087
37.0000 12.3170 -0.2011
37.0200 12.3237 -0.2101
37.0400 12.3303 -0.2062
37.0600 12.3370 -0.1963
37.0800 12.3436 -0.2048
37.1000 12.3502 -0.2108
37.1200 12.3569 -0.1999
37.1400 12.3636 -0.2052
37.1600 12.3703 -0.2022
37.1800 12.3770 -0.2118
37.2000 12.3837 -0.2088
37.2200 12.3904 -0.2015
37.2400 12.3970 -0.2083
37.2600 12.4036 -0.2082
37.2800 12.4102 -0.2035
37.3000 12.4169 -0.2054
37.3200 12.4236 -0.2087
37.3400 12.4303 -0.2016
37.3600 12.4370 -0.2014
37.3800 12.4437 -0.2157
37.4000 12.4504 -0.2055
37.4200 12.4570 -0.1976
37.4400 12.4636 -0.2056
37.4600 12.4703 -0.2084
37.4800 12.4769 -0.2069
37.5000 12.4836 -0.2067
37.5200 12.4903 -0.2035
37.5400 12.4970 -0.1943
37.5600 12.5037 -0.2017
37.5800 12.5104 -0.2203
37.6000 12.5170 -0.2147
37.6200 12.5236 -0.1901
37.6400 12.5302 -0.1961
37.6600 12.5369 -0.2047
37.6800 12.5436 -0.2161
37.7000 12.5503 -0.2109
37.7200 12.5570 -0.1962
37.7400 12.5637 -0.1969
37.7600 12.5703 -0.2089
37.7800 12.5770 -0.2118
37.8000 12.5835 -0.2149
37.8200 12.5902 -0.1995
37.8400 12.5968 -0.1855
37.8600 12.6036 -0.2076
37.8800 12.6103 -0.2130
37.9000 12.6169 -0.2039
37.9200 12.6236 -0.2074
37.9400 12.6303 -0.1933
37.9600 12.6369 -0.1956
37.9800 12.6436 -0.2214
38.0000 12.6502 -0.2116
38.0200 12.6569 -0.1891
38.0400 12.6637 -0.2013
38.0600 12.6704 -0.2091
38.0800 12.6770 -0.2048
38.1000 12.6837 -0.2129
38.1200 12.6904 -0.2030
38.1400 12.6971 -0.1982
38.1600 12.7036 -0.2006
38.1800 12.7102 -0.2133
38.2000 12.7169 -0.2143
38.2200 12.7236 -0.1923
38.2400 12.7303 -0.1962
38.2600 12.7370 -0.2124
38.2800 12.7437 -0.2078
38.3000 12.7504 -0.2080
38.3200 12.7570 -0.2017
38.3400 12.7636 -0.1926
38.3600 12.7702 -0.2079
38.3800 12.7769 -0.2122
38.4000 12.7836 -0.2036
38.4200 12.7903 -0.2020
38.4400 12.7970 -0.1951
38.4600 12.8036 -0.2012
38.4800 12.8103 -0.2151
38.5000 12.8170 -0.2083
38.5200 12.8236 -0.1953
38.5400 12.8302 -0.2026
38.5600 12.8369 -0.2024
38.5800 12.8436 -0.2106
38.6000 12.8503 -0.2162
38.6200 12.8569 -0.1920
38.6400 12.8636 -0.1952
38.6600 12.8703 -0.2163
38.6800 12.8770 -0.2079
38.7000 12.8836 -0.2005
38.7200 12.8902 -0.2056
38.7400 12.8969 -0.2017
38.7600 12.9036 -0.2069
38.7800 12.9103 -0.2075
38.8000 12.9170 -0.1984
38.8200 12.9237 -0.2074
38.8400 12.9304 -0.2098
38.8600 12.9370 -0.1986
38.8800 12.9436 -0.2050
38.9000 12.9502 -0.2102
38.9200 12.9569 -0.1987
38.9400 12.9637 -0.2041
38.9600 12.9704 -0.2183
38.9800 12.9770 -0.1965
39.0000 12.9837 -0.2009
39.0200 12.9903 -0.2125
39.0400 12.9970 -0.2114
39.0600 13.0036 -0.2039
39.0800 13.0102 -0.2038
39.1000 13.0169 -0.2066
39.1200 13.0236 -0.2128
39.1400 13.0303 -0.2016
39.1600 13.0370 -0.2028
39.1800 13.0436 -0.2124
39.2000 13.0503 -0.2105
39.2200 13.0570 -0.2054
39.2400 13.0636 -0.2059
39.2600 13.0702 -0.2034
39.2800 13.0768 -0.2153
39.3000 13.0836 -0.2097
39.3200 13.0903 -0.2066
39.3400 13.0970 -0.2053
39.3600 13.1037 -0.1965
39.3800 13.1103 -0.2149
39.4000 13.1170 -0.2157
39.4200 13.1236 -0.1974
39.4400 13.1302 -0.2087
39.4600 13.1369 -0.2061
39.4800 13.1436 -0.1885
39.5000 13.1503 -0.2268
39.5200 13.1570 -0.2231
39.5400 13.1636 -0.1909
39.5600 13.1703 -0.2038
39.5800 13.1770 -0.2079
39.6000 13.1836 -0.2047
39.6200 13.1902 -0.2226
39.6400 13.1969 -0.2072
39.6600 13.2036 -0.1898
39.6800 13.2103 -0.2137
39.7000 13.2170 -0.2081
39.7200 13.2237 -0.1979
39.7400 13.2304 -0.2252
39.7600 13.2370 -0.2054
39.7800 13.2436 -0.1860
39.8000 13.2502 -0.2173
39.8200 13.2569 -0.2143
39.8400 13.2636 -0.1951
39.8600 13.2703 -0.2136
39.8800 13.2770 -0.2079
39.9000 13.2837 -0.2069
39.9200 13.2904 -0.2036
39.9400 13.2970 -0.2032
39.9600 13.3036 -0.2125
39.9800 13.3102 -0.2185
40.0000 13.3169 -0.2027
40.0200 13.3236 -0.2004
40.0400 13.3303 -0.2097
40.0600 13.3369 -0.2137
40.0800 13.3436 -0.2115
40.1000 13.3503 -0.1970
40.1200 13.3570 -0.2140
40.1400 13.3636 -0.2193
40.1600 13.3702 -0.1902
40.1800 13.3769 -0.2158
40.2000 13.3836 -0.2206
40.2200 13.3903 -0.1888
40.2400 13.3970 -0.2129
40.2600 13.4037 -0.2228
40.2800 13.4104 -0.1923
40.3000 13.4171 -0.2112
40.3200 13.4237 -0.2195
40.3400 13.4302 -0.2002
40.3600 13.4369 -0.2135
40.3800 13.4436 -0.2108
40.4000 13.4503 -0.1989
40.4200 13.4570 -0.2008
40.4400 13.4637 -0.2166
40.4600 13.4704 -0.2188
40.4800 13.4770 -0.2086
40.5000 13.4836 -0.1907
40.5200 13.4902 -0.2062
40.5400 13.4969 -0.2245
40.5600 13.5036 -0.2149
40.5800 13.5103 -0.2084
40.6000 13.5170 -0.2039
40.6200 13.5236 -0.1936
40.6400 13.5303 -0.2196
40.6600 13.5370 -0.2239
40.6800 13.5436 -0.2024
40.7000 13.5502 -0.1952
40.7200 13.5568 -0.2099
40.7400 13.5635 -0.2198
40.7600 13.5702 -0.2211
40.7800 13.5769 -0.2026
40.8000 13.5836 -0.1891
40.8200 13.5903 -0.2148
40.8400 13.5970 -0.2271
40.8600 13.6036 -0.2049
40.8800 13.6102 -0.2053
40.9000 13.6169 -0.2056
40.9200 13.6236 -0.2050
40.9400 13.6303 -0.2190
40.9600 13.6370 -0.2217
40.9800 13.6437 -0.1955
41.0000 13.6503 -0.1982
41.0200 13.6570 -0.2232
41.0400 13.6637 -0.2159
41.0600 13.6703 -0.2004
41.0800 13.6770 -0.2084
41.1000 13.6836 -0.2081
41.1200 13.6903 -0.2114
41.1400 13.6970 -0.2120
41.1600 13.7036 -0.2079
41.1800 13.7103 -0.2155
41.2000 13.7170 -0.2074
41.2200 13.7236 -0.2100
41.2400 13.7303 -0.2111
41.2600 13.7369 -0.2110
41.2800 13.7436 -0.2116
41.3000 13.7503 -0.2057
41.3200 13.7570 -0.2117
41.3400 13.7637 -0.2140
41.3600 13.7703 -0.2081
41.3800 13.7770 -0.2158
41.4000 13.7836 -0.2106
41.4200 13.7902 -0.2026
41.4400 13.7968 -0.2199
41.4600 13.8035 -0.2167
41.4800 13.8103 -0.1964
41.5000 13.8169 -0.2197
41.5200 13.8236 -0.2133
41.5400 13.8303 -0.2029
41.5600 13.8370 -0.2271
41.5800 13.8437 -0.2158
41.6000 13.8503 -0.1949
41.6200 13.8569 -0.2182
41.6400 13.8636 -0.2153
41.6600 13.8703 -0.2023
41.6800 13.8770 -0.2256
41.7000 13.8837 -0.2101
41.7200 13.8904 -0.2011
41.7400 13.8971 -0.2205
41.7600 13.9037 -0.2168
41.7800 13.9103 -0.2038
41.8000 13.9169 -0.2177
41.8200 13.9236 -0.2089
41.8400 13.9303 -0.2042
41.8600 13.9370 -0.2200
41.8800 13.9437 -0.2178
41.9000 13.9504 -0.2089
41.9200 13.9570 -0.2147
41.9400 13.9636 -0.2110
41.9600 13.9702 -0.2150
41.9800 13.9769 -0.2164
42.0000 13.9836 -0.2095
42.0200 13.9903 -0.2088
42.0400 13.9970 -0.2120
42.0600 14.0037 -0.2126
42.0800 14.0104 -0.2154
42.1000 14.0170 -0.2186
42.1200 14.0237 -0.2092
42.1400 14.0303 -0.2100
42.1600 14.0369 -0.2158
42.1800 14.0435 -0.2142
42.2000 14.0502 -0.2122
42.2200 14.0569 -0.2136
42.2400 14.0636 -0.2135
42.2600 14.0703 -0.2109
42.2800 14.0770 -0.2213
42.3000 14.0837 -0.2189
42.3200 14.0902 -0.2077
42.3400 14.0969 -0.2151
42.3600 14.1036 -0.2189
42.3800 14.1103 -0.2081
42.4000 14.1170 -0.2171
42.4200 14.1237 -0.2178
42.4400 14.1304 -0.2071
42.4600 14.1371 -0.2195
42.4800 14.1437 -0.2156
42.5000 14.1503 -0.2048
42.5200 14.1569 -0.2194
42.5400 14.1636 -0.2165
42.5600 14.1703 -0.2086
42.5800 14.1770 -0.2215
42.6000 14.1837 -0.2142
42.6200 14.1903 -0.2039
42.6400 14.1970 -0.2218
42.6600 14.2037 -0.2194
42.6800 14.2103 -0.2078
42.7000 14.2169 -0.2186
42.7200 14.2235 -0.2157
42.7400 14.2302 -0.2050
42.7600 14.2369 -0.2179
42.7800 14.2436 -0.2207
42.8000 14.2503 -0.2042
42.8200 14.2570 -0.2166
42.8400 14.2637 -0.2236
42.8600 14.2703 -0.2066
42.8800 14.2769 -0.2146
42.9000 14.2835 -0.2210
42.9200 14.2902 -0.2082
42.9400 14.2970 -0.2149
42.9600 14.3037 -0.2196
42.9800 14.3103 -0.2053
43.0000 14.3170 -0.2134
43.0200 14.3236 -0.2254
43.0400 14.3303 -0.2076
43.0600 14.3369 -0.2151
43.0800 14.3436 -0.2200
43.1000 14.3503 -0.2089
43.1200 14.3570 -0.2160
43.1400 14.3637 -0.2202
43.1600 14.3703 -0.2039
43.1800 14.3770 -0.2178
43.2000 14.3837 -0.2204
43.2200 14.3903 -0.2049
43.2400 14.3969 -0.2192
43.2600 14.4036 -0.2177
43.2800 14.4103 -0.2077
43.3000 14.4170 -0.2152
43.3200 14.4237 -0.2238
43.3400 14.4304 -0.2116
43.3600 14.4371 -0.2153
43.3800 14.4437 -0.2202
43.4000 14.4503 -0.2098
43.4200 14.4569 -0.2136
43.4400 14.4635 -0.2214
43.4600 14.4703 -0.2090
43.4800 14.4770 -0.2146
43.5000 14.4836 -0.2182
43.5200 14.4903 -0.2116
43.5400 14.4970 -0.2149
43.5600 14.5036 -0.2227
43.5800 14.5102 -0.2115
43.6000 14.5168 -0.2116
43.6200 14.5235 -0.2215
43.6400 14.5302 -0.2115
43.6600 14.5370 -0.2108
43.6800 14.5436 -0.2234
43.7000 14.5503 -0.2070
43.7200 14.5570 -0.2090
43.7400 14.5637 -0.2240
43.7600 14.5703 -0.2120
43.7800 14.5769 -0.2110
43.8000 14.5836 -0.2239
43.8200 14.5903 -0.2101
43.8400 14.5970 -0.2157
43.8600 14.6036 -0.2230
43.8800 14.6103 -0.2108
43.9000 14.6171 -0.2122
43.9200 14.6237 -0.2232
43.9400 14.6303 -0.2105
43.9600 14.6369 -0.2122
43.9800 14.6435 -0.2213
44.0000 14.6503 -0.2101
44.0200 14.6570 -0.2152
44.0400 14.6637 -0.2247
44.0600 14.6704 -0.2129
44.0800 14.6770 -0.2078
44.1000 14.6837 -0.2235
44.1200 14.6903 -0.2129
44.1400 14.6969 -0.2131
44.1600 14.7036 -0.2151
44.1800 14.7103 -0.2075
44.2000 14.7170 -0.2158
44.2200 14.7236 -0.2193
44.2400 14.7303 -0.2121
44.2600 14.7370 -0.2179
44.2800 14.7437 -0.2202
44.3000 14.7503 -0.2118
44.3200 14.7569 -0.2170
44.3400 14.7635 -0.2197
44.3600 14.7702 -0.2098
44.3800 14.7769 -0.2147
44.4000 14.7836 -0.2174
44.4200 14.7902 -0.2128
44.4400 14.7970 -0.2153
44.4600 14.8036 -0.2175
44.4800 14.8103 -0.2116
44.5000 14.8169 -0.2181
44.5200 14.8236 -0.2259
44.5400 14.8303 -0.2112
44.5600 14.8370 -0.2079
44.5800 14.8437 -0.2214
44.6000 14.8504 -0.2178
44.6200 14.8570 -0.2134
44.6400 14.8637 -0.2199
44.6600 14.8704 -0.2137
44.6800 14.8770 -0.2141
44.7000 14.8836 -0.2266
44.7200 14.8903 -0.2096
44.7400 14.8970 -0.2100
44.7600 14.9037 -0.2271
44.7800 14.9104 -0.2119
44.8000 14.9170 -0.2149
44.8200 14.9237 -0.2218
44.8400 14.9303 -0.2144
44.8600 14.9369 -0.2139
44.8800 14.9435 -0.2253
44.9000 14.9502 -0.2111
44.9200 14.9569 -0.2135
44.9400 14.9636 -0.2165
44.9600 14.9703 -0.2149
44.9800 14.9770 -0.2202
45.0000 14.9837 -0.2207
45.0200 14.9903 -0.2086
45.0400 14.9969 -0.2169
45.0600 15.0035 -0.2241
45.0800 15.0102 -0.2144
45.1000 15.0170 -0.2145
45.1200 15.0236 -0.2162
45.1400 15.0303 -0.2178
45.1600 15.0370 -0.2247
45.1800 15.0437 -0.2127
45.2000 15.0503 -0.2159
45.2200 15.0569 -0.2262
45.2400 15.0636 -0.2079
45.2600 15.0703 -0.2110
45.2800 15.0770 -0.2255
45.3000 15.0837 -0.2148
45.3200 15.0904 -0.2132
45.3400 15.0971 -0.2159
45.3600 15.1037 -0.2128
45.3800 15.1104 -0.2313
45.4000 15.1169 -0.2217
45.4200 15.1236 -0.1901
45.4400 15.1302 -0.2218
45.4600 15.1370 -0.2392
45.4800 15.1437 -0.2022
45.5000 15.1504 -0.2139
45.5200 15.1570 -0.2224
45.5400 15.1637 -0.2139
45.5600 15.1703 -0.2196
45.5800 15.1769 -0.2165
45.6000 15.1835 -0.2132
45.6200 15.1903 -0.2274
45.6400 15.1970 -0.2111
45.6600 15.2037 -0.2143
45.6800 15.2103 -0.2306
45.7000 15.2170 -0.2209
45.7200 15.2237 -0.2093
45.7400 15.2303 -0.2176
45.7600 15.2369 -0.2202
45.7800 15.2435 -0.2245
45.8000 15.2502 -0.2154
45.8200 15.2569 -0.2150
45.8400 15.2636 -0.2242
45.8600 15.2703 -0.2201
45.8800 15.2770 -0.2121
45.9000 15.2837 -0.2182
45.9200 15.2903 -0.2253
45.9400 15.2969 -0.2185
45.9600 15.3035 -0.2175
45.9800 15.3102 -0.2130
46.0000 15.3169 -0.2195
46.0200 15.3237 -0.2214
46.0400 15.3303 -0.2171
46.0600 15.3370 -0.2243
46.0800 15.3437 -0.2121
46.1000 15.3503 -0.2102
46.1200 15.3570 -0.2227
46.1400 15.3636 -0.2208
46.1600 15.3703 -0.2193
46.1800 15.3770 -0.2291
46.2000 15.3837 -0.2094
46.2200 15.3903 -0.1994
46.2400 15.3970 -0.2296
46.2600 15.4037 -0.2325
46.2800 15.4103 -0.2223
46.3000 15.4169 -0.2167
46.3200 15.4235 -0.2052
46.3400 15.4302 -0.2151
46.3600 15.4369 -0.2274
46.3800 15.4437 -0.2241
46.4000 15.4503 -0.2273
46.4200 15.4570 -0.2170
46.4400 15.4637 -0.1961
46.4600 15.4703 -0.2170
46.4800 15.4769 -0.2488
46.5000 15.4835 -0.2169
46.5200 15.4902 -0.2047
46.5400 15.4969 -0.2163
46.5600 15.5036 -0.2179
46.5800 15.5103 -0.2294
46.6000 15.5170 -0.2193
46.6200 15.5236 -0.2169
46.6400 15.5303 -0.2339
46.6600 15.5369 -0.2163
46.6800 15.5435 -0.2076
46.7000 15.5502 -0.2216
46.7200 15.5569 -0.2324
46.7400 15.5636 -0.2214
46.7600 15.5703 -0.2162
46.7800 15.5770 -0.2117
46.8000 15.5837 -0.2183
46.8200 15.5904 -0.2271
46.8400 15.5970 -0.2201
46.8600 15.6036 -0.2231
46.8800 15.6102 -0.2240
46.9000 15.6170 -0.2081
46.9200 15.6237 -0.2152
46.9400 15.6304 -0.2326
46.9600 15.6370 -0.2322
46.9800 15.6437 -0.2162
47.0000 15.6503 -0.2092
47.0200 15.6569 -0.2190
47.0400 15.6635 -0.2268
47.0600 15.6702 -0.2283
47.0800 15.6769 -0.2180
47.1000 15.6837 -0.2177
47.1200 15.6903 -0.2181
47.1400 15.6970 -0.2209
47.1600 15.7037 -0.2253
47.1800 15.7103 -0.2190
47.2000 15.7169 -0.2206
47.2200 15.7236 -0.2224
47.2400 15.7302 -0.2156
47.2600 15.7370 -0.2269
47.2800 15.7436 -0.2208
47.3000 15.7503 -0.2190
47.3200 15.7570 -0.2229
47.3400 15.7637 -0.2221
47.3600 15.7703 -0.2213
47.3800 15.7770 -0.2286
47.4000 15.7836 -0.2128
47.4200 15.7902 -0.2151
47.4400 15.7969 -0.2375
47.4600 15.8036 -0.2158
47.4800 15.8103 -0.2107
47.5000 15.8170 -0.2372
47.5200 15.8237 -0.2156
47.5400 15.8303 -0.2180
47.5600 15.8369 -0.2329
47.5800 15.8436 -0.2112
47.6000 15.8503 -0.2258
47.6200 15.8570 -0.2312
47.6400 15.8637 -0.2037
47.6600 15.8703 -0.2274
47.6800 15.8770 -0.2372
47.7000 15.8837 -0.2026
47.7200 15.8904 -0.2260
47.7400 15.8970 -0.2322
47.7600 15.9036 -0.2025
47.7800 15.9102 -0.2314
47.8000 15.9169 -0.2283
47.8200 15.9236 -0.2091
47.8400 15.9303 -0.2299
47.8600 15.9370 -0.2194
47.8800 15.9437 -0.2115
47.9000 15.9503 -0.2351
47.9200 15.9569 -0.2262
47.9400 15.9635 -0.2104
47.9600 15.9702 -0.2248
47.9800 15.9769 -0.2192
48.0000 15.9836 -0.2252
48.0200 15.9903 -0.2245
48.0400 15.9970 -0.2182
48.0600 16.0037 -0.2249
48.0800 16.0103 -0.2175
48.1000 16.0169 -0.2161
48.1200 16.0236 -0.2261
48.1400 16.0302 -0.2183
48.1600 16.0370 -0.2260
48.1800 16.0437 -0.2237
48.2000 16.0504 -0.2130
48.2200 16.0570 -0.2284
48.2400 16.0637 -0.2245
48.2600 16.0704 -0.2153
48.2800 16.0770 -0.2277
48.3000 16.0836 -0.2187
48.3200 16.0902 -0.2174
48.3400 16.0969 -0.2298
48.3600 16.1036 -0.2191
48.3800 16.1103 -0.2191
48.4000 16.1170 -0.2294
48.4200 16.1237 -0.2143
48.4400 16.1304 -0.2209
48.4600 16.1370 -0.2305
48.4800 16.1435 -0.2133
48.5000 16.1502 -0.2235
48.5200 16.1569 -0.2244
48.5400 16.1636 -0.2218
48.5600 16.1703 -0.2269
48.5800 16.1770 -0.2217
48.6000 16.1837 -0.2196
48.6200 16.1903 -0.2295
48.6400 16.1969 -0.2229
48.6600 16.2035 -0.2178
48.6800 16.2102 -0.2227
48.7000 16.2169 -0.2253
48.7200 16.2236 -0.2256
48.7400 16.2303 -0.2218
48.7600 16.2370 -0.2223
48.7800 16.2436 -0.2328
48.8000 16.2503 -0.2183
48.8200 16.2569 -0.2225
48.8400 16.2636 -0.2280
48.8600 16.2702 -0.2211
48.8800 16.2769 -0.2236
48.9000 16.2836 -0.2264
48.9200 16.2903 -0.2175
48.9400 16.2970 -0.2297
48.9600 16.3037 -0.2270
48.9800 16.3104 -0.2168
49.0000 16.3170 -0.2337
49.0200 16.3236 -0.2275
49.0400 16.3302 -0.2161
49.0600 16.3369 -0.2321
49.0800 16.3437 -0.2249
49.1000 16.3504 -0.2202
49.1200 16.3570 -0.2374
49.1400 16.3637 -0.2197
49.1600 16.3703 -0.2163
49.1800 16.3769 -0.2388
49.2000 16.3835 -0.2197
49.2200 16.3902 -0.2128
49.2400 16.3969 -0.2398
49.2600 16.4036 -0.2197
49.2800 16.4103 -0.2187
49.3000 16.4170 -0.2372
49.3200 16.4237 -0.2202
49.3400 16.4303 -0.2166
49.3600 16.4370 -0.2352
49.3800 16.4436 -0.2225
49.4000 16.4502 -0.2170
49.4200 16.4569 -0.2301
49.4400 16.4636 -0.2215
49.4600 16.4703 -0.2204
49.4800 16.4770 -0.2319
49.5000 16.4837 -0.2220
49.5200 16.4904 -0.2225
49.5400 16.4970 -0.2267
49.5600 16.5036 -0.2263
49.5800 16.5102 -0.2239
49.6000 16.5169 -0.2271
49.6200 16.5236 -0.2296
49.6400 16.5303 -0.2206
49.6600 16.5370 -0.2218
49.6800 16.5437 -0.2334
49.7000 16.5503 -0.2224
49.7200 16.5570 -0.2228
49.7400 16.5636 -0.2336
49.7600 16.5702 -0.2207
49.7800 16.5769 -0.2199
49.8000 16.5836 -0.2409
49.8200 16.5903 -0.2235
49.8400 16.5970 -0.2186
49.8600 16.6037 -0.2383
49.8800 16.6104 -0.2188
49.9000 16.6170 -0.2254
49.9200 16.6236 -0.2422
49.9400 16.6302 -0.2200
49.9600 16.6369 -0.2122
49.9800 16.6436 -0.2270
50.0000 16.6503 -0.2283
50.0200 16.6570 -0.2378
50.0400 16.6637 -0.2251
50.0600 16.6704 -0.2088
50.0800 16.6770 -0.2306
50.1000 16.6836 -0.2318
50.1200 16.6902 -0.2174
50.1400 16.6969 -0.2372
50.1600 16.7036 -0.2161
50.1800 16.7103 -0.2098
50.2000 16.7170 -0.2411
50.2200 16.7237 -0.2312
50.2400 16.7303 -0.2178
50.2600 16.7370 -0.2316
50.2800 16.7436 -0.2149
50.3000 16.7502 -0.2232
50.3200 16.7569 -0.2378
50.3400 16.7636 -0.2197
50.3600 16.7703 -0.2255
50.3800 16.7770 -0.2295
50.4000 16.7837 -0.2185
50.4200 16.7904 -0.2347
50.4400 16.7970 -0.2238
50.4600 16.8036 -0.2134
50.4800 16.8102 -0.2349
50.5000 16.8169 -0.2275
50.5200 16.8236 -0.2134
50.5400 16.8303 -0.2299
50.5600 16.8370 -0.2302
50.5800 16.8437 -0.2165
50.6000 16.8504 -0.2313
50.6200 16.8570 -0.2270
50.6400 16.8636 -0.2224
50.6600 16.8702 -0.2227
50.6800 16.8769 -0.2188
50.7000 16.8837 -0.2304
50.7200 16.8904 -0.2294
50.7400 16.8970 -0.2200
50.7600 16.9037 -0.2279
50.7800 16.9103 -0.2281
50.8000 16.9170 -0.2203
50.8200 16.9236 -0.2240
50.8400 16.9302 -0.2324
50.8600 16.9369 -0.2246
50.8800 16.9436 -0.2169
50.9000 16.9503 -0.2238
50.9200 16.9569 -0.2298
50.9400 16.9636 -0.2272
50.9600 16.9703 -0.2351
50.9800 16.9769 -0.2199
51.0000 16.9836 -0.2072
51.0200 16.9902 -0.2395
51.0400 16.9969 -0.2439
51.0600 17.0036 -0.2150
51.0800 17.0103 -0.2180
51.1000 17.0170 -0.2213
51.1200 17.0237 -0.2222
51.1400 17.0304 -0.2402
51.1600 17.0370 -0.2358
51.1800 17.0436 -0.2104
51.2000 17.0502 -0.2168
51.2200 17.0569 -0.2278
51.2400 17.0636 -0.2297
51.2600 17.0703 -0.2323
51.2800 17.0770 -0.2239
51.3000 17.0837 -0.2143
51.3200 17.0903 -0.2190
51.3400 17.0970 -0.2378
51.3600 17.1036 -0.2358
51.3800 17.1102 -0.2251
51.4000 17.1169 -0.2098
51.4200 17.1236 -0.2147
51.4400 17.1303 -0.2402
51.4600 17.1370 -0.2368
51.4800 17.1437 -0.2188
51.5000 17.1503 -0.2220
51.5200 17.1570 -0.2215
51.5400 17.1636 -0.2327
51.5600 17.1702 -0.2294
51.5800 17.1769 -0.2249
51.6000 17.1836 -0.2251
51.6200 17.1903 -0.2250
51.6400 17.1970 -0.2215
51.6600 17.2037 -0.2341
51.6800 17.2104 -0.2331
51.7000 17.2170 -0.2181
51.7200 17.2236 -0.2283
51.7400 17.2302 -0.2286
51.7600 17.2369 -0.2216
51.7800 17.2436 -0.2394
51.8000 17.2503 -0.2242
51.8200 17.2570 -0.2213
51.8400 17.2637 -0.2385
51.8600 17.2704 -0.2308
51.8800 17.2770 -0.2232
51.9000 17.2836 -0.2366
51.9200 17.2902 -0.2221
51.9400 17.2969 -0.2250
51.9600 17.3036 -0.2392
51.9800 17.3103 -0.2223
52.0000 17.3170 -0.2255
52.0200 17.3237 -0.2437
52.0400 17.3304 -0.2120
52.0600 17.3371 -0.2197
52.0800 17.3436 -0.2604
52.1000 17.3502 -0.2258
52.1200 17.3569 -0.2119
52.1400 17.3636 -0.2412
52.1600 17.3703 -0.2281
52.1800 17.3770 -0.2273
52.2000 17.3837 -0.2445
52.2200 17.3903 -0.2217
52.2400 17.3970 -0.2214
52.2600 17.4036 -0.2324
52.2800 17.4102 -0.2295
52.3000 17.4168 -0.2385
52.3200 17.4236 -0.2387
52.3400 17.4303 -0.2131
52.3600 17.4369 -0.2313
52.3800 17.4436 -0.2376
52.4000 17.4503 -0.2323
52.4200 17.4570 -0.2366
52.4400 17.4636 -0.2174
52.4600 17.4702 -0.2226
52.4800 17.4769 -0.2438
52.5000 17.4836 -0.2299
52.5200 17.4903 -0.2380
52.5400 17.4970 -0.2289
52.5600 17.5037 -0.2107
52.5800 17.5104 -0.2461
52.6000 17.5170 -0.2376
52.6200 17.5236 -0.2122
52.6400 17.5302 -0.2424
52.6600 17.5369 -0.2275
52.6800 17.5436 -0.2141
52.7000 17.5503 -0.2466
52.7200 17.5570 -0.2271
52.7400 17.5637 -0.2181
52.7600 17.5704 -0.2439
52.7800 17.5770 -0.2176
52.8000 17.5836 -0.2211
52.8200 17.5902 -0.2495
52.8400 17.5969 -0.2199
52.8600 17.6036 -0.2202
52.8800 17.6103 -0.2376
52.9000 17.6170 -0.2222
52.9200 17.6237 -0.2279
52.9400 17.6303 -0.2348
52.9600 17.6370 -0.2244
52.9800 17.6436 -0.2305
53.0000 17.6502 -0.2310
53.0200 17.6569 -0.2244
53.0400 17.6636 -0.2271
53.0600 17.6703 -0.2349
53.0800 17.6770 -0.2306
53.1000 17.6836 -0.2237
53.1200 17.6903 -0.2318
53.1400 17.6970 -0.2360
53.1600 17.7036 -0.2235
53.1800 17.7102 -0.2286
53.2000 17.7169 -0.2353
53.2200 17.7236 -0.2263
53.2400 17.7303 -0.2268
53.2600 17.7370 -0.2326
53.2800 17.7437 -0.2332
53.3000 17.7504 -0.2335
53.3200 17.7570 -0.2273
53.3400 17.7636 -0.2287
53.3600 17.7702 -0.2349
53.3800 17.7769 -0.2325
53.4000 17.7836 -0.2321
53.4200 17.7904 -0.2325
53.4400 17.7970 -0.2270
53.4600 17.8037 -0.2289
53.4800 17.8104 -0.2351
53.5000 17.8170 -0.2252
53.5200 17.8236 -0.2263
53.5400 17.8302 -0.2325
53.5600 17.8369 -0.2230
53.5800 17.8436 -0.2268
53.6000 17.8503 -0.2359
53.6200 17.8569 -0.2264
53.6400 17.8636 -0.2221
53.6600 17.8703 -0.2293
53.6800 17.8770 -0.2332
53.7000 17.8836 -0.2327
53.7200 17.8902 -0.2251
53.7400 17.8968 -0.2239
53.7600 17.9035 -0.2314
53.7800 17.9103 -0.2247
53.8000 17.9170 -0.2273
53.8200 17.9236 -0.2326
53.8400 17.9303 -0.2228
53.8600 17.9370 -0.2258
53.8800 17.9436 -0.2290
53.9000 17.9502 -0.2209
53.9200 17.9569 -0.2322
53.9400 17.9636 -0.2293
53.9600 17.9703 -0.2171
53.9800 17.9770 -0.2306
54.0000 17.9837 -0.2274
54.0200 17.9903 -0.2217
54.0400 17.9970 -0.2317
54.0600 18.0037 -0.2235
54.0800 18.0103 -0.2223
54.1000 18.0169 -0.2340
54.1200 18.0236 -0.2192
54.1400 18.0303 -0.2237
54.1600 18.0370 -0.2323
54.1800 18.0437 -0.2184
54.2000 18.0504 -0.2272
54.2200 18.0571 -0.2334
54.2400 18.0637 -0.2240
54.2600 18.0703 -0.2196
54.2800 18.0769 -0.2299
54.3000 18.0836 -0.2266
54.3200 18.0903 -0.2256
54.3400 18.0970 -0.2313
54.3600 18.1037 -0.2203
54.3800 18.1103 -0.2217
54.4000 18.1170 -0.2362
54.4200 18.1236 -0.2287
54.4400 18.1302 -0.2216
54.4600 18.1369 -0.2297
54.4800 18.1436 -0.2236
54.5000 18.1503 -0.2269
54.5200 18.1569 -0.2356
54.5400 18.1636 -0.2280
54.5600 18.1703 -0.2212
54.5800 18.1770 -0.2321
54.6000 18.1836 -0.2274
54.6200 18.1902 -0.2274
54.6400 18.1968 -0.2326
54.6600 18.2035 -0.2276
54.6800 18.2103 -0.2201
54.7000 18.2170 -0.2332
54.7200 18.2237 -0.2324
54.7400 18.2304 -0.2277
54.7600 18.2371 -0.2342
54.7800 18.2437 -0.2306
54.8000 18.2503 -0.2218
54.8200 18.2569 -0.2328
54.8400 18.2636 -0.2326
54.8600 18.2703 -0.2247
54.8800 18.2770 -0.2339
54.9000 18.2837 -0.2335
54.9200 18.2904 -0.2235
54.9400 18.2970 -0.2400
54.9600 18.3037 -0.2362
54.9800 18.3103 -0.2220
55.0000 18.3169 -0.2349
55.0200 18.3236 -0.2372
55.0400 18.3303 -0.2254
55.0600 18.3370 -0.2388
55.0800 18.3436 -0.2346
55.1000 18.3503 -0.2239
55.1200 18.3570 -0.2442
55.1400 18.3636 -0.2324
55.1600 18.3702 -0.2258
55.1800 18.3768 -0.2390
55.2000 18.3835 -0.2320
55.2200 18.3902 -0.2297
55.2400 18.3969 -0.2453
55.2600 18.4036 -0.2339
55.2800 18.4103 -0.2249
55.3000 18.4170 -0.2404
55.3200 18.4236 -0.2383
55.3400 18.4302 -0.2285
55.3600 18.4369 -0.2410
55.3800 18.4436 -0.2305
55.4000 18.4503 -0.2308
55.4200 18.4570 -0.2397
55.4400 18.4637 -0.2352
55.4600 18.4704 -0.2297
55.4800 18.4770 -0.2420
55.5000 18.4837 -0.2360
55.5200 18.4903 -0.2337
55.5400 18.4969 -0.2376
55.5600 18.5036 -0.2353
55.5800 18.5103 -0.2343
55.6000 18.5170 -0.2401
55.6200 18.5237 -0.2382
55.6400 18.5303 -0.2307
55.6600 18.5370 -0.2386
55.6800 18.5437 -0.2439
55.7000 18.5503 -0.2308
55.7200 18.5569 -0.2378
55.7400 18.5636 -0.2384
55.7600 18.5703 -0.2290
55.7800 18.5770 -0.2386
55.8000 18.5837 -0.2434
55.8200 18.5903 -0.2288
55.8400 18.5970 -0.2351
55.8600 18.6037 -0.2420
55.8800 18.6102 -0.2293
55.9000 18.6168 -0.2395
55.9200 18.6235 -0.2420
55.9400 18.6303 -0.2303
55.9600 18.6370 -0.2375
55.9800 18.6436 -0.2384
56.0000 18.6503 -0.2338
56.0200 18.6570 -0.2414
56.0400 18.6637 -0.2340
56.0600 18.6703 -0.2276
56.0800 18.6769 -0.2399
56.1000 18.6836 -0.2428
56.1200 18.6903 -0.2296
56.1400 18.6970 -0.2346
56.1600 18.7037 -0.2381
56.1800 18.7104 -0.2286
56.2000 18.7171 -0.2430
56.2200 18.7237 -0.2421
56.2400 18.7303 -0.2225
56.2600 18.7369 -0.2345
56.2800 18.7436 -0.2390
56.3000 18.7503 -0.2310
56.3200 18.7570 -0.2417
56.3400 18.7637 -0.2387
56.3600 18.7704 -0.2271
56.3800 18.7770 -0.2361
56.4000 18.7837 -0.2361
56.4200 18.7903 -0.2347
56.4400 18.7969 -0.2346
56.4600 18.8036 -0.2326
56.4800 18.8103 -0.2326
56.5000 18.8170 -0.2429
56.5200 18.8237 -0.2353
56.5400 18.8303 -0.2352
56.5600 18.8370 -0.2404
56.5800 18.8436 -0.2350
56.6000 18.8502 -0.2346
56.6200 18.8568 -0.2340
56.6400 18.8635 -0.2379
56.6600 18.8702 -0.2351
56.6800 18.8769 -0.2315
56.7000 18.8836 -0.2409
56.7200 18.8903 -0.2360
56.7400 18.8970 -0.2330
56.7600 18.9037 -0.2410
56.7800 18.9103 -0.2300
56.8000 18.9169 -0.2337
56.8200 18.9235 -0.2389
56.8400 18.9303 -0.2315
56.8600 18.9370 -0.2339
56.8800 18.9437 -0.2444
56.9000 18.9504 -0.2317
56.9200 18.9571 -0.2365
56.9400 18.9637 -0.2481
56.9600 18.9703 -0.2311
56.9800 18.9769 -0.2349
57.0000 18.9836 -0.2428
57.0200 18.9903 -0.2282
57.0400 18.9970 -0.2440
57.0600 19.0037 -0.2338
57.0800 19.0103 -0.2324
57.1000 19.0170 -0.2416
57.1200 19.0237 -0.2337
57.1400 19.0303 -0.2346
57.1600 19.0369 -0.2419
57.1800 19.0435 -0.2327
57.2000 19.0502 -0.2357
57.2200 19.0570 -0.2398
57.2400 19.0636 -0.2343
57.2600 19.0703 -0.2377
57.2800 19.0770 -0.2384
57.3000 19.0837 -0.2334
57.3200 19.0903 -0.2391
57.3400 19.0969 -0.2333
57.3600 19.1035 -0.2291
57.3800 19.1102 -0.2384
57.4000 19.1170 -0.2401
57.4200 19.1236 -0.2306
57.4400 19.1303 -0.2345
57.4600 19.1370 -0.2400
57.4800 19.1436 -0.2325
57.5000 19.1503 -0.2390
57.5200 19.1569 -0.2369
57.5400 19.1636 -0.2314
57.5600 19.1703 -0.2370
57.5800 19.1770 -0.2359
57.6000 19.1837 -0.2304
57.6200 19.1903 -0.2385
57.6400 19.1970 -0.2359
57.6600 19.2037 -0.2331
57.6800 19.2103 -0.2410
57.7000 19.2169 -0.2352
57.7200 19.2236 -0.2335
57.7400 19.2303 -0.2424
57.7600 19.2370 -0.2326
57.7800 19.2437 -0.2307
57.8000 19.2504 -0.2444
57.8200 19.2571 -0.2347
57.8400 19.2637 -0.2341
57.8600 19.2703 -0.2428
57.8800 19.2769 -0.2314
57.9000 19.2835 -0.2363
57.9200 19.2902 -0.2416
57.9400 19.2969 -0.2326
57.9600 19.3036 -0.2396
57.9800 19.3103 -0.2400
58.0000 19.3170 -0.2298
58.0200 19.3237 -0.2400
58.0400 19.3303 -0.2401
58.0600 19.3369 -0.2302
58.0800 19.3435 -0.2394
58.1000 19.3502 -0.2350
58.1200 19.3569 -0.2331
58.1400 19.3636 -0.2415
58.1600 19.3703 -0.2338
58.1800 19.3770 -0.2324
58.2000 19.3837 -0.2420
58.2200 19.3903 -0.2315
58.2400 19.3969 -0.2366
58.2600 19.4036 -0.2400
58.2800 19.4103 -0.2344
58.3000 19.4170 -0.2351
58.3200 19.4237 -0.2380
58.3400 19.4303 -0.2340
58.3600 19.4370 -0.2381
58.3800 19.4437 -0.2351
58.4000 19.4503 -0.2352
58.4200 19.4569 -0.2352
58.4400 19.4635 -0.2312
58.4600 19.4703 -0.2363
58.4800 19.4770 -0.2390
58.5000 19.4837 -0.2321
58.5200 19.4904 -0.2369
58.5400 19.4970 -0.2321
58.5600 19.5037 -0.2377
58.5800 19.5103 -0.2413
58.6000 19.5169 -0.2295
58.6200 19.5236 -0.2334
58.6400 19.5303 -0.2406
58.6600 19.5370 -0.2310
58.6800 19.5437 -0.2391
58.7000 19.5503 -0.2393
58.7200 19.5570 -0.2305
58.7400 19.5637 -0.2373
58.7600 19.5703 -0.2432
58.7800 19.5769 -0.2294
58.8000 19.5835 -0.2351
58.8200 19.5902 -0.2389
58.8400 19.5969 -0.2300
58.8600 19.6036 -0.2393
58.8800 19.6103 -0.2363
58.9000 19.6170 -0.2357
58.9200 19.6236 -0.2379
58.9400 19.6303 -0.2351
58.9600 19.6369 -0.2312
58.9800 19.6435 -0.2387
59.0000 19.6502 -0.2408
59.0200 19.6570 -0.2322
59.0400 19.6637 -0.2368
59.0600 19.6703 -0.2431
59.0800 19.6770 -0.2351
59.1000 19.6837 -0.2380
59.1200 19.6903 -0.2390
59.1400 19.6970 -0.2389
59.1600 19.7036 -0.2343
59.1800 19.7103 -0.2429
59.2000 19.7170 -0.2386
59.2200 19.7237 -0.2373
59.2400 19.7303 -0.2403
59.2600 19.7370 -0.2340
59.2800 19.7437 -0.2410
59.3000 19.7502 -0.2565
