Raw Data
Time Displacement Force
(s) (mm) (N)
0.0000 0.0000 -0.2767
0.0200 0.0001 -0.2736
0.0400 0.0008 -0.2506
0.0600 0.0040 -0.2353
0.0800 0.0095 -0.2744
0.1000 0.0153 -0.2864
0.1200 0.0212 -0.2495
0.1400 0.0278 -0.2691
0.1600 0.0351 -0.2797
0.1800 0.0425 -0.2642
0.2000 0.0497 -0.2798
0.2200 0.0566 -0.2821
0.2400 0.0633 -0.2611
0.2600 0.0699 -0.2764
0.2800 0.0766 -0.2745
0.3000 0.0833 -0.2587
0.3200 0.0900 -0.2792
0.3400 0.0968 -0.2729
0.3600 0.1034 -0.2622
0.3800 0.1101 -0.2773
0.4000 0.1167 -0.2635
0.4200 0.1234 -0.2636
0.4400 0.1301 -0.2705
0.4600 0.1368 -0.2615
0.4800 0.1435 -0.2591
0.5000 0.1502 -0.2666
0.5200 0.1568 -0.2579
0.5400 0.1635 -0.2580
0.5600 0.1700 -0.2631
0.5800 0.1767 -0.2516
0.6000 0.1834 -0.2569
0.6200 0.1901 -0.2564
0.6400 0.1968 -0.2508
0.6600 0.2035 -0.2523
0.6800 0.2101 -0.2512
0.7000 0.2168 -0.2515
0.7200 0.2235 -0.2519
0.7400 0.2301 -0.2494
0.7600 0.2367 -0.2425
0.7800 0.2434 -0.2416
0.8000 0.2501 -0.2489
0.8200 0.2568 -0.2423
0.8400 0.2634 -0.2419
0.8600 0.2701 -0.2443
0.8800 0.2768 -0.2434
0.9000 0.2834 -0.2390
0.9200 0.2900 -0.2397
0.9400 0.2966 -0.2399
0.9600 0.3033 -0.2411
0.9800 0.3100 -0.2359
1.0000 0.3167 -0.2348
1.0200 0.3234 -0.2382
1.0400 0.3301 -0.2357
1.0600 0.3368 -0.2387
1.0800 0.3434 -0.2380
1.1000 0.3500 -0.2359
1.1200 0.3567 -0.2379
1.1400 0.3633 -0.2316
1.1600 0.3701 -0.2399
1.1800 0.3768 -0.2426
1.2000 0.3835 -0.2416
1.2200 0.3901 -0.2382
1.2400 0.3968 -0.2407
1.2600 0.4035 -0.2396
1.2800 0.4101 -0.2399
1.3000 0.4167 -0.2427
1.3200 0.4234 -0.2431
1.3400 0.4301 -0.2445
1.3600 0.4368 -0.2446
1.3800 0.4435 -0.2437
1.4000 0.4502 -0.2495
1.4200 0.4569 -0.2498
1.4400 0.4635 -0.2529
1.4600 0.4701 -0.2478
1.4800 0.4767 -0.2511
1.5000 0.4833 -0.2549
1.5200 0.4900 -0.2498
1.5400 0.4967 -0.2552
1.5600 0.5034 -0.2533
1.5800 0.5101 -0.2556
1.6000 0.5168 -0.2603
1.6200 0.5234 -0.2568
1.6400 0.5300 -0.2583
1.6600 0.5366 -0.2596
1.6800 0.5433 -0.2588
1.7000 0.5501 -0.2575
1.7200 0.5568 -0.2610
1.7400 0.5634 -0.2612
1.7600 0.5701 -0.2606
1.7800 0.5767 -0.2628
1.8000 0.5834 -0.2596
1.8200 0.5900 -0.2658
1.8400 0.5967 -0.2641
1.8600 0.6034 -0.2634
1.8800 0.6101 -0.2626
1.9000 0.6168 -0.2639
1.9200 0.6235 -0.2657
1.9400 0.6302 -0.2633
1.9600 0.6368 -0.2677
1.9800 0.6435 -0.2658
2.0000 0.6501 -0.2685
2.0200 0.6567 -0.2670
2.0400 0.6634 -0.2652
2.0600 0.6701 -0.2725
2.0800 0.6768 -0.2702
2.1000 0.6835 -0.2695
2.1200 0.6901 -0.2724
2.1400 0.6968 -0.2728
2.1600 0.7034 -0.2664
2.1800 0.7100 -0.2723
2.2000 0.7167 -0.2746
2.2200 0.7234 -0.2659
2.2400 0.7301 -0.2811
2.2600 0.7368 -0.2762
2.2800 0.7434 -0.2696
2.3000 0.7501 -0.2770
2.3200 0.7568 -0.2760
2.3400 0.7634 -0.2702
2.3600 0.7701 -0.2807
2.3800 0.7767 -0.2793
2.4000 0.7833 -0.2728
2.4200 0.7900 -0.2768
2.4400 0.7967 -0.2796
2.4600 0.8034 -0.2740
2.4800 0.8101 -0.2780
2.5000 0.8168 -0.2803
2.5200 0.8235 -0.2800
2.5400 0.8301 -0.2755
2.5600 0.8367 -0.2808
2.5800 0.8433 -0.2753
2.6000 0.8501 -0.2804
2.6200 0.8568 -0.2858
2.6400 0.8635 -0.2760
2.6600 0.8701 -0.2826
2.6800 0.8768 -0.2875
2.7000 0.8835 -0.2778
2.7200 0.8901 -0.2820
2.7400 0.8967 -0.2886
2.7600 0.9034 -0.2802
2.7800 0.9101 -0.2843
2.8000 0.9168 -0.2913
2.8200 0.9235 -0.2818
2.8400 0.9302 -0.2889
2.8600 0.9368 -0.2943
2.8800 0.9435 -0.2758
2.9000 0.9501 -0.2860
2.9200 0.9567 -0.2908
2.9400 0.9634 -0.2822
2.9600 0.9700 -0.2893
2.9800 0.9768 -0.2901
3.0000 0.9834 -0.2833
3.0200 0.9901 -0.2965
3.0400 0.9968 -0.2883
3.0600 1.0035 -0.2853
3.0800 1.0101 -0.2966
3.1000 1.0166 -0.2862
3.1200 1.0233 -0.2818
3.1400 1.0300 -0.2972
3.1600 1.0367 -0.2897
3.1800 1.0434 -0.2894
3.2000 1.0501 -0.2965
3.2200 1.0568 -0.2927
3.2400 1.0635 -0.2958
3.2600 1.0701 -0.2976
3.2800 1.0767 -0.2904
3.3000 1.0834 -0.2916
3.3200 1.0901 -0.2983
3.3400 1.0968 -0.2937
3.3600 1.1035 -0.2963
3.3800 1.1102 -0.3036
3.4000 1.1169 -0.2931
3.4200 1.1235 -0.2958
3.4400 1.1301 -0.3021
3.4600 1.1367 -0.3037
3.4800 1.1434 -0.2970
3.5000 1.1501 -0.3023
3.5200 1.1568 -0.3031
3.5400 1.1635 -0.2937
3.5600 1.1701 -0.3077
3.5800 1.1768 -0.3034
3.6000 1.1835 -0.3023
3.6200 1.1901 -0.3042
3.6400 1.1967 -0.3018
3.6600 1.2033 -0.2992
3.6800 1.2101 -0.3075
3.7000 1.2168 -0.3055
3.7200 1.2234 -0.2993
3.7400 1.2301 -0.3078
3.7600 1.2368 -0.3044
3.7800 1.2435 -0.2989
3.8000 1.2501 -0.3152
3.8200 1.2567 -0.3027
3.8400 1.2634 -0.3020
3.8600 1.2700 -0.3129
3.8800 1.2767 -0.3006
3.9000 1.2834 -0.2985
3.9200 1.2901 -0.3138
3.9400 1.2968 -0.3020
3.9600 1.3035 -0.3057
3.9800 1.3101 -0.3157
4.0000 1.3167 -0.2973
4.0200 1.3233 -0.3018
4.0400 1.3300 -0.3176
4.0600 1.3368 -0.2978
4.0800 1.3435 -0.3069
4.1000 1.3501 -0.3129
4.1200 1.3568 -0.3002
4.1400 1.3635 -0.3117
4.1600 1.3701 -0.3127
4.1800 1.3767 -0.2995
4.2000 1.3834 -0.3143
4.2200 1.3901 -0.3077
4.2400 1.3968 -0.3007
4.2600 1.4035 -0.3175
4.2800 1.4102 -0.3064
4.3000 1.4168 -0.3047
4.3200 1.4235 -0.3179
4.3400 1.4301 -0.3058
4.3600 1.4367 -0.3070
4.3800 1.4434 -0.3152
4.4000 1.4501 -0.3043
4.4200 1.4568 -0.3141
4.4400 1.4634 -0.3081
4.4600 1.4701 -0.3065
4.4800 1.4768 -0.3178
4.5000 1.4835 -0.3113
4.5200 1.4901 -0.3067
4.5400 1.4967 -0.3130
4.5600 1.5033 -0.3099
4.5800 1.5100 -0.3134
4.6000 1.5167 -0.3145
4.6200 1.5234 -0.3079
4.6400 1.5301 -0.3144
4.6600 1.5368 -0.3163
4.6800 1.5435 -0.3086
4.7000 1.5501 -0.3202
4.7200 1.5567 -0.3162
4.7400 1.5633 -0.3142
4.7600 1.5701 -0.3185
4.7800 1.5768 -0.3178
4.8000 1.5835 -0.3157
4.8200 1.5902 -0.3221
4.8400 1.5968 -0.3180
4.8600 1.6035 -0.3170
4.8800 1.6101 -0.3256
4.9000 1.6167 -0.3163
4.9200 1.6234 -0.3168
4.9400 1.6301 -0.3273
4.9600 1.6368 -0.3173
4.9800 1.6435 -0.3214
5.0000 1.6501 -0.3222
5.0200 1.6568 -0.3185
5.0400 1.6635 -0.3285
5.0600 1.6701 -0.3261
5.0800 1.6767 -0.3187
5.1000 1.6833 -0.3259
5.1200 1.6900 -0.3245
5.1400 1.6967 -0.3203
5.1600 1.7034 -0.3323
5.1800 1.7101 -0.3241
5.2000 1.7168 -0.3293
5.2200 1.7235 -0.3286
5.2400 1.7301 -0.3279
5.2600 1.7367 -0.3240
5.2800 1.7433 -0.3337
5.3000 1.7500 -0.3288
5.3200 1.7567 -0.3274
5.3400 1.7634 -0.3323
5.3600 1.7701 -0.3312
5.3800 1.7768 -0.3280
5.4000 1.7834 -0.3290
5.4200 1.7901 -0.3365
5.4400 1.7967 -0.3287
5.4600 1.8034 -0.3269
5.4800 1.8101 -0.3363
5.5000 1.8168 -0.3329
5.5200 1.8235 -0.3334
5.5400 1.8301 -0.3356
5.5600 1.8368 -0.3321
5.5800 1.8435 -0.3302
5.6000 1.8502 -0.3428
5.6200 1.8567 -0.3340
5.6400 1.8634 -0.3342
5.6600 1.8700 -0.3421
5.6800 1.8768 -0.3321
5.7000 1.8835 -0.3362
5.7200 1.8901 -0.3369
5.7400 1.8968 -0.3357
5.7600 1.9035 -0.3435
5.7800 1.9101 -0.3417
5.8000 1.9167 -0.3308
5.8200 1.9233 -0.3415
5.8400 1.9300 -0.3389
5.8600 1.9367 -0.3362
5.8800 1.9434 -0.3459
5.9000 1.9501 -0.3373
5.9200 1.9568 -0.3377
5.9400 1.9634 -0.3488
5.9600 1.9701 -0.3375
5.9800 1.9767 -0.3376
6.0000 1.9833 -0.3413
6.0200 1.9900 -0.3435
6.0400 1.9967 -0.3371
6.0600 2.0034 -0.3488
6.0800 2.0101 -0.3407
6.1000 2.0168 -0.3352
6.1200 2.0235 -0.3475
6.1400 2.0301 -0.3448
6.1600 2.0367 -0.3381
6.1800 2.0434 -0.3455
6.2000 2.0500 -0.3467
6.2200 2.0568 -0.3417
6.2400 2.0635 -0.3483
6.2600 2.0702 -0.3475
6.2800 2.0768 -0.3419
6.3000 2.0835 -0.3503
6.3200 2.0901 -0.3428
6.3400 2.0967 -0.3409
6.3600 2.1034 -0.3540
6.3800 2.1100 -0.3479
6.4000 2.1168 -0.3377
6.4200 2.1235 -0.3514
6.4400 2.1301 -0.3484
6.4600 2.1368 -0.3424
6.4800 2.1435 -0.3532
6.5000 2.1502 -0.3480
6.5200 2.1568 -0.3486
6.5400 2.1634 -0.3505
6.5600 2.1700 -0.3516
6.5800 2.1767 -0.3483
6.6000 2.1834 -0.3506
6.6200 2.1901 -0.3547
6.6400 2.1968 -0.3438
6.6600 2.2035 -0.3551
6.6800 2.2102 -0.3549
6.7000 2.2167 -0.3439
6.7200 2.2233 -0.3561
6.7400 2.2300 -0.3518
6.7600 2.2367 -0.3452
6.7800 2.2434 -0.3528
6.8000 2.2501 -0.3579
6.8200 2.2568 -0.3451
6.8400 2.2635 -0.3581
6.8600 2.2701 -0.3572
6.8800 2.2767 -0.3479
6.9000 2.2834 -0.3577
6.9200 2.2900 -0.3535
6.9400 2.2967 -0.3501
6.9600 2.3034 -0.3614
6.9800 2.3101 -0.3544
7.0000 2.3168 -0.3498
7.0200 2.3235 -0.3636
7.0400 2.3302 -0.3542
7.0600 2.3368 -0.3522
7.0800 2.3434 -0.3622
7.1000 2.3500 -0.3530
7.1200 2.3567 -0.3542
7.1400 2.3634 -0.3631
7.1600 2.3701 -0.3544
7.1800 2.3768 -0.3613
7.2000 2.3835 -0.3637
7.2200 2.3902 -0.3543
7.2400 2.3968 -0.3583
7.2600 2.4033 -0.3637
7.2800 2.4100 -0.3535
7.3000 2.4167 -0.3590
7.3200 2.4234 -0.3617
7.3400 2.4301 -0.3541
7.3600 2.4368 -0.3616
7.3800 2.4435 -0.3650
7.4000 2.4501 -0.3553
7.4200 2.4567 -0.3691
7.4400 2.4633 -0.3540
7.4600 2.4700 -0.3555
7.4800 2.4767 -0.3706
7.5000 2.4834 -0.3591
7.5200 2.4901 -0.3535
7.5400 2.4967 -0.3726
7.5600 2.5034 -0.3587
7.5800 2.5101 -0.3562
7.6000 2.5167 -0.3722
7.6200 2.5234 -0.3586
7.6400 2.5300 -0.3562
7.6600 2.5367 -0.3709
7.6800 2.5434 -0.3585
7.7000 2.5501 -0.3630
7.7200 2.5568 -0.3689
7.7400 2.5635 -0.3605
7.7600 2.5702 -0.3660
7.7800 2.5768 -0.3674
7.8000 2.5834 -0.3606
7.8200 2.5900 -0.3643
7.8400 2.5968 -0.3682
7.8600 2.6035 -0.3647
7.8800 2.6102 -0.3728
7.9000 2.6168 -0.3677
7.9200 2.6235 -0.3659
7.9400 2.6301 -0.3696
7.9600 2.6367 -0.3664
7.9800 2.6434 -0.3705
8.0000 2.6500 -0.3661
8.0200 2.6567 -0.3688
8.0400 2.6634 -0.3752
8.0600 2.6701 -0.3634
8.0800 2.6768 -0.3699
8.1000 2.6835 -0.3726
8.1200 2.6901 -0.3682
8.1400 2.6968 -0.3768
8.1600 2.7033 -0.3752
8.1800 2.7100 -0.3633
8.2000 2.7167 -0.3765
8.2200 2.7234 -0.3765
8.2400 2.7301 -0.3672
8.2600 2.7368 -0.3730
8.2800 2.7435 -0.3777
8.3000 2.7502 -0.3703
8.3200 2.7568 -0.3771
8.3400 2.7634 -0.3763
8.3600 2.7700 -0.3685
8.3800 2.7767 -0.3755
8.4000 2.7834 -0.3779
8.4200 2.7901 -0.3748
8.4400 2.7968 -0.3760
8.4600 2.8035 -0.3802
8.4800 2.8101 -0.3740
8.5000 2.8168 -0.3791
8.5200 2.8234 -0.3741
8.5400 2.8300 -0.3740
8.5600 2.8367 -0.3847
8.5800 2.8434 -0.3795
8.6000 2.8501 -0.3712
8.6200 2.8568 -0.3826
8.6400 2.8635 -0.3774
8.6600 2.8702 -0.3777
8.6800 2.8768 -0.3832
8.7000 2.8834 -0.3751
8.7200 2.8900 -0.3757
8.7400 2.8967 -0.3792
8.7600 2.9034 -0.3748
8.7800 2.9101 -0.3870
8.8000 2.9168 -0.3776
8.8200 2.9235 -0.3784
8.8400 2.9301 -0.3847
8.8600 2.9367 -0.3750
8.8800 2.9433 -0.3759
8.9000 2.9500 -0.3838
8.9200 2.9567 -0.3757
8.9400 2.9634 -0.3797
8.9600 2.9701 -0.3838
8.9800 2.9767 -0.3754
9.0000 2.9834 -0.3831
9.0200 2.9901 -0.3833
9.0400 2.9968 -0.3737
9.0600 3.0034 -0.3849
9.0800 3.0100 -0.3793
9.1000 3.0167 -0.3793
9.1200 3.0234 -0.3841
9.1400 3.0301 -0.3783
9.1600 3.0368 -0.3798
9.1800 3.0435 -0.3784
9.2000 3.0502 -0.3847
9.2200 3.0568 -0.3838
9.2400 3.0634 -0.3778
9.2600 3.0700 -0.3806
9.2800 3.0767 -0.3836
9.3000 3.0834 -0.3809
9.3200 3.0901 -0.3820
9.3400 3.0968 -0.3822
9.3600 3.1035 -0.3817
9.3800 3.1102 -0.3823
9.4000 3.1168 -0.3846
9.4200 3.1234 -0.3822
9.4400 3.1300 -0.3830
9.4600 3.1367 -0.3795
9.4800 3.1434 -0.3876
9.5000 3.1501 -0.3810
9.5200 3.1568 -0.3837
9.5400 3.1635 -0.3861
9.5600 3.1702 -0.3843
9.5800 3.1768 -0.3853
9.6000 3.1834 -0.3877
9.6200 3.1900 -0.3807
9.6400 3.1967 -0.3888
9.6600 3.2034 -0.3877
9.6800 3.2101 -0.3790
9.7000 3.2168 -0.3889
9.7200 3.2234 -0.3922
9.7400 3.2301 -0.3798
9.7600 3.2368 -0.3925
9.7800 3.2434 -0.3881
9.8000 3.2500 -0.3808
9.8200 3.2567 -0.3919
9.8400 3.2634 -0.3842
9.8600 3.2701 -0.3897
9.8800 3.2768 -0.3936
9.9000 3.2835 -0.3810
9.9200 3.2902 -0.3869
9.9400 3.2968 -0.3962
9.9600 3.3034 -0.3824
9.9800 3.3100 -0.3930
10.0000 3.3167 -0.3954
10.0200 3.3235 -0.3805
10.0400 3.3302 -0.3961
10.0600 3.3368 -0.3975
10.0800 3.3435 -0.3807
10.1000 3.3501 -0.4033
10.1200 3.3568 -0.3932
10.1400 3.3634 -0.3838
10.1600 3.3700 -0.4017
10.1800 3.3767 -0.3963
10.2000 3.3834 -0.3866
10.2200 3.3901 -0.4031
10.2400 3.3968 -0.3957
10.2600 3.4035 -0.3904
10.2800 3.4101 -0.4068
10.3000 3.4168 -0.3943
10.3200 3.4234 -0.3924
10.3400 3.4300 -0.4062
10.3600 3.4367 -0.3862
10.3800 3.4434 -0.3981
10.4000 3.4501 -0.4055
10.4200 3.4568 -0.3967
10.4400 3.4634 -0.3958
10.4600 3.4701 -0.4023
10.4800 3.4768 -0.3990
10.5000 3.4834 -0.4011
10.5200 3.4900 -0.4007
10.5400 3.4967 -0.4007
10.5600 3.5034 -0.4005
10.5800 3.5101 -0.4007
10.6000 3.5168 -0.4079
10.6200 3.5235 -0.3981
10.6400 3.5302 -0.4021
10.6600 3.5368 -0.4056
10.6800 3.5434 -0.3986
10.7000 3.5500 -0.3988
10.7200 3.5567 -0.4081
10.7400 3.5634 -0.3997
10.7600 3.5701 -0.4007
10.7800 3.5768 -0.4070
10.8000 3.5835 -0.3985
10.8200 3.5902 -0.4065
10.8400 3.5968 -0.4074
10.8600 3.6034 -0.3982
10.8800 3.6100 -0.4085
10.9000 3.6167 -0.4038
10.9200 3.6234 -0.3971
10.9400 3.6301 -0.4064
10.9600 3.6368 -0.4083
10.9800 3.6435 -0.3945
11.0000 3.6501 -0.4121
11.0200 3.6568 -0.4066
11.0400 3.6634 -0.4003
11.0600 3.6700 -0.4136
11.0800 3.6767 -0.4028
11.1000 3.6834 -0.4013
11.1200 3.6901 -0.4166
11.1400 3.6968 -0.4001
11.1600 3.7034 -0.4029
11.1800 3.7101 -0.4205
11.2000 3.7168 -0.4002
11.2200 3.7234 -0.4080
11.2400 3.7300 -0.4193
11.2600 3.7367 -0.3974
11.2800 3.7434 -0.4114
11.3000 3.7501 -0.4171
11.3200 3.7568 -0.3966
11.3400 3.7635 -0.4114
11.3600 3.7702 -0.4130
11.3800 3.7768 -0.4048
11.4000 3.7834 -0.4150
11.4200 3.7900 -0.4096
11.4400 3.7967 -0.4046
11.4600 3.8034 -0.4145
11.4800 3.8102 -0.4082
11.5000 3.8168 -0.4096
11.5200 3.8235 -0.4136
11.5400 3.8302 -0.4065
11.5600 3.8368 -0.4120
11.5800 3.8434 -0.4146
11.6000 3.8500 -0.4065
11.6200 3.8567 -0.4168
11.6400 3.8634 -0.4118
11.6600 3.8701 -0.4090
11.6800 3.8767 -0.4190
11.7000 3.8834 -0.4098
11.7200 3.8901 -0.4118
11.7400 3.8968 -0.4198
11.7600 3.9034 -0.4048
11.7800 3.9100 -0.4164
11.8000 3.9166 -0.4218
11.8200 3.9233 -0.4045
11.8400 3.9300 -0.4174
11.8600 3.9367 -0.4197
11.8800 3.9434 -0.4046
11.9000 3.9501 -0.4210
11.9200 3.9568 -0.4211
11.9400 3.9634 -0.4057
11.9600 3.9700 -0.4194
11.9800 3.9767 -0.4172
12.0000 3.9834 -0.4050
12.0200 3.9901 -0.4245
12.0400 3.9968 -0.4173
12.0600 4.0035 -0.4069
12.0800 4.0102 -0.4259
12.1000 4.0168 -0.4193
12.1200 4.0234 -0.4112
12.1400 4.0301 -0.4209
12.1600 4.0367 -0.4162
12.1800 4.0434 -0.4136
12.2000 4.0501 -0.4223
12.2200 4.0568 -0.4146
12.2400 4.0635 -0.4156
12.2600 4.0702 -0.4200
12.2800 4.0769 -0.4175
12.3000 4.0834 -0.4228
12.3200 4.0900 -0.4201
12.3400 4.0967 -0.4136
12.3600 4.1034 -0.4208
12.3800 4.1101 -0.4221
12.4000 4.1168 -0.4222
12.4200 4.1234 -0.4171
12.4400 4.1301 -0.4217
12.4600 4.1368 -0.4223
12.4800 4.1434 -0.4192
12.5000 4.1500 -0.4232
12.5200 4.1567 -0.4176
12.5400 4.1634 -0.4236
12.5600 4.1701 -0.4243
12.5800 4.1768 -0.4163
12.6000 4.1834 -0.4255
12.6200 4.1901 -0.4236
12.6400 4.1968 -0.4194
12.6600 4.2034 -0.4253
12.6800 4.2101 -0.4235
12.7000 4.2167 -0.4210
12.7200 4.2234 -0.4256
12.7400 4.2301 -0.4213
12.7600 4.2368 -0.4232
12.7800 4.2435 -0.4270
12.8000 4.2502 -0.4170
12.8200 4.2569 -0.4289
12.8400 4.2635 -0.4294
12.8600 4.2701 -0.4187
12.8800 4.2767 -0.4236
12.9000 4.2834 -0.4272
12.9200 4.2901 -0.4199
12.9400 4.2968 -0.4264
12.9600 4.3035 -0.4243
12.9800 4.3102 -0.4243
13.0000 4.3168 -0.4274
13.0200 4.3234 -0.4266
13.0400 4.3300 -0.4252
13.0600 4.3367 -0.4246
13.0800 4.3434 -0.4210
13.1000 4.3501 -0.4283
13.1200 4.3568 -0.4253
13.1400 4.3635 -0.4292
13.1600 4.3701 -0.4284
13.1800 4.3768 -0.4222
13.2000 4.3834 -0.4297
13.2200 4.3900 -0.4307
13.2400 4.3966 -0.4195
13.2600 4.4033 -0.4294
13.2800 4.4100 -0.4335
13.3000 4.4167 -0.4204
13.3200 4.4234 -0.4276
13.3400 4.4301 -0.4328
13.3600 4.4368 -0.4217
13.3800 4.4435 -0.4303
13.4000 4.4500 -0.4292
13.4200 4.4566 -0.4173
13.4400 4.4633 -0.4316
13.4600 4.4701 -0.4306
13.4800 4.4768 -0.4196
13.5000 4.4835 -0.4350
13.5200 4.4902 -0.4309
13.5400 4.4969 -0.4204
13.5600 4.5035 -0.4334
13.5800 4.5101 -0.4262
13.6000 4.5167 -0.4218
13.6200 4.5234 -0.4327
13.6400 4.5301 -0.4284
13.6600 4.5368 -0.4278
13.6800 4.5435 -0.4392
13.7000 4.5501 -0.4237
13.7200 4.5568 -0.4273
13.7400 4.5634 -0.4405
13.7600 4.5700 -0.4234
13.7800 4.5766 -0.4273
13.8000 4.5833 -0.4396
13.8200 4.5901 -0.4261
13.8400 4.5968 -0.4280
13.8600 4.6034 -0.4370
13.8800 4.6101 -0.4304
13.9000 4.6168 -0.4306
13.9200 4.6234 -0.4360
13.9400 4.6300 -0.4289
13.9600 4.6367 -0.4304
13.9800 4.6433 -0.4361
14.0000 4.6501 -0.4284
14.0200 4.6568 -0.4301
14.0400 4.6634 -0.4371
14.0600 4.6701 -0.4264
14.0800 4.6768 -0.4325
14.1000 4.6834 -0.4344
14.1200 4.6900 -0.4305
14.1400 4.6967 -0.4321
14.1600 4.7034 -0.4330
14.1800 4.7101 -0.4349
14.2000 4.7168 -0.4335
14.2200 4.7234 -0.4345
14.2400 4.7301 -0.4301
14.2600 4.7368 -0.4338
14.2800 4.7434 -0.4390
14.3000 4.7501 -0.4315
14.3200 4.7567 -0.4349
14.3400 4.7634 -0.4360
14.3600 4.7701 -0.4317
14.3800 4.7768 -0.4392
14.4000 4.7835 -0.4313
14.4200 4.7902 -0.4386
14.4400 4.7969 -0.4389
14.4600 4.8035 -0.4349
14.4800 4.8101 -0.4383
14.5000 4.8167 -0.4374
14.5200 4.8234 -0.4301
14.5400 4.8301 -0.4382
14.5600 4.8368 -0.4396
14.5800 4.8434 -0.4301
14.6000 4.8501 -0.4377
14.6200 4.8568 -0.4406
14.6400 4.8634 -0.4349
14.6600 4.8700 -0.4390
14.6800 4.8767 -0.4373
14.7000 4.8833 -0.4362
14.7200 4.8901 -0.4354
14.7400 4.8967 -0.4376
14.7600 4.9034 -0.4377
14.7800 4.9101 -0.4400
14.8000 4.9168 -0.4352
14.8200 4.9234 -0.4428
14.8400 4.9301 -0.4410
14.8600 4.9367 -0.4315
14.8800 4.9434 -0.4401
14.9000 4.9501 -0.4410
14.9200 4.9568 -0.4364
14.9400 4.9635 -0.4398
14.9600 4.9702 -0.4337
14.9800 4.9768 -0.4354
15.0000 4.9835 -0.4465
15.0200 4.9900 -0.4366
15.0400 4.9966 -0.4393
15.0600 5.0033 -0.4431
15.0800 5.0100 -0.4339
15.1000 5.0168 -0.4394
15.1200 5.0235 -0.4456
15.1400 5.0302 -0.4343
15.1600 5.0369 -0.4431
15.1800 5.0435 -0.4492
15.2000 5.0501 -0.4338
15.2200 5.0567 -0.4383
15.2400 5.0634 -0.4507
15.2600 5.0701 -0.4355
15.2800 5.0768 -0.4384
15.3000 5.0835 -0.4478
15.3200 5.0901 -0.4425
15.3400 5.0968 -0.4442
15.3600 5.1035 -0.4475
15.3800 5.1101 -0.4403
15.4000 5.1167 -0.4480
15.4200 5.1233 -0.4446
15.4400 5.1300 -0.4400
15.4600 5.1367 -0.4474
15.4800 5.1434 -0.4498
15.5000 5.1501 -0.4406
15.5200 5.1568 -0.4466
15.5400 5.1634 -0.4511
15.5600 5.1700 -0.4483
15.5800 5.1767 -0.4457
15.6000 5.1833 -0.4501
15.6200 5.1901 -0.4452
15.6400 5.1968 -0.4485
15.6600 5.2035 -0.4517
15.6800 5.2102 -0.4462
15.7000 5.2169 -0.4451
15.7200 5.2235 -0.4516
15.7400 5.2301 -0.4501
15.7600 5.2368 -0.4402
15.7800 5.2434 -0.4526
15.8000 5.2501 -0.4518
15.8200 5.2568 -0.4434
15.8400 5.2634 -0.4560
15.8600 5.2701 -0.4487
15.8800 5.2768 -0.4427
15.9000 5.2835 -0.4576
15.9200 5.2901 -0.4463
15.9400 5.2967 -0.4452
15.9600 5.3034 -0.4585
15.9800 5.3101 -0.4450
16.0000 5.3168 -0.4425
16.0200 5.3234 -0.4608
16.0400 5.3301 -0.4450
16.0600 5.3368 -0.4459
16.0800 5.3435 -0.4576
16.1000 5.3501 -0.4486
16.1200 5.3567 -0.4507
16.1400 5.3633 -0.4539
16.1600 5.3701 -0.4458
16.1800 5.3768 -0.4565
16.2000 5.3834 -0.4563
16.2200 5.3901 -0.4461
16.2400 5.3968 -0.4550
16.2600 5.4035 -0.4542
16.2800 5.4101 -0.4516
16.3000 5.4167 -0.4542
16.3200 5.4234 -0.4504
16.3400 5.4301 -0.4511
16.3600 5.4368 -0.4520
16.3800 5.4435 -0.4489
16.4000 5.4502 -0.4540
16.4200 5.4569 -0.4566
16.4400 5.4635 -0.4521
16.4600 5.4701 -0.4490
16.4800 5.4767 -0.4523
16.5000 5.4833 -0.4539
16.5200 5.4901 -0.4530
16.5400 5.4968 -0.4495
16.5600 5.5035 -0.4549
16.5800 5.5102 -0.4557
16.6000 5.5168 -0.4539
16.6200 5.5234 -0.4472
16.6400 5.5300 -0.4600
16.6600 5.5366 -0.4524
16.6800 5.5433 -0.4487
16.7000 5.5500 -0.4578
16.7200 5.5568 -0.4557
16.7400 5.5635 -0.4547
16.7600 5.5702 -0.4564
16.7800 5.5768 -0.4513
16.8000 5.5835 -0.4565
16.8200 5.5901 -0.4610
16.8400 5.5967 -0.4541
16.8600 5.6034 -0.4513
16.8800 5.6100 -0.4623
16.9000 5.6167 -0.4530
16.9200 5.6234 -0.4533
16.9400 5.6301 -0.4590
16.9600 5.6368 -0.4520
16.9800 5.6435 -0.4539
17.0000 5.6501 -0.4551
17.0200 5.6567 -0.4565
17.0400 5.6634 -0.4560
17.0600 5.6701 -0.4590
17.0800 5.6768 -0.4551
17.1000 5.6835 -0.4553
17.1200 5.6902 -0.4615
17.1400 5.6968 -0.4589
17.1600 5.7035 -0.4546
17.1800 5.7101 -0.4632
17.2000 5.7167 -0.4566
17.2200 5.7234 -0.4508
17.2400 5.7301 -0.4632
17.2600 5.7368 -0.4573
17.2800 5.7435 -0.4544
17.3000 5.7501 -0.4654
17.3200 5.7568 -0.4545
17.3400 5.7635 -0.4548
17.3600 5.7701 -0.4669
17.3800 5.7767 -0.4538
17.4000 5.7833 -0.4536
17.4200 5.7900 -0.4693
17.4400 5.7967 -0.4534
17.4600 5.8034 -0.4596
17.4800 5.8101 -0.4644
17.5000 5.8168 -0.4553
17.5200 5.8235 -0.4625
17.5400 5.8301 -0.4682
17.5600 5.8367 -0.4543
17.5800 5.8433 -0.4596
17.6000 5.8500 -0.4647
17.6200 5.8568 -0.4560
17.6400 5.8634 -0.4616
17.6600 5.8701 -0.4630
17.6800 5.8768 -0.4584
17.7000 5.8835 -0.4645
17.7200 5.8901 -0.4605
17.7400 5.8967 -0.4607
17.7600 5.9034 -0.4648
17.7800 5.9101 -0.4605
17.8000 5.9168 -0.4618
17.8200 5.9235 -0.4637
17.8400 5.9301 -0.4623
17.8600 5.9369 -0.4644
17.8800 5.9435 -0.4660
17.9000 5.9502 -0.4595
17.9200 5.9568 -0.4656
17.9400 5.9634 -0.4625
17.9600 5.9701 -0.4624
17.9800 5.9768 -0.4692
18.0000 5.9835 -0.4607
18.0200 5.9902 -0.4617
18.0400 5.9968 -0.4674
18.0600 6.0035 -0.4580
18.0800 6.0101 -0.4683
18.1000 6.0167 -0.4661
18.1200 6.0233 -0.4599
18.1400 6.0300 -0.4678
18.1600 6.0368 -0.4696
18.1800 6.0435 -0.4572
18.2000 6.0501 -0.4719
18.2200 6.0568 -0.4681
18.2400 6.0634 -0.4573
18.2600 6.0701 -0.4726
18.2800 6.0767 -0.4591
18.3000 6.0833 -0.4579
18.3200 6.0900 -0.4769
18.3400 6.0968 -0.4611
18.3600 6.1035 -0.4572
18.3800 6.1101 -0.4751
18.4000 6.1168 -0.4627
18.4200 6.1235 -0.4622
18.4400 6.1301 -0.4775
18.4600 6.1367 -0.4611
18.4800 6.1434 -0.4632
18.5000 6.1500 -0.4696
18.5200 6.1567 -0.4576
18.5400 6.1635 -0.4704
18.5600 6.1701 -0.4720
18.5800 6.1768 -0.4598
18.6000 6.1835 -0.4672
18.6200 6.1901 -0.4718
18.6400 6.1967 -0.4640
18.6600 6.2034 -0.4663
18.6800 6.2101 -0.4663
18.7000 6.2168 -0.4686
18.7200 6.2235 -0.4656
18.7400 6.2302 -0.4693
18.7600 6.2368 -0.4670
18.7800 6.2435 -0.4664
18.8000 6.2501 -0.4670
18.8200 6.2567 -0.4693
18.8400 6.2634 -0.4652
18.8600 6.2701 -0.4690
18.8800 6.2768 -0.4704
18.9000 6.2834 -0.4673
18.9200 6.2901 -0.4717
18.9400 6.2968 -0.4707
18.9600 6.3035 -0.4631
18.9800 6.3101 -0.4714
19.0000 6.3167 -0.4703
19.0200 6.3233 -0.4627
19.0400 6.3300 -0.4708
19.0600 6.3367 -0.4708
19.0800 6.3434 -0.4651
19.1000 6.3501 -0.4728
19.1200 6.3568 -0.4706
19.1400 6.3635 -0.4639
19.1600 6.3701 -0.4750
19.1800 6.3767 -0.4712
19.2000 6.3834 -0.4621
19.2200 6.3901 -0.4734
19.2400 6.3968 -0.4717
19.2600 6.4035 -0.4662
19.2800 6.4102 -0.4731
19.3000 6.4168 -0.4674
19.3200 6.4235 -0.4733
19.3400 6.4301 -0.4757
19.3600 6.4367 -0.4655
19.3800 6.4434 -0.4698
19.4000 6.4501 -0.4746
19.4200 6.4568 -0.4661
19.4400 6.4635 -0.4727
19.4600 6.4701 -0.4723
19.4800 6.4768 -0.4692
19.5000 6.4835 -0.4769
19.5200 6.4901 -0.4711
19.5400 6.4967 -0.4675
19.5600 6.5033 -0.4788
19.5800 6.5100 -0.4677
19.6000 6.5167 -0.4712
19.6200 6.5234 -0.4742
19.6400 6.5301 -0.4710
19.6600 6.5368 -0.4722
19.6800 6.5435 -0.4753
19.7000 6.5501 -0.4756
19.7200 6.5567 -0.4764
19.7400 6.5633 -0.4718
19.7600 6.5700 -0.4666
19.7800 6.5767 -0.4786
19.8000 6.5834 -0.4717
19.8200 6.5901 -0.4725
19.8400 6.5968 -0.4727
19.8600 6.6034 -0.4733
19.8800 6.6101 -0.4757
19.9000 6.6167 -0.4794
19.9200 6.6233 -0.4710
19.9400 6.6300 -0.4726
19.9600 6.6368 -0.4765
19.9800 6.6435 -0.4746
20.0000 6.6501 -0.4752
20.0200 6.6568 -0.4751
20.0400 6.6635 -0.4761
20.0600 6.6702 -0.4783
20.0800 6.6768 -0.4713
20.1000 6.6834 -0.4742
20.1200 6.6901 -0.4783
20.1400 6.6968 -0.4759
20.1600 6.7035 -0.4757
20.1800 6.7102 -0.4721
20.2000 6.7169 -0.4780
20.2200 6.7235 -0.4814
20.2400 6.7301 -0.4677
20.2600 6.7367 -0.4782
20.2800 6.7433 -0.4724
20.3000 6.7500 -0.4693
20.3200 6.7567 -0.4791
20.3400 6.7634 -0.4770
20.3600 6.7701 -0.4757
20.3800 6.7768 -0.4786
20.4000 6.7834 -0.4755
20.4200 6.7901 -0.4762
20.4400 6.7967 -0.4788
20.4600 6.8033 -0.4767
20.4800 6.8100 -0.4715
20.5000 6.8167 -0.4792
20.5200 6.8234 -0.4734
20.5400 6.8301 -0.4709
20.5600 6.8368 -0.4815
20.5800 6.8435 -0.4737
20.6000 6.8502 -0.4759
20.6200 6.8568 -0.4788
20.6400 6.8634 -0.4727
20.6600 6.8700 -0.4752
20.6800 6.8768 -0.4852
20.7000 6.8835 -0.4786
20.7200 6.8902 -0.4770
20.7400 6.8968 -0.4782
20.7600 6.9035 -0.4793
20.7800 6.9102 -0.4746
20.8000 6.9167 -0.4801
20.8200 6.9234 -0.4828
20.8400 6.9300 -0.4710
20.8600 6.9367 -0.4782
20.8800 6.9435 -0.4881
20.9000 6.9501 -0.4717
20.9200 6.9568 -0.4872
20.9400 6.9635 -0.4866
20.9600 6.9702 -0.4730
20.9800 6.9768 -0.4824
21.0000 6.9834 -0.4829
21.0200 6.9901 -0.4725
21.0400 6.9967 -0.4804
21.0600 7.0034 -0.4852
21.0800 7.0101 -0.4735
21.1000 7.0168 -0.4823
21.1200 7.0235 -0.4821
21.1400 7.0301 -0.4770
21.1600 7.0368 -0.4904
21.1800 7.0433 -0.4798
21.2000 7.0500 -0.4764
21.2200 7.0567 -0.4859
21.2400 7.0634 -0.4815
21.2600 7.0701 -0.4803
21.2800 7.0768 -0.4849
21.3000 7.0834 -0.4885
21.3200 7.0901 -0.4823
21.3400 7.0967 -0.4849
21.3600 7.1033 -0.4844
21.3800 7.1100 -0.4815
21.4000 7.1167 -0.4829
21.4200 7.1234 -0.4858
21.4400 7.1301 -0.4841
21.4600 7.1368 -0.4851
21.4800 7.1435 -0.4834
21.5000 7.1502 -0.4886
21.5200 7.1568 -0.4831
21.5400 7.1634 -0.4854
21.5600 7.1700 -0.4877
21.5800 7.1767 -0.4878
21.6000 7.1834 -0.4828
21.6200 7.1901 -0.4866
21.6400 7.1968 -0.4854
21.6600 7.2035 -0.4889
21.6800 7.2102 -0.4862
21.7000 7.2168 -0.4836
21.7200 7.2234 -0.4871
21.7400 7.2300 -0.4876
21.7600 7.2367 -0.4796
21.7800 7.2435 -0.4908
21.8000 7.2501 -0.4868
21.8200 7.2568 -0.4806
21.8400 7.2635 -0.4912
21.8600 7.2701 -0.4867
21.8800 7.2767 -0.4860
21.9000 7.2833 -0.4925
21.9200 7.2900 -0.4841
21.9400 7.2967 -0.4858
21.9600 7.3034 -0.4944
21.9800 7.3101 -0.4840
22.0000 7.3167 -0.4854
22.0200 7.3234 -0.4946
22.0400 7.3301 -0.4785
22.0600 7.3368 -0.4875
22.0800 7.3434 -0.4952
22.1000 7.3500 -0.4754
22.1200 7.3567 -0.4922
22.1400 7.3634 -0.4949
22.1600 7.3701 -0.4815
22.1800 7.3768 -0.4868
22.2000 7.3835 -0.4991
22.2200 7.3902 -0.4827
22.2400 7.3968 -0.4911
22.2600 7.4034 -0.4962
22.2800 7.4100 -0.4828
22.3000 7.4167 -0.4933
22.3200 7.4235 -0.4919
22.3400 7.4302 -0.4815
22.3600 7.4368 -0.4966
22.3800 7.4435 -0.4919
22.4000 7.4501 -0.4833
22.4200 7.4568 -0.4923
22.4400 7.4634 -0.4954
22.4600 7.4700 -0.4848
22.4800 7.4767 -0.4906
22.5000 7.4834 -0.4939
22.5200 7.4901 -0.4851
22.5400 7.4968 -0.4923
22.5600 7.5035 -0.4924
22.5800 7.5101 -0.4885
22.6000 7.5168 -0.4929
22.6200 7.5233 -0.4886
22.6400 7.5300 -0.4829
22.6600 7.5367 -0.4906
22.6800 7.5434 -0.4947
22.7000 7.5501 -0.4857
22.7200 7.5568 -0.4914
22.7400 7.5635 -0.4943
22.7600 7.5701 -0.4843
22.7800 7.5768 -0.4979
22.8000 7.5834 -0.4911
22.8200 7.5900 -0.4849
22.8400 7.5967 -0.4923
22.8600 7.6034 -0.4920
22.8800 7.6101 -0.4855
22.9000 7.6168 -0.4912
22.9200 7.6235 -0.4913
22.9400 7.6302 -0.4850
22.9600 7.6368 -0.4949
22.9800 7.6434 -0.4887
23.0000 7.6501 -0.4815
23.0200 7.6567 -0.4981
23.0400 7.6634 -0.4929
23.0600 7.6701 -0.4891
23.0800 7.6768 -0.4941
23.1000 7.6835 -0.4919
23.1200 7.6902 -0.4908
23.1400 7.6968 -0.4946
23.1600 7.7034 -0.4914
23.1800 7.7100 -0.4955
23.2000 7.7167 -0.4930
23.2200 7.7234 -0.4924
23.2400 7.7301 -0.4960
23.2600 7.7368 -0.4918
23.2800 7.7435 -0.4933
23.3000 7.7501 -0.4939
23.3200 7.7568 -0.4942
23.3400 7.7633 -0.4948
23.3600 7.7700 -0.4963
23.3800 7.7767 -0.4897
23.4000 7.7834 -0.5007
23.4200 7.7901 -0.4997
23.4400 7.7967 -0.4894
23.4600 7.8034 -0.5011
23.4800 7.8101 -0.4968
23.5000 7.8168 -0.4967
23.5200 7.8234 -0.4979
23.5400 7.8300 -0.4906
23.5600 7.8367 -0.4977
23.5800 7.8434 -0.4936
23.6000 7.8501 -0.4954
23.6200 7.8568 -0.4984
23.6400 7.8635 -0.4993
23.6600 7.8702 -0.4972
23.6800 7.8768 -0.5002
23.7000 7.8834 -0.4982
23.7200 7.8900 -0.4988
23.7400 7.8967 -0.4956
23.7600 7.9034 -0.5002
23.7800 7.9102 -0.4981
23.8000 7.9168 -0.4962
23.8200 7.9235 -0.4959
23.8400 7.9302 -0.5023
23.8600 7.9368 -0.5052
23.8800 7.9434 -0.4970
23.9000 7.9500 -0.4973
23.9200 7.9567 -0.4973
23.9400 7.9634 -0.4959
23.9600 7.9701 -0.5018
23.9800 7.9768 -0.5009
24.0000 7.9834 -0.4946
24.0200 7.9901 -0.5071
24.0400 7.9968 -0.4984
24.0600 8.0034 -0.4952
24.0800 8.0100 -0.5050
24.1000 8.0167 -0.4966
24.1200 8.0234 -0.4963
24.1400 8.0301 -0.5043
24.1600 8.0367 -0.4990
24.1800 8.0434 -0.4930
24.2000 8.0501 -0.5035
24.2200 8.0568 -0.5040
24.2400 8.0634 -0.4954
24.2600 8.0700 -0.5042
24.2800 8.0767 -0.4999
24.3000 8.0834 -0.4957
24.3200 8.0901 -0.5041
24.3400 8.0968 -0.5045
24.3600 8.1035 -0.4969
24.3800 8.1102 -0.5058
24.4000 8.1168 -0.5002
24.4200 8.1234 -0.4963
24.4400 8.1300 -0.5045
24.4600 8.1367 -0.5006
24.4800 8.1434 -0.4989
24.5000 8.1502 -0.5072
24.5200 8.1568 -0.4978
24.5400 8.1635 -0.5014
24.5600 8.1702 -0.5090
24.5800 8.1768 -0.4989
24.6000 8.1834 -0.5022
24.6200 8.1900 -0.5055
24.6400 8.1967 -0.4957
24.6600 8.2034 -0.5075
24.6800 8.2101 -0.5052
24.7000 8.2168 -0.4965
24.7200 8.2234 -0.5071
24.7400 8.2301 -0.5049
24.7600 8.2368 -0.4992
24.7800 8.2434 -0.5061
24.8000 8.2500 -0.5049
24.8200 8.2567 -0.5013
24.8400 8.2634 -0.5066
24.8600 8.2701 -0.5048
24.8800 8.2768 -0.5067
24.9000 8.2834 -0.5002
24.9200 8.2901 -0.5053
24.9400 8.2968 -0.5066
24.9600 8.3034 -0.4988
24.9800 8.3100 -0.5055
25.0000 8.3167 -0.5088
25.0200 8.3234 -0.4969
25.0400 8.3301 -0.5103
25.0600 8.3368 -0.5057
25.0800 8.3435 -0.4974
25.1000 8.3502 -0.5099
25.1200 8.3568 -0.5098
25.1400 8.3634 -0.4966
25.1600 8.3700 -0.5089
25.1800 8.3767 -0.5107
25.2000 8.3834 -0.4977
25.2200 8.3901 -0.5095
25.2400 8.3968 -0.5074
25.2600 8.4035 -0.4970
25.2800 8.4102 -0.5184
25.3000 8.4168 -0.5040
25.3200 8.4234 -0.4990
25.3400 8.4300 -0.5156
25.3600 8.4367 -0.5067
25.3800 8.4434 -0.4982
25.4000 8.4501 -0.5146
25.4200 8.4568 -0.5106
25.4400 8.4635 -0.4986
25.4600 8.4701 -0.5151
25.4800 8.4768 -0.5132
25.5000 8.4834 -0.5016
25.5200 8.4900 -0.5124
25.5400 8.4967 -0.5092
25.5600 8.5034 -0.4961
25.5800 8.5101 -0.5152
25.6000 8.5167 -0.5107
25.6200 8.5234 -0.4988
25.6400 8.5301 -0.5181
25.6600 8.5368 -0.5101
25.6800 8.5434 -0.4987
25.7000 8.5500 -0.5200
25.7200 8.5567 -0.5097
25.7400 8.5634 -0.5013
25.7600 8.5701 -0.5215
25.7800 8.5768 -0.5087
25.8000 8.5835 -0.4995
25.8200 8.5902 -0.5237
25.8400 8.5969 -0.5070
25.8600 8.6034 -0.5005
25.8800 8.6100 -0.5159
25.9000 8.6167 -0.5113
25.9200 8.6234 -0.5035
25.9400 8.6301 -0.5201
25.9600 8.6368 -0.5105
25.9800 8.6435 -0.5055
26.0000 8.6502 -0.5150
26.0200 8.6568 -0.5103
26.0400 8.6634 -0.5091
26.0600 8.6700 -0.5123
26.0800 8.6767 -0.5128
26.1000 8.6834 -0.5083
26.1200 8.6901 -0.5155
26.1400 8.6968 -0.5133
26.1600 8.7034 -0.5102
26.1800 8.7101 -0.5125
26.2000 8.7168 -0.5150
26.2200 8.7234 -0.5087
26.2400 8.7300 -0.5119
26.2600 8.7366 -0.5128
26.2800 8.7433 -0.5105
26.3000 8.7500 -0.5145
26.3200 8.7567 -0.5126
26.3400 8.7634 -0.5075
26.3600 8.7701 -0.5151
26.3800 8.7768 -0.5142
26.4000 8.7834 -0.5103
26.4200 8.7900 -0.5161
26.4400 8.7967 -0.5136
26.4600 8.8034 -0.5059
26.4800 8.8101 -0.5195
26.5000 8.8168 -0.5171
26.5200 8.8235 -0.5074
26.5400 8.8302 -0.5176
26.5600 8.8368 -0.5171
26.5800 8.8435 -0.5062
26.6000 8.8501 -0.5204
26.6200 8.8567 -0.5126
26.6400 8.8634 -0.5074
26.6600 8.8701 -0.5184
26.6800 8.8768 -0.5127
26.7000 8.8835 -0.5098
26.7200 8.8902 -0.5206
26.7400 8.8969 -0.5147
26.7600 8.9035 -0.5109
26.7800 8.9100 -0.5186
26.8000 8.9167 -0.5147
26.8200 8.9234 -0.5052
26.8400 8.9301 -0.5193
26.8600 8.9368 -0.5176
26.8800 8.9435 -0.5065
26.9000 8.9501 -0.5179
26.9200 8.9568 -0.5182
26.9400 8.9634 -0.5128
26.9600 8.9700 -0.5141
26.9800 8.9767 -0.5148
27.0000 8.9834 -0.5124
27.0200 8.9901 -0.5173
27.0400 8.9968 -0.5135
27.0600 9.0034 -0.5110
27.0800 9.0101 -0.5187
27.1000 9.0168 -0.5169
27.1200 9.0234 -0.5115
27.1400 9.0300 -0.5194
27.1600 9.0367 -0.5148
27.1800 9.0434 -0.5156
27.2000 9.0501 -0.5147
27.2200 9.0568 -0.5168
27.2400 9.0635 -0.5209
27.2600 9.0702 -0.5183
27.2800 9.0769 -0.5158
27.3000 9.0835 -0.5212
27.3200 9.0901 -0.5162
27.3400 9.0967 -0.5188
27.3600 9.1034 -0.5179
27.3800 9.1101 -0.5161
27.4000 9.1168 -0.5174
27.4200 9.1235 -0.5173
27.4400 9.1302 -0.5126
27.4600 9.1368 -0.5190
27.4800 9.1434 -0.5213
27.5000 9.1501 -0.5095
27.5200 9.1567 -0.5168
27.5400 9.1634 -0.5245
27.5600 9.1701 -0.5174
27.5800 9.1768 -0.5180
27.6000 9.1835 -0.5192
27.6200 9.1901 -0.5157
27.6400 9.1968 -0.5177
27.6600 9.2034 -0.5233
27.6800 9.2100 -0.5144
27.7000 9.2166 -0.5177
27.7200 9.2233 -0.5217
27.7400 9.2300 -0.5106
27.7600 9.2367 -0.5208
27.7800 9.2434 -0.5227
27.8000 9.2501 -0.5117
27.8200 9.2568 -0.5214
27.8400 9.2634 -0.5221
27.8600 9.2700 -0.5097
27.8800 9.2767 -0.5244
27.9000 9.2834 -0.5166
27.9200 9.2901 -0.5122
27.9400 9.2968 -0.5249
27.9600 9.3035 -0.5181
27.9800 9.3102 -0.5140
28.0000 9.3169 -0.5259
28.0200 9.3235 -0.5154
28.0400 9.3300 -0.5171
28.0600 9.3367 -0.5193
28.0800 9.3434 -0.5182
28.1000 9.3501 -0.5221
28.1200 9.3568 -0.5202
28.1400 9.3635 -0.5153
28.1600 9.3701 -0.5196
28.1800 9.3768 -0.5183
28.2000 9.3834 -0.5235
28.2200 9.3900 -0.5183
28.2400 9.3967 -0.5138
28.2600 9.4033 -0.5227
28.2800 9.4100 -0.5230
28.3000 9.4168 -0.5150
28.3200 9.4234 -0.5237
28.3400 9.4301 -0.5211
28.3600 9.4368 -0.5121
28.3800 9.4435 -0.5303
28.4000 9.4500 -0.5178
28.4200 9.4567 -0.5143
28.4400 9.4633 -0.5278
28.4600 9.4701 -0.5175
28.4800 9.4768 -0.5130
28.5000 9.4835 -0.5309
28.5200 9.4901 -0.5156
28.5400 9.4968 -0.5155
28.5600 9.5034 -0.5276
28.5800 9.5100 -0.5165
28.6000 9.5167 -0.5099
28.6200 9.5234 -0.5313
28.6400 9.5301 -0.5126
28.6600 9.5368 -0.5139
28.6800 9.5435 -0.5304
28.7000 9.5502 -0.5084
28.7200 9.5568 -0.5200
28.7400 9.5635 -0.5359
28.7600 9.5701 -0.5066
28.7800 9.5767 -0.5217
28.8000 9.5834 -0.5306
28.8200 9.5901 -0.5038
28.8400 9.5968 -0.5227
28.8600 9.6035 -0.5346
28.8800 9.6102 -0.5037
28.9000 9.6169 -0.5266
28.9200 9.6235 -0.5309
28.9400 9.6301 -0.5031
28.9600 9.6367 -0.5289
28.9800 9.6434 -0.5246
29.0000 9.6501 -0.5085
29.0200 9.6568 -0.5275
29.0400 9.6634 -0.5176
29.0600 9.6701 -0.5099
29.0800 9.6768 -0.5332
29.1000 9.6835 -0.5169
29.1200 9.6901 -0.5136
29.1400 9.6967 -0.5285
29.1600 9.7033 -0.5149
29.1800 9.7101 -0.5174
29.2000 9.7168 -0.5286
29.2200 9.7234 -0.5138
29.2400 9.7301 -0.5224
29.2600 9.7368 -0.5212
29.2800 9.7435 -0.5188
29.3000 9.7501 -0.5250
29.3200 9.7567 -0.5210
29.3400 9.7634 -0.5172
29.3600 9.7701 -0.5270
29.3800 9.7768 -0.5163
29.4000 9.7835 -0.5236
29.4200 9.7902 -0.5251
29.4400 9.7969 -0.5167
29.4600 9.8035 -0.5292
29.4800 9.8101 -0.5259
29.5000 9.8167 -0.5089
29.5200 9.8234 -0.5269
29.5400 9.8301 -0.5223
29.5600 9.8368 -0.5133
29.5800 9.8435 -0.5315
29.6000 9.8502 -0.5204
29.6200 9.8568 -0.5145
29.6400 9.8635 -0.5358
29.6600 9.8701 -0.5157
29.6800 9.8767 -0.5164
29.7000 9.8834 -0.5376
29.7200 9.8901 -0.5117
29.7400 9.8968 -0.5203
29.7600 9.9034 -0.5360
29.7800 9.9101 -0.5152
29.8000 9.9168 -0.5245
29.8200 9.9235 -0.5319
29.8400 9.9300 -0.5125
29.8600 9.9366 -0.5257
29.8800 9.9433 -0.5248
29.9000 9.9500 -0.5205
29.9200 9.9567 -0.5263
29.9400 9.9634 -0.5255
29.9600 9.9701 -0.5208
29.9800 9.9768 -0.5287
30.0000 9.9834 -0.5238
30.0200 9.9900 -0.5274
30.0400 9.9967 -0.5263
30.0600 10.0034 -0.5210
30.0800 10.0101 -0.5304
30.1000 10.0168 -0.5273
30.1200 10.0235 -0.5177
30.1400 10.0302 -0.5328
30.1600 10.0368 -0.5263
30.1800 10.0435 -0.5198
30.2000 10.0501 -0.5298
30.2200 10.0567 -0.5181
30.2400 10.0634 -0.5235
30.2600 10.0701 -0.5356
30.2800 10.0768 -0.5163
30.3000 10.0835 -0.5276
30.3200 10.0902 -0.5354
30.3400 10.0968 -0.5164
30.3600 10.1035 -0.5272
30.3800 10.1101 -0.5320
30.4000 10.1167 -0.5147
30.4200 10.1233 -0.5311
30.4400 10.1300 -0.5249
30.4600 10.1368 -0.5179
30.4800 10.1434 -0.5374
30.5000 10.1501 -0.5222
30.5200 10.1568 -0.5219
30.5400 10.1634 -0.5351
30.5600 10.1700 -0.5211
30.5800 10.1767 -0.5230
30.6000 10.1833 -0.5350
30.6200 10.1900 -0.5206
30.6400 10.1968 -0.5317
30.6600 10.2034 -0.5266
30.6800 10.2101 -0.5220
30.7000 10.2168 -0.5317
30.7200 10.2235 -0.5266
30.7400 10.2301 -0.5217
30.7600 10.2367 -0.5335
30.7800 10.2434 -0.5212
30.8000 10.2501 -0.5276
30.8200 10.2568 -0.5333
30.8400 10.2635 -0.5232
30.8600 10.2702 -0.5291
30.8800 10.2768 -0.5328
30.9000 10.2835 -0.5245
30.9200 10.2901 -0.5309
30.9400 10.2967 -0.5271
30.9600 10.3034 -0.5224
30.9800 10.3101 -0.5334
31.0000 10.3168 -0.5284
31.0200 10.3235 -0.5232
31.0400 10.3301 -0.5378
31.0600 10.3368 -0.5286
31.0800 10.3435 -0.5237
31.1000 10.3501 -0.5367
31.1200 10.3567 -0.5259
31.1400 10.3633 -0.5239
31.1600 10.3700 -0.5380
31.1800 10.3768 -0.5299
31.2000 10.3834 -0.5252
31.2200 10.3901 -0.5405
31.2400 10.3968 -0.5251
31.2600 10.4035 -0.5276
31.2800 10.4101 -0.5407
31.3000 10.4167 -0.5286
31.3200 10.4233 -0.5219
31.3400 10.4300 -0.5387
31.3600 10.4367 -0.5321
31.3800 10.4434 -0.5271
31.4000 10.4501 -0.5342
31.4200 10.4568 -0.5290
31.4400 10.4635 -0.5296
31.4600 10.4701 -0.5375
31.4800 10.4767 -0.5274
31.5000 10.4834 -0.5312
31.5200 10.4900 -0.5414
31.5400 10.4968 -0.5285
31.5600 10.5035 -0.5282
31.5800 10.5102 -0.5430
31.6000 10.5168 -0.5313
31.6200 10.5235 -0.5314
31.6400 10.5301 -0.5361
31.6600 10.5367 -0.5310
31.6800 10.5434 -0.5353
31.7000 10.5501 -0.5342
31.7200 10.5568 -0.5342
31.7400 10.5635 -0.5347
31.7600 10.5702 -0.5338
31.7800 10.5768 -0.5350
31.8000 10.5835 -0.5350
31.8200 10.5901 -0.5330
31.8400 10.5967 -0.5365
31.8600 10.6033 -0.5297
31.8800 10.6100 -0.5397
31.9000 10.6167 -0.5397
31.9200 10.6235 -0.5347
31.9400 10.6301 -0.5366
31.9600 10.6368 -0.5412
31.9800 10.6435 -0.5313
32.0000 10.6501 -0.5422
32.0200 10.6567 -0.5384
32.0400 10.6633 -0.5322
32.0600 10.6700 -0.5403
32.0800 10.6767 -0.5387
32.1000 10.6834 -0.5309
32.1200 10.6901 -0.5465
32.1400 10.6968 -0.5348
32.1600 10.7035 -0.5287
32.1800 10.7101 -0.5445
32.2000 10.7167 -0.5365
32.2200 10.7234 -0.5296
32.2400 10.7301 -0.5474
32.2600 10.7368 -0.5357
32.2800 10.7435 -0.5338
32.3000 10.7502 -0.5429
32.3200 10.7568 -0.5354
32.3400 10.7635 -0.5331
32.3600 10.7702 -0.5460
32.3800 10.7767 -0.5318
32.4000 10.7834 -0.5304
32.4200 10.7900 -0.5471
32.4400 10.7967 -0.5334
32.4600 10.8034 -0.5369
32.4800 10.8101 -0.5393
32.5000 10.8168 -0.5363
32.5200 10.8235 -0.5384
32.5400 10.8301 -0.5472
32.5600 10.8367 -0.5360
32.5800 10.8433 -0.5354
32.6000 10.8500 -0.5439
32.6200 10.8568 -0.5359
32.6400 10.8635 -0.5363
32.6600 10.8701 -0.5421
32.6800 10.8768 -0.5365
32.7000 10.8835 -0.5405
32.7200 10.8901 -0.5370
32.7400 10.8967 -0.5397
32.7600 10.9033 -0.5371
32.7800 10.9100 -0.5389
32.8000 10.9167 -0.5393
32.8200 10.9234 -0.5385
32.8400 10.9301 -0.5409
32.8600 10.9368 -0.5399
32.8800 10.9435 -0.5371
32.9000 10.9501 -0.5447
32.9200 10.9567 -0.5399
32.9400 10.9634 -0.5386
32.9600 10.9700 -0.5405
32.9800 10.9767 -0.5444
33.0000 10.9834 -0.5408
33.0200 10.9901 -0.5423
33.0400 10.9968 -0.5416
33.0600 11.0035 -0.5360
33.0800 11.0101 -0.5464
33.1000 11.0167 -0.5381
33.1200 11.0233 -0.5395
33.1400 11.0300 -0.5446
33.1600 11.0368 -0.5389
33.1800 11.0435 -0.5419
33.2000 11.0502 -0.5430
33.2200 11.0568 -0.5405
33.2400 11.0635 -0.5452
33.2600 11.0701 -0.5438
33.2800 11.0767 -0.5406
33.3000 11.0833 -0.5432
33.3200 11.0900 -0.5437
33.3400 11.0967 -0.5384
33.3600 11.1034 -0.5439
33.3800 11.1101 -0.5428
33.4000 11.1168 -0.5397
33.4200 11.1235 -0.5428
33.4400 11.1301 -0.5438
33.4600 11.1367 -0.5448
33.4800 11.1433 -0.5417
33.5000 11.1500 -0.5418
33.5200 11.1567 -0.5439
33.5400 11.1634 -0.5421
33.5600 11.1701 -0.5437
33.5800 11.1768 -0.5398
33.6000 11.1835 -0.5447
33.6200 11.1901 -0.5429
33.6400 11.1967 -0.5466
33.6600 11.2033 -0.5391
33.6800 11.2100 -0.5417
33.7000 11.2168 -0.5494
33.7200 11.2235 -0.5397
33.7400 11.2302 -0.5438
33.7600 11.2369 -0.5509
33.7800 11.2435 -0.5413
33.8000 11.2501 -0.5418
33.8200 11.2568 -0.5500
33.8400 11.2634 -0.5346
33.8600 11.2700 -0.5458
33.8800 11.2767 -0.5500
33.9000 11.2834 -0.5373
33.9200 11.2901 -0.5495
33.9400 11.2968 -0.5473
33.9600 11.3035 -0.5350
33.9800 11.3102 -0.5499
34.0000 11.3168 -0.5446
34.0200 11.3234 -0.5355
34.0400 11.3300 -0.5493
34.0600 11.3367 -0.5451
34.0800 11.3434 -0.5385
34.1000 11.3501 -0.5518
34.1200 11.3568 -0.5398
34.1400 11.3635 -0.5426
34.1600 11.3702 -0.5535
34.1800 11.3767 -0.5437
34.2000 11.3833 -0.5385
34.2200 11.3900 -0.5495
34.2400 11.3967 -0.5405
34.2600 11.4034 -0.5459
34.2800 11.4101 -0.5511
34.3000 11.4168 -0.5419
34.3200 11.4234 -0.5460
34.3400 11.4301 -0.5481
34.3600 11.4367 -0.5420
34.3800 11.4434 -0.5510
34.4000 11.4500 -0.5495
34.4200 11.4567 -0.5397
34.4400 11.4634 -0.5503
34.4600 11.4701 -0.5447
34.4800 11.4768 -0.5395
34.5000 11.4835 -0.5586
34.5200 11.4902 -0.5438
34.5400 11.4968 -0.5381
34.5600 11.5034 -0.5572
34.5800 11.5100 -0.5405
34.6000 11.5167 -0.5439
34.6200 11.5235 -0.5569
34.6400 11.5302 -0.5383
34.6600 11.5368 -0.5474
34.6800 11.5435 -0.5546
34.7000 11.5501 -0.5371
34.7200 11.5567 -0.5511
34.7400 11.5633 -0.5493
34.7600 11.5700 -0.5428
34.7800 11.5767 -0.5451
34.8000 11.5834 -0.5514
34.8200 11.5901 -0.5428
34.8400 11.5967 -0.5495
34.8600 11.6034 -0.5483
34.8800 11.6101 -0.5417
34.9000 11.6167 -0.5485
34.9200 11.6233 -0.5465
34.9400 11.6300 -0.5415
34.9600 11.6367 -0.5490
34.9800 11.6434 -0.5532
35.0000 11.6501 -0.5414
35.0200 11.6568 -0.5467
35.0400 11.6635 -0.5573
35.0600 11.6702 -0.5433
35.0800 11.6768 -0.5473
35.1000 11.6834 -0.5553
35.1200 11.6900 -0.5432
35.1400 11.6967 -0.5478
35.1600 11.7035 -0.5579
35.1800 11.7101 -0.5435
35.2000 11.7168 -0.5431
35.2200 11.7235 -0.5584
35.2400 11.7301 -0.5441
35.2600 11.7367 -0.5430
35.2800 11.7434 -0.5558
35.3000 11.7500 -0.5456
35.3200 11.7567 -0.5416
35.3400 11.7634 -0.5549
35.3600 11.7701 -0.5449
35.3800 11.7768 -0.5462
35.4000 11.7835 -0.5572
35.4200 11.7902 -0.5411
35.4400 11.7968 -0.5441
35.4600 11.8034 -0.5613
35.4800 11.8101 -0.5402
35.5000 11.8167 -0.5479
35.5200 11.8234 -0.5592
35.5400 11.8301 -0.5354
35.5600 11.8368 -0.5441
35.5800 11.8435 -0.5607
35.6000 11.8502 -0.5383
35.6200 11.8568 -0.5496
35.6400 11.8634 -0.5560
35.6600 11.8700 -0.5390
35.6800 11.8767 -0.5505
35.7000 11.8834 -0.5598
35.7200 11.8901 -0.5401
35.7400 11.8968 -0.5539
35.7600 11.9035 -0.5595
35.7800 11.9101 -0.5376
35.8000 11.9167 -0.5547
35.8200 11.9234 -0.5553
35.8400 11.9300 -0.5383
35.8600 11.9367 -0.5543
35.8800 11.9434 -0.5543
35.9000 11.9501 -0.5404
35.9200 11.9568 -0.5525
35.9400 11.9635 -0.5562
35.9600 11.9702 -0.5462
35.9800 11.9768 -0.5502
36.0000 11.9834 -0.5565
36.0200 11.9900 -0.5474
36.0400 11.9967 -0.5505
36.0600 12.0034 -0.5485
36.0800 12.0101 -0.5468
36.1000 12.0168 -0.5524
36.1200 12.0235 -0.5513
36.1400 12.0302 -0.5513
36.1600 12.0368 -0.5495
36.1800 12.0433 -0.5553
36.2000 12.0500 -0.5467
36.2200 12.0567 -0.5457
36.2400 12.0634 -0.5628
36.2600 12.0702 -0.5479
36.2800 12.0768 -0.5469
36.3000 12.0835 -0.5555
36.3200 12.0901 -0.5525
36.3400 12.0968 -0.5520
36.3600 12.1034 -0.5577
36.3800 12.1100 -0.5516
36.4000 12.1167 -0.5510
36.4200 12.1234 -0.5581
36.4400 12.1301 -0.5528
36.4600 12.1367 -0.5503
36.4800 12.1434 -0.5570
36.5000 12.1501 -0.5543
36.5200 12.1568 -0.5521
36.5400 12.1634 -0.5571
36.5600 12.1700 -0.5551
36.5800 12.1767 -0.5510
36.6000 12.1834 -0.5563
36.6200 12.1901 -0.5547
36.6400 12.1968 -0.5536
36.6600 12.2035 -0.5559
36.6800 12.2102 -0.5540
36.7000 12.2168 -0.5566
36.7200 12.2234 -0.5539
36.7400 12.2300 -0.5555
36.7600 12.2367 -0.5578
36.7800 12.2435 -0.5590
36.8000 12.2502 -0.5594
36.8200 12.2568 -0.5570
36.8400 12.2635 -0.5530
36.8600 12.2701 -0.5618
36.8800 12.2767 -0.5526
36.9000 12.2834 -0.5584
36.9200 12.2900 -0.5596
36.9400 12.2967 -0.5546
36.9600 12.3034 -0.5559
36.9800 12.3101 -0.5621
37.0000 12.3168 -0.5515
37.0200 12.3234 -0.5565
37.0400 12.3301 -0.5597
37.0600 12.3368 -0.5524
37.0800 12.3434 -0.5586
37.1000 12.3500 -0.5595
37.1200 12.3567 -0.5516
37.1400 12.3634 -0.5642
37.1600 12.3701 -0.5602
37.1800 12.3768 -0.5510
37.2000 12.3835 -0.5626
37.2200 12.3902 -0.5592
37.2400 12.3968 -0.5566
37.2600 12.4034 -0.5622
37.2800 12.4100 -0.5516
37.3000 12.4167 -0.5509
37.3200 12.4234 -0.5661
37.3400 12.4301 -0.5580
37.3600 12.4368 -0.5522
37.3800 12.4435 -0.5655
37.4000 12.4502 -0.5562
37.4200 12.4568 -0.5560
37.4400 12.4634 -0.5677
37.4600 12.4701 -0.5472
37.4800 12.4767 -0.5568
37.5000 12.4834 -0.5640
37.5200 12.4901 -0.5533
37.5400 12.4968 -0.5572
37.5600 12.5035 -0.5640
37.5800 12.5102 -0.5531
37.6000 12.5168 -0.5554
37.6200 12.5234 -0.5638
37.6400 12.5300 -0.5517
37.6600 12.5367 -0.5570
37.6800 12.5434 -0.5622
37.7000 12.5501 -0.5536
37.7200 12.5568 -0.5636
37.7400 12.5635 -0.5600
37.7600 12.5701 -0.5593
37.7800 12.5768 -0.5625
37.8000 12.5833 -0.5605
37.8200 12.5899 -0.5550
37.8400 12.5966 -0.5602
37.8600 12.6033 -0.5611
37.8800 12.6101 -0.5592
37.9000 12.6168 -0.5592
37.9200 12.6234 -0.5559
37.9400 12.6301 -0.5599
37.9600 12.6368 -0.5656
37.9800 12.6434 -0.5557
38.0000 12.6500 -0.5637
38.0200 12.6567 -0.5584
38.0400 12.6634 -0.5595
38.0600 12.6701 -0.5659
38.0800 12.6768 -0.5592
38.1000 12.6835 -0.5621
38.1200 12.6902 -0.5622
38.1400 12.6968 -0.5595
38.1600 12.7034 -0.5609
38.1800 12.7100 -0.5625
38.2000 12.7167 -0.5595
38.2200 12.7234 -0.5615
38.2400 12.7301 -0.5627
38.2600 12.7368 -0.5632
38.2800 12.7435 -0.5602
38.3000 12.7502 -0.5672
38.3200 12.7568 -0.5595
38.3400 12.7634 -0.5638
38.3600 12.7700 -0.5608
38.3800 12.7767 -0.5583
38.4000 12.7834 -0.5617
38.4200 12.7901 -0.5632
38.4400 12.7968 -0.5615
38.4600 12.8034 -0.5593
38.4800 12.8101 -0.5659
38.5000 12.8168 -0.5645
38.5200 12.8234 -0.5598
38.5400 12.8301 -0.5664
38.5600 12.8367 -0.5664
38.5800 12.8434 -0.5573
38.6000 12.8501 -0.5643
38.6200 12.8567 -0.5702
38.6400 12.8634 -0.5542
38.6600 12.8701 -0.5647
38.6800 12.8768 -0.5661
38.7000 12.8834 -0.5557
38.7200 12.8900 -0.5681
38.7400 12.8967 -0.5668
38.7600 12.9034 -0.5571
38.7800 12.9101 -0.5676
38.8000 12.9168 -0.5618
38.8200 12.9235 -0.5540
38.8400 12.9302 -0.5685
38.8600 12.9368 -0.5690
38.8800 12.9434 -0.5575
38.9000 12.9500 -0.5648
38.9200 12.9567 -0.5657
38.9400 12.9634 -0.5545
38.9600 12.9702 -0.5714
38.9800 12.9768 -0.5669
39.0000 12.9835 -0.5570
39.0200 12.9902 -0.5687
39.0400 12.9968 -0.5630
39.0600 13.0034 -0.5563
39.0800 13.0101 -0.5699
39.1000 13.0167 -0.5639
39.1200 13.0234 -0.5603
39.1400 13.0301 -0.5679
39.1600 13.0367 -0.5626
39.1800 13.0434 -0.5620
39.2000 13.0501 -0.5670
39.2200 13.0568 -0.5605
39.2400 13.0634 -0.5742
39.2600 13.0700 -0.5660
39.2800 13.0766 -0.5606
39.3000 13.0834 -0.5687
39.3200 13.0901 -0.5694
39.3400 13.0968 -0.5617
39.3600 13.1035 -0.5666
39.3800 13.1101 -0.5765
39.4000 13.1168 -0.5638
39.4200 13.1234 -0.5602
39.4400 13.1300 -0.5651
39.4600 13.1367 -0.5624
39.4800 13.1434 -0.5690
39.5000 13.1501 -0.5683
39.5200 13.1568 -0.5670
39.5400 13.1635 -0.5638
39.5600 13.1701 -0.5661
39.5800 13.1768 -0.5743
39.6000 13.1834 -0.5630
39.6200 13.1901 -0.5721
39.6400 13.1967 -0.5724
39.6600 13.2034 -0.5598
39.6800 13.2101 -0.5700
39.7000 13.2168 -0.5756
39.7200 13.2235 -0.5578
39.7400 13.2302 -0.5721
39.7600 13.2368 -0.5732
39.7800 13.2434 -0.5604
39.8000 13.2500 -0.5725
39.8200 13.2567 -0.5733
39.8400 13.2634 -0.5596
39.8600 13.2701 -0.5790
39.8800 13.2768 -0.5664
39.9000 13.2835 -0.5645
39.9200 13.2902 -0.5769
39.9400 13.2968 -0.5678
39.9600 13.3034 -0.5673
39.9800 13.3100 -0.5775
40.0000 13.3167 -0.5601
40.0200 13.3234 -0.5678
40.0400 13.3301 -0.5781
40.0600 13.3367 -0.5604
40.0800 13.3434 -0.5698
40.1000 13.3501 -0.5740
40.1200 13.3568 -0.5649
40.1400 13.3634 -0.5723
40.1600 13.3700 -0.5671
40.1800 13.3767 -0.5689
40.2000 13.3834 -0.5716
40.2200 13.3901 -0.5642
40.2400 13.3968 -0.5703
40.2600 13.4035 -0.5705
40.2800 13.4102 -0.5692
40.3000 13.4169 -0.5712
40.3200 13.4235 -0.5673
40.3400 13.4301 -0.5688
40.3600 13.4367 -0.5755
40.3800 13.4434 -0.5611
40.4000 13.4501 -0.5681
40.4200 13.4568 -0.5777
40.4400 13.4635 -0.5601
40.4600 13.4702 -0.5671
40.4800 13.4768 -0.5773
40.5000 13.4834 -0.5572
40.5200 13.4900 -0.5727
40.5400 13.4967 -0.5682
40.5600 13.5034 -0.5597
40.5800 13.5101 -0.5770
40.6000 13.5168 -0.5735
40.6200 13.5234 -0.5583
40.6400 13.5301 -0.5721
40.6600 13.5368 -0.5757
40.6800 13.5434 -0.5620
40.7000 13.5500 -0.5705
40.7200 13.5567 -0.5715
40.7400 13.5633 -0.5653
40.7600 13.5700 -0.5720
40.7800 13.5767 -0.5686
40.8000 13.5834 -0.5692
40.8200 13.5901 -0.5732
40.8400 13.5968 -0.5706
40.8600 13.6034 -0.5728
40.8800 13.6100 -0.5679
40.9000 13.6167 -0.5742
40.9200 13.6234 -0.5738
40.9400 13.6301 -0.5650
40.9600 13.6368 -0.5743
40.9800 13.6435 -0.5757
41.0000 13.6502 -0.5652
41.0200 13.6568 -0.5783
41.0400 13.6634 -0.5739
41.0600 13.6700 -0.5606
41.0800 13.6767 -0.5779
41.1000 13.6834 -0.5771
41.1200 13.6901 -0.5660
41.1400 13.6968 -0.5799
41.1600 13.7035 -0.5719
41.1800 13.7102 -0.5666
41.2000 13.7169 -0.5844
41.2200 13.7235 -0.5746
41.2400 13.7301 -0.5737
41.2600 13.7367 -0.5798
41.2800 13.7434 -0.5680
41.3000 13.7501 -0.5762
41.3200 13.7568 -0.5805
41.3400 13.7634 -0.5744
41.3600 13.7701 -0.5773
41.3800 13.7768 -0.5797
41.4000 13.7834 -0.5705
41.4200 13.7900 -0.5788
41.4400 13.7967 -0.5760
41.4600 13.8033 -0.5734
41.4800 13.8101 -0.5834
41.5000 13.8167 -0.5772
41.5200 13.8234 -0.5762
41.5400 13.8301 -0.5810
41.5600 13.8368 -0.5732
41.5800 13.8434 -0.5797
41.6000 13.8501 -0.5798
41.6200 13.8567 -0.5724
41.6400 13.8634 -0.5820
41.6600 13.8701 -0.5804
41.6800 13.8768 -0.5745
41.7000 13.8834 -0.5817
41.7200 13.8902 -0.5767
41.7400 13.8968 -0.5725
41.7600 13.9035 -0.5894
41.7800 13.9101 -0.5804
41.8000 13.9167 -0.5726
41.8200 13.9234 -0.5863
41.8400 13.9301 -0.5827
41.8600 13.9368 -0.5764
41.8800 13.9434 -0.5849
41.9000 13.9502 -0.5759
41.9200 13.9569 -0.5848
41.9400 13.9635 -0.5850
41.9600 13.9701 -0.5761
41.9800 13.9767 -0.5832
42.0000 13.9834 -0.5873
42.0200 13.9901 -0.5775
42.0400 13.9968 -0.5831
42.0600 14.0034 -0.5888
42.0800 14.0101 -0.5775
42.1000 14.0168 -0.5847
42.1200 14.0235 -0.5873
42.1400 14.0301 -0.5787
42.1600 14.0367 -0.5852
42.1800 14.0433 -0.5828
42.2000 14.0500 -0.5818
42.2200 14.0567 -0.5902
42.2400 14.0634 -0.5838
42.2600 14.0701 -0.5778
42.2800 14.0768 -0.5892
42.3000 14.0835 -0.5840
42.3200 14.0901 -0.5811
42.3400 14.0967 -0.5924
42.3600 14.1034 -0.5798
42.3800 14.1101 -0.5813
42.4000 14.1168 -0.5834
42.4200 14.1235 -0.5889
42.4400 14.1302 -0.5845
42.4600 14.1369 -0.5842
42.4800 14.1435 -0.5902
42.5000 14.1501 -0.5851
42.5200 14.1567 -0.5808
42.5400 14.1634 -0.5918
42.5600 14.1701 -0.5833
42.5800 14.1768 -0.5816
42.6000 14.1835 -0.5924
42.6200 14.1901 -0.5839
42.6400 14.1968 -0.5803
42.6600 14.2034 -0.5959
42.6800 14.2100 -0.5810
42.7000 14.2167 -0.5807
42.7200 14.2233 -0.5935
42.7400 14.2301 -0.5805
42.7600 14.2368 -0.5819
42.7800 14.2435 -0.5953
42.8000 14.2501 -0.5751
42.8200 14.2568 -0.5873
42.8400 14.2635 -0.5937
42.8600 14.2701 -0.5783
42.8800 14.2767 -0.5869
42.9000 14.2833 -0.5883
42.9200 14.2900 -0.5758
42.9400 14.2968 -0.5859
42.9600 14.3034 -0.5924
42.9800 14.3101 -0.5803
43.0000 14.3168 -0.5858
43.0200 14.3234 -0.5906
43.0400 14.3301 -0.5816
43.0600 14.3367 -0.5836
43.0800 14.3434 -0.5911
43.1000 14.3501 -0.5832
43.1200 14.3568 -0.5891
43.1400 14.3635 -0.5894
43.1600 14.3701 -0.5826
43.1800 14.3768 -0.5849
43.2000 14.3835 -0.5887
43.2200 14.3901 -0.5832
43.2400 14.3967 -0.5842
43.2600 14.4034 -0.5894
43.2800 14.4101 -0.5843
43.3000 14.4168 -0.5827
43.3200 14.4235 -0.5911
43.3400 14.4302 -0.5828
43.3600 14.4369 -0.5834
43.3800 14.4435 -0.5897
43.4000 14.4501 -0.5871
43.4200 14.4567 -0.5804
43.4400 14.4633 -0.5868
43.4600 14.4700 -0.5864
43.4800 14.4767 -0.5864
43.5000 14.4834 -0.5940
43.5200 14.4901 -0.5807
43.5400 14.4968 -0.5846
43.5600 14.5035 -0.5903
43.5800 14.5101 -0.5839
43.6000 14.5167 -0.5872
43.6200 14.5233 -0.5884
43.6400 14.5300 -0.5843
43.6600 14.5367 -0.5876
43.6800 14.5434 -0.5889
43.7000 14.5501 -0.5855
43.7200 14.5568 -0.5932
43.7400 14.5635 -0.5903
43.7600 14.5701 -0.5825
43.7800 14.5767 -0.5918
43.8000 14.5833 -0.5875
43.8200 14.5900 -0.5866
43.8400 14.5967 -0.5869
43.8600 14.6034 -0.5888
43.8800 14.6101 -0.5881
43.9000 14.6168 -0.5880
43.9200 14.6235 -0.5858
43.9400 14.6301 -0.5903
43.9600 14.6367 -0.5904
43.9800 14.6434 -0.5865
44.0000 14.6501 -0.5906
44.0200 14.6568 -0.5880
44.0400 14.6635 -0.5903
44.0600 14.6701 -0.5921
44.0800 14.6768 -0.5819
44.1000 14.6835 -0.5928
44.1200 14.6901 -0.5913
44.1400 14.6967 -0.5815
44.1600 14.7034 -0.5906
44.1800 14.7100 -0.5951
44.2000 14.7167 -0.5874
44.2200 14.7234 -0.5894
44.2400 14.7301 -0.5914
44.2600 14.7368 -0.5860
44.2800 14.7434 -0.5926
44.3000 14.7501 -0.5970
44.3200 14.7567 -0.5846
44.3400 14.7633 -0.5896
44.3600 14.7700 -0.5943
44.3800 14.7767 -0.5842
44.4000 14.7834 -0.5924
44.4200 14.7901 -0.5951
44.4400 14.7968 -0.5873
44.4600 14.8034 -0.5968
44.4800 14.8101 -0.5912
44.5000 14.8167 -0.5823
44.5200 14.8233 -0.5944
44.5400 14.8301 -0.5884
44.5600 14.8368 -0.5895
44.5800 14.8435 -0.5922
44.6000 14.8501 -0.5883
44.6200 14.8568 -0.5893
44.6400 14.8635 -0.5910
44.6600 14.8701 -0.5883
44.6800 14.8768 -0.5935
44.7000 14.8834 -0.5899
44.7200 14.8901 -0.5872
44.7400 14.8968 -0.5941
44.7600 14.9035 -0.5920
44.7800 14.9102 -0.5916
44.8000 14.9168 -0.5944
44.8200 14.9235 -0.5900
44.8400 14.9301 -0.5946
44.8600 14.9367 -0.5894
44.8800 14.9433 -0.5867
44.9000 14.9500 -0.5892
44.9200 14.9567 -0.5966
44.9400 14.9634 -0.5891
44.9600 14.9701 -0.5911
44.9800 14.9768 -0.5920
45.0000 14.9834 -0.5903
45.0200 14.9901 -0.5901
45.0400 14.9967 -0.5899
45.0600 15.0033 -0.5852
45.0800 15.0100 -0.5911
45.1000 15.0167 -0.5981
45.1200 15.0234 -0.5859
45.1400 15.0301 -0.5920
45.1600 15.0368 -0.5955
45.1800 15.0435 -0.5897
45.2000 15.0501 -0.5897
45.2200 15.0568 -0.5992
45.2400 15.0634 -0.5879
45.2600 15.0701 -0.5890
45.2800 15.0767 -0.5968
45.3000 15.0834 -0.5878
45.3200 15.0901 -0.5935
45.3400 15.0968 -0.5953
45.3600 15.1035 -0.5862
45.3800 15.1102 -0.5973
45.4000 15.1167 -0.5977
45.4200 15.1233 -0.5897
45.4400 15.1300 -0.5931
45.4600 15.1368 -0.5951
45.4800 15.1435 -0.5874
45.5000 15.1502 -0.6000
45.5200 15.1568 -0.5950
45.5400 15.1635 -0.5868
45.5600 15.1701 -0.6044
45.5800 15.1767 -0.5934
45.6000 15.1833 -0.5808
45.6200 15.1901 -0.6069
45.6400 15.1968 -0.5977
45.6600 15.2035 -0.5863
45.6800 15.2101 -0.6055
45.7000 15.2168 -0.5939
45.7200 15.2235 -0.5834
45.7400 15.2301 -0.6080
45.7600 15.2367 -0.5894
45.7800 15.2433 -0.5898
45.8000 15.2500 -0.6058
45.8200 15.2567 -0.5866
45.8400 15.2634 -0.5923
45.8600 15.2701 -0.6036
45.8800 15.2768 -0.5890
45.9000 15.2835 -0.5988
45.9200 15.2901 -0.6051
45.9400 15.2967 -0.5868
45.9600 15.3034 -0.5905
45.9800 15.3100 -0.6026
46.0000 15.3168 -0.5919
46.0200 15.3235 -0.5966
46.0400 15.3302 -0.5991
46.0600 15.3368 -0.5904
46.0800 15.3435 -0.5988
46.1000 15.3501 -0.5987
46.1200 15.3567 -0.5957
46.1400 15.3634 -0.5969
46.1600 15.3701 -0.5988
46.1800 15.3768 -0.5917
46.2000 15.3835 -0.6010
46.2200 15.3902 -0.5979
46.2400 15.3968 -0.5946
46.2600 15.4035 -0.5995
46.2800 15.4101 -0.5977
46.3000 15.4167 -0.5954
46.3200 15.4234 -0.5978
46.3400 15.4300 -0.5984
46.3600 15.4367 -0.6012
46.3800 15.4434 -0.5965
46.4000 15.4501 -0.6026
46.4200 15.4568 -0.5995
46.4400 15.4635 -0.5931
46.4600 15.4701 -0.6029
46.4800 15.4767 -0.6020
46.5000 15.4833 -0.5941
46.5200 15.4900 -0.5979
46.5400 15.4967 -0.6032
46.5600 15.5034 -0.5914
46.5800 15.5101 -0.6041
46.6000 15.5168 -0.6025
46.6200 15.5235 -0.5893
46.6400 15.5301 -0.6079
46.6600 15.5367 -0.5994
46.6800 15.5433 -0.5914
46.7000 15.5500 -0.6054
46.7200 15.5567 -0.5977
46.7400 15.5634 -0.5921
46.7600 15.5701 -0.6035
46.7800 15.5768 -0.5976
46.8000 15.5835 -0.5965
46.8200 15.5902 -0.6037
46.8400 15.5968 -0.5984
46.8600 15.6034 -0.5982
46.8800 15.6101 -0.5985
46.9000 15.6168 -0.6001
46.9200 15.6235 -0.5988
46.9400 15.6302 -0.6008
46.9600 15.6368 -0.5978
46.9800 15.6435 -0.5951
47.0000 15.6501 -0.5989
47.0200 15.6567 -0.5993
47.0400 15.6633 -0.5945
47.0600 15.6700 -0.5999
47.0800 15.6767 -0.6005
47.1000 15.6835 -0.5972
47.1200 15.6901 -0.5980
47.1400 15.6968 -0.6018
47.1600 15.7035 -0.5983
47.1800 15.7101 -0.6016
47.2000 15.7167 -0.6061
47.2200 15.7234 -0.5931
47.2400 15.7300 -0.6020
47.2600 15.7368 -0.6062
47.2800 15.7434 -0.5937
47.3000 15.7501 -0.6015
47.3200 15.7568 -0.6015
47.3400 15.7635 -0.5936
47.3600 15.7701 -0.6055
47.3800 15.7767 -0.6006
47.4000 15.7834 -0.5956
47.4200 15.7900 -0.6034
47.4400 15.7967 -0.6047
47.4600 15.8034 -0.5937
47.4800 15.8101 -0.6031
47.5000 15.8168 -0.6022
47.5200 15.8235 -0.5900
47.5400 15.8301 -0.6092
47.5600 15.8368 -0.6005
47.5800 15.8434 -0.5914
47.6000 15.8500 -0.6104
47.6200 15.8568 -0.5949
47.6400 15.8635 -0.5993
47.6600 15.8702 -0.6085
47.6800 15.8768 -0.5979
47.7000 15.8835 -0.6007
47.7200 15.8902 -0.6091
47.7400 15.8968 -0.5925
47.7600 15.9034 -0.5996
47.7800 15.9100 -0.6098
47.8000 15.9168 -0.5910
47.8200 15.9234 -0.6057
47.8400 15.9301 -0.6093
47.8600 15.9368 -0.5950
47.8800 15.9435 -0.6042
47.9000 15.9501 -0.6024
47.9200 15.9567 -0.5970
47.9400 15.9633 -0.6042
47.9600 15.9700 -0.5999
47.9800 15.9767 -0.5968
48.0000 15.9834 -0.6080
48.0200 15.9901 -0.5965
48.0400 15.9968 -0.5988
48.0600 16.0035 -0.6068
48.0800 16.0101 -0.5990
48.1000 16.0167 -0.6075
48.1200 16.0234 -0.5997
48.1400 16.0300 -0.6002
48.1600 16.0368 -0.6095
48.1800 16.0435 -0.6028
48.2000 16.0502 -0.5984
48.2200 16.0568 -0.6103
48.2400 16.0635 -0.5980
48.2600 16.0702 -0.6025
48.2800 16.0768 -0.6117
48.3000 16.0834 -0.6000
48.3200 16.0900 -0.6020
48.3400 16.0968 -0.6060
48.3600 16.1035 -0.5984
48.3800 16.1101 -0.6070
48.4000 16.1168 -0.6062
48.4200 16.1235 -0.6035
48.4400 16.1302 -0.6075
48.4600 16.1368 -0.6050
48.4800 16.1434 -0.5999
48.5000 16.1500 -0.6108
48.5200 16.1567 -0.6089
48.5400 16.1634 -0.6008
48.5600 16.1701 -0.6047
48.5800 16.1768 -0.6081
48.6000 16.1835 -0.6020
48.6200 16.1901 -0.6029
48.6400 16.1967 -0.6092
48.6600 16.2033 -0.6066
48.6800 16.2100 -0.5972
48.7000 16.2167 -0.6065
48.7200 16.2234 -0.6117
48.7400 16.2301 -0.6026
48.7600 16.2368 -0.6045
48.7800 16.2434 -0.6098
48.8000 16.2501 -0.6046
48.8200 16.2567 -0.6054
48.8400 16.2634 -0.6049
48.8600 16.2700 -0.5996
48.8800 16.2767 -0.6144
48.9000 16.2834 -0.6045
48.9200 16.2901 -0.5989
48.9400 16.2968 -0.6093
48.9600 16.3035 -0.6059
48.9800 16.3102 -0.6010
49.0000 16.3168 -0.6088
49.0200 16.3234 -0.6097
49.0400 16.3300 -0.6010
49.0600 16.3367 -0.6079
49.0800 16.3434 -0.6142
49.1000 16.3501 -0.6003
49.1200 16.3568 -0.6085
49.1400 16.3635 -0.6079
49.1600 16.3701 -0.6035
49.1800 16.3768 -0.6063
49.2000 16.3834 -0.6088
49.2200 16.3900 -0.6055
49.2400 16.3967 -0.6051
49.2600 16.4034 -0.6130
49.2800 16.4101 -0.6071
49.3000 16.4167 -0.6062
49.3200 16.4234 -0.6101
49.3400 16.4301 -0.6002
49.3600 16.4367 -0.6078
49.3800 16.4433 -0.6125
49.4000 16.4500 -0.6030
49.4200 16.4567 -0.6041
49.4400 16.4634 -0.6091
49.4600 16.4701 -0.6071
49.4800 16.4768 -0.6057
49.5000 16.4835 -0.6112
49.5200 16.4902 -0.6073
49.5400 16.4968 -0.6113
49.5600 16.5034 -0.6087
49.5800 16.5100 -0.6066
49.6000 16.5167 -0.6126
49.6200 16.5234 -0.6048
49.6400 16.5301 -0.6083
49.6600 16.5368 -0.6090
49.6800 16.5435 -0.6089
49.7000 16.5502 -0.6134
49.7200 16.5568 -0.6005
49.7400 16.5634 -0.6112
49.7600 16.5700 -0.6071
49.7800 16.5767 -0.6070
49.8000 16.5834 -0.6103
49.8200 16.5901 -0.6091
49.8400 16.5968 -0.6100
49.8600 16.6035 -0.6075
49.8800 16.6102 -0.6116
49.9000 16.6168 -0.6118
49.9200 16.6234 -0.6139
49.9400 16.6300 -0.6061
49.9600 16.6367 -0.6066
49.9800 16.6434 -0.6169
50.0000 16.6501 -0.6067
50.0200 16.6568 -0.6084
50.0400 16.6635 -0.6146
50.0600 16.6702 -0.6052
50.0800 16.6768 -0.6103
50.1000 16.6834 -0.6148
50.1200 16.6900 -0.6065
50.1400 16.6967 -0.6097
50.1600 16.7034 -0.6179
50.1800 16.7101 -0.6081
50.2000 16.7168 -0.6106
50.2200 16.7235 -0.6136
50.2400 16.7301 -0.6106
50.2600 16.7368 -0.6107
50.2800 16.7434 -0.6162
50.3000 16.7500 -0.6065
50.3200 16.7567 -0.6121
50.3400 16.7634 -0.6159
50.3600 16.7701 -0.6123
50.3800 16.7768 -0.6118
50.4000 16.7835 -0.6191
50.4200 16.7902 -0.6109
50.4400 16.7968 -0.6177
50.4600 16.8034 -0.6196
50.4800 16.8100 -0.6075
50.5000 16.8167 -0.6149
50.5200 16.8234 -0.6161
50.5400 16.8301 -0.6117
50.5600 16.8368 -0.6157
50.5800 16.8435 -0.6156
50.6000 16.8502 -0.6197
50.6200 16.8568 -0.6077
50.6400 16.8634 -0.6168
50.6600 16.8700 -0.6182
50.6800 16.8767 -0.6114
50.7000 16.8834 -0.6174
50.7200 16.8901 -0.6159
50.7400 16.8968 -0.6145
50.7600 16.9035 -0.6172
50.7800 16.9101 -0.6189
50.8000 16.9168 -0.6123
50.8200 16.9234 -0.6192
50.8400 16.9300 -0.6127
50.8600 16.9367 -0.6147
50.8800 16.9434 -0.6252
50.9000 16.9501 -0.6137
50.9200 16.9567 -0.6141
50.9400 16.9634 -0.6244
50.9600 16.9701 -0.6167
50.9800 16.9768 -0.6225
51.0000 16.9834 -0.6174
51.0200 16.9900 -0.6149
51.0400 16.9967 -0.6186
51.0600 17.0034 -0.6194
51.0800 17.0101 -0.6154
51.1000 17.0168 -0.6207
51.1200 17.0235 -0.6148
51.1400 17.0302 -0.6178
51.1600 17.0368 -0.6200
51.1800 17.0434 -0.6141
51.2000 17.0500 -0.6180
51.2200 17.0567 -0.6243
51.2400 17.0634 -0.6121
51.2600 17.0701 -0.6192
51.2800 17.0768 -0.6208
51.3000 17.0835 -0.6153
51.3200 17.0901 -0.6210
51.3400 17.0968 -0.6184
51.3600 17.1034 -0.6157
51.3800 17.1100 -0.6189
51.4000 17.1167 -0.6216
51.4200 17.1234 -0.6233
51.4400 17.1301 -0.6121
51.4600 17.1368 -0.6184
51.4800 17.1435 -0.6203
51.5000 17.1502 -0.6134
51.5200 17.1568 -0.6207
51.5400 17.1634 -0.6193
51.5600 17.1700 -0.6114
51.5800 17.1766 -0.6139
51.6000 17.1834 -0.6187
51.6200 17.1901 -0.6170
51.6400 17.1968 -0.6187
51.6600 17.2035 -0.6174
51.6800 17.2101 -0.6161
51.7000 17.2168 -0.6224
51.7200 17.2234 -0.6156
51.7400 17.2300 -0.6154
51.7600 17.2367 -0.6290
51.7800 17.2434 -0.6103
51.8000 17.2501 -0.6144
51.8200 17.2568 -0.6257
51.8400 17.2635 -0.6175
51.8600 17.2702 -0.6179
51.8800 17.2768 -0.6266
51.9000 17.2834 -0.6119
51.9200 17.2901 -0.6123
51.9400 17.2967 -0.6286
51.9600 17.3034 -0.6161
51.9800 17.3101 -0.6150
52.0000 17.3168 -0.6362
52.0200 17.3235 -0.6100
52.0400 17.3302 -0.6100
52.0600 17.3368 -0.6333
52.0800 17.3434 -0.6149
52.1000 17.3500 -0.6094
52.1200 17.3567 -0.6332
52.1400 17.3634 -0.6103
52.1600 17.3701 -0.6079
52.1800 17.3768 -0.6443
52.2000 17.3835 -0.6100
52.2200 17.3901 -0.6109
52.2400 17.3968 -0.6356
52.2600 17.4034 -0.6100
52.2800 17.4100 -0.6104
52.3000 17.4166 -0.6310
52.3200 17.4233 -0.6145
52.3400 17.4300 -0.6158
52.3600 17.4367 -0.6293
52.3800 17.4434 -0.6046
52.4000 17.4501 -0.6227
52.4200 17.4568 -0.6346
52.4400 17.4634 -0.6055
52.4600 17.4700 -0.6282
52.4800 17.4767 -0.6195
52.5000 17.4834 -0.6096
52.5200 17.4901 -0.6297
52.5400 17.4968 -0.6227
52.5600 17.5035 -0.6090
52.5800 17.5102 -0.6284
52.6000 17.5168 -0.6205
52.6200 17.5234 -0.6112
52.6400 17.5301 -0.6320
52.6600 17.5367 -0.6206
52.6800 17.5434 -0.6080
52.7000 17.5501 -0.6337
52.7200 17.5568 -0.6190
52.7400 17.5635 -0.6102
52.7600 17.5702 -0.6300
52.7800 17.5768 -0.6180
52.8000 17.5834 -0.6135
52.8200 17.5900 -0.6245
52.8400 17.5967 -0.6185
52.8600 17.6034 -0.6153
52.8800 17.6101 -0.6308
52.9000 17.6168 -0.6195
52.9200 17.6235 -0.6138
52.9400 17.6301 -0.6296
52.9600 17.6368 -0.6179
52.9800 17.6434 -0.6218
53.0000 17.6500 -0.6268
53.0200 17.6567 -0.6158
53.0400 17.6634 -0.6226
53.0600 17.6701 -0.6209
53.0800 17.6768 -0.6247
53.1000 17.6834 -0.6203
53.1200 17.6901 -0.6278
53.1400 17.6968 -0.6221
53.1600 17.7034 -0.6196
53.1800 17.7100 -0.6223
53.2000 17.7167 -0.6218
53.2200 17.7234 -0.6197
53.2400 17.7301 -0.6211
53.2600 17.7368 -0.6207
53.2800 17.7435 -0.6244
53.3000 17.7502 -0.6204
53.3200 17.7568 -0.6280
53.3400 17.7634 -0.6203
53.3600 17.7700 -0.6216
53.3800 17.7767 -0.6272
53.4000 17.7834 -0.6180
53.4200 17.7901 -0.6263
53.4400 17.7968 -0.6283
53.4600 17.8035 -0.6157
53.4800 17.8102 -0.6245
53.5000 17.8168 -0.6309
53.5200 17.8234 -0.6143
53.5400 17.8300 -0.6221
53.5600 17.8367 -0.6322
53.5800 17.8434 -0.6153
53.6000 17.8501 -0.6259
53.6200 17.8567 -0.6314
53.6400 17.8634 -0.6165
53.6600 17.8701 -0.6242
53.6800 17.8768 -0.6269
53.7000 17.8834 -0.6240
53.7200 17.8900 -0.6242
53.7400 17.8966 -0.6272
53.7600 17.9033 -0.6166
53.7800 17.9101 -0.6285
53.8000 17.9168 -0.6280
53.8200 17.9234 -0.6154
53.8400 17.9301 -0.6316
53.8600 17.9368 -0.6279
53.8800 17.9434 -0.6148
53.9000 17.9500 -0.6279
53.9200 17.9567 -0.6268
53.9400 17.9634 -0.6231
53.9600 17.9701 -0.6263
53.9800 17.9768 -0.6289
54.0000 17.9835 -0.6201
54.0200 17.9902 -0.6299
54.0400 17.9968 -0.6245
54.0600 18.0035 -0.6270
54.0800 18.0100 -0.6281
54.1000 18.0167 -0.6212
54.1200 18.0234 -0.6233
54.1400 18.0301 -0.6283
54.1600 18.0368 -0.6231
54.1800 18.0435 -0.6217
54.2000 18.0501 -0.6259
54.2200 18.0568 -0.6281
54.2400 18.0635 -0.6251
54.2600 18.0701 -0.6253
54.2800 18.0767 -0.6258
54.3000 18.0834 -0.6271
54.3200 18.0901 -0.6273
54.3400 18.0968 -0.6222
54.3600 18.1035 -0.6313
54.3800 18.1102 -0.6253
54.4000 18.1168 -0.6233
54.4200 18.1234 -0.6316
54.4400 18.1300 -0.6253
54.4600 18.1367 -0.6240
54.4800 18.1434 -0.6321
54.5000 18.1501 -0.6277
54.5200 18.1567 -0.6233
54.5400 18.1634 -0.6297
54.5600 18.1701 -0.6271
54.5800 18.1768 -0.6200
54.6000 18.1834 -0.6356
54.6200 18.1900 -0.6242
54.6400 18.1967 -0.6181
54.6600 18.2034 -0.6332
54.6800 18.2101 -0.6265
54.7000 18.2168 -0.6240
54.7200 18.2235 -0.6344
54.7400 18.2302 -0.6246
54.7600 18.2369 -0.6285
54.7800 18.2435 -0.6379
54.8000 18.2501 -0.6257
54.8200 18.2567 -0.6203
54.8400 18.2634 -0.6364
54.8600 18.2701 -0.6313
54.8800 18.2768 -0.6239
54.9000 18.2835 -0.6368
54.9200 18.2902 -0.6342
54.9400 18.2968 -0.6272
54.9600 18.3035 -0.6348
54.9800 18.3100 -0.6324
55.0000 18.3167 -0.6278
55.0200 18.3233 -0.6336
55.0400 18.3301 -0.6325
55.0600 18.3368 -0.6292
55.0800 18.3434 -0.6328
55.1000 18.3501 -0.6358
55.1200 18.3568 -0.6295
55.1400 18.3634 -0.6320
55.1600 18.3700 -0.6329
55.1800 18.3766 -0.6302
55.2000 18.3833 -0.6314
55.2200 18.3900 -0.6322
55.2400 18.3967 -0.6355
55.2600 18.4034 -0.6363
55.2800 18.4101 -0.6246
55.3000 18.4168 -0.6373
55.3200 18.4234 -0.6398
55.3400 18.4300 -0.6271
55.3600 18.4367 -0.6305
55.3800 18.4434 -0.6358
55.4000 18.4501 -0.6278
55.4200 18.4568 -0.6393
55.4400 18.4635 -0.6331
55.4600 18.4701 -0.6320
55.4800 18.4768 -0.6373
55.5000 18.4835 -0.6343
55.5200 18.4901 -0.6248
55.5400 18.4968 -0.6348
55.5600 18.5034 -0.6366
55.5800 18.5101 -0.6244
55.6000 18.5168 -0.6391
55.6200 18.5234 -0.6364
55.6400 18.5301 -0.6269
55.6600 18.5368 -0.6407
55.6800 18.5435 -0.6341
55.7000 18.5501 -0.6338
55.7200 18.5567 -0.6358
55.7400 18.5634 -0.6297
55.7600 18.5701 -0.6330
55.7800 18.5768 -0.6405
55.8000 18.5834 -0.6331
55.8200 18.5901 -0.6294
55.8400 18.5968 -0.6403
55.8600 18.6035 -0.6336
55.8800 18.6101 -0.6344
55.9000 18.6167 -0.6347
55.9200 18.6233 -0.6339
55.9400 18.6300 -0.6359
55.9600 18.6367 -0.6364
55.9800 18.6434 -0.6351
56.0000 18.6501 -0.6342
56.0200 18.6568 -0.6324
56.0400 18.6635 -0.6360
56.0600 18.6701 -0.6364
56.0800 18.6767 -0.6344
56.1000 18.6834 -0.6325
56.1200 18.6901 -0.6394
56.1400 18.6968 -0.6314
56.1600 18.7035 -0.6350
56.1800 18.7102 -0.6366
56.2000 18.7169 -0.6325
56.2200 18.7235 -0.6374
56.2400 18.7301 -0.6364
56.2600 18.7367 -0.6282
56.2800 18.7434 -0.6385
56.3000 18.7501 -0.6378
56.3200 18.7568 -0.6319
56.3400 18.7635 -0.6398
56.3600 18.7702 -0.6358
56.3800 18.7768 -0.6304
56.4000 18.7835 -0.6396
56.4200 18.7901 -0.6327
56.4400 18.7967 -0.6315
56.4600 18.8034 -0.6420
56.4800 18.8101 -0.6295
56.5000 18.8168 -0.6296
56.5200 18.8234 -0.6462
56.5400 18.8301 -0.6313
56.5600 18.8368 -0.6315
56.5800 18.8435 -0.6436
56.6000 18.8501 -0.6283
56.6200 18.8566 -0.6353
56.6400 18.8633 -0.6382
56.6600 18.8700 -0.6307
56.6800 18.8767 -0.6345
56.7000 18.8834 -0.6403
56.7200 18.8901 -0.6304
56.7400 18.8968 -0.6370
56.7600 18.9035 -0.6404
56.7800 18.9101 -0.6313
56.8000 18.9167 -0.6388
56.8200 18.9234 -0.6417
56.8400 18.9301 -0.6313
56.8600 18.9368 -0.6373
56.8800 18.9435 -0.6370
56.9000 18.9502 -0.6361
56.9200 18.9568 -0.6359
56.9400 18.9635 -0.6394
56.9600 18.9701 -0.6387
56.9800 18.9767 -0.6345
57.0000 18.9834 -0.6346
57.0200 18.9901 -0.6402
57.0400 18.9968 -0.6362
57.0600 19.0035 -0.6387
57.0800 19.0101 -0.6430
57.1000 19.0168 -0.6311
57.1200 19.0235 -0.6377
57.1400 19.0301 -0.6447
57.1600 19.0367 -0.6299
57.1800 19.0433 -0.6381
57.2000 19.0500 -0.6423
57.2200 19.0567 -0.6281
57.2400 19.0634 -0.6388
57.2600 19.0701 -0.6410
57.2800 19.0768 -0.6292
57.3000 19.0835 -0.6450
57.3200 19.0901 -0.6388
57.3400 19.0967 -0.6266
57.3600 19.1033 -0.6491
57.3800 19.1100 -0.6338
57.4000 19.1167 -0.6339
57.4200 19.1234 -0.6499
57.4400 19.1301 -0.6329
57.4600 19.1368 -0.6352
57.4800 19.1434 -0.6486
57.5000 19.1501 -0.6325
57.5200 19.1567 -0.6384
57.5400 19.1633 -0.6459
57.5600 19.1701 -0.6318
57.5800 19.1768 -0.6397
57.6000 19.1835 -0.6490
57.6200 19.1901 -0.6280
57.6400 19.1968 -0.6441
57.6600 19.2035 -0.6420
57.6800 19.2101 -0.6314
57.7000 19.2167 -0.6459
57.7200 19.2234 -0.6402
57.7400 19.2301 -0.6340
57.7600 19.2368 -0.6481
57.7800 19.2435 -0.6400
57.8000 19.2502 -0.6325
57.8200 19.2569 -0.6477
57.8400 19.2635 -0.6414
57.8600 19.2701 -0.6423
57.8800 19.2767 -0.6401
57.9000 19.2833 -0.6367
57.9200 19.2900 -0.6443
57.9400 19.2967 -0.6390
57.9600 19.3034 -0.6348
57.9800 19.3101 -0.6452
58.0000 19.3168 -0.6370
58.0200 19.3235 -0.6407
58.0400 19.3301 -0.6461
58.0600 19.3367 -0.6406
58.0800 19.3433 -0.6376
58.1000 19.3500 -0.6397
58.1200 19.3567 -0.6392
58.1400 19.3634 -0.6451
58.1600 19.3701 -0.6411
58.1800 19.3768 -0.6377
58.2000 19.3835 -0.6486
58.2200 19.3901 -0.6413
58.2400 19.3967 -0.6345
58.2600 19.4034 -0.6516
58.2800 19.4100 -0.6347
58.3000 19.4167 -0.6406
58.3200 19.4234 -0.6480
58.3400 19.4301 -0.6364
58.3600 19.4368 -0.6445
58.3800 19.4435 -0.6476
58.4000 19.4501 -0.6353
58.4200 19.4567 -0.6442
58.4400 19.4633 -0.6439
58.4600 19.4700 -0.6355
58.4800 19.4768 -0.6516
58.5000 19.4835 -0.6401
58.5200 19.4902 -0.6368
58.5400 19.4968 -0.6526
58.5600 19.5035 -0.6388
58.5800 19.5101 -0.6418
58.6000 19.5167 -0.6469
58.6200 19.5234 -0.6336
58.6400 19.5301 -0.6501
58.6600 19.5368 -0.6460
58.6800 19.5435 -0.6371
58.7000 19.5501 -0.6507
58.7200 19.5568 -0.6418
58.7400 19.5635 -0.6403
58.7600 19.5701 -0.6537
58.7800 19.5767 -0.6373
58.8000 19.5833 -0.6419
58.8200 19.5900 -0.6527
58.8400 19.5967 -0.6398
58.8600 19.6034 -0.6475
58.8800 19.6101 -0.6532
58.9000 19.6168 -0.6354
58.9200 19.6234 -0.6487
58.9400 19.6301 -0.6502
58.9600 19.6367 -0.6392
58.9800 19.6433 -0.6516
59.0000 19.6500 -0.6458
59.0200 19.6568 -0.6433
59.0400 19.6635 -0.6553
59.0600 19.6701 -0.6425
59.0800 19.6768 -0.6408
59.1000 19.6835 -0.6536
59.1200 19.6901 -0.6437
59.1400 19.6968 -0.6414
59.1600 19.7034 -0.6532
59.1800 19.7101 -0.6456
59.2000 19.7168 -0.6455
59.2200 19.7235 -0.6493
59.2400 19.7301 -0.6465
59.2600 19.7368 -0.6514
59.2800 19.7435 -0.6484
59.3000 19.7501 -0.6536
