Raw Data
Time Displacement Force
(s) (mm) (N)
0.0000 0.0000 -0.1106
0.0200 0.0001 -0.1111
0.0400 0.0008 -0.0786
0.0600 0.0040 -0.0652
0.0800 0.0095 -0.1104
0.1000 0.0153 -0.1147
0.1200 0.0212 -0.0830
0.1400 0.0278 -0.0981
0.1600 0.0351 -0.1063
0.1800 0.0425 -0.0986
0.2000 0.0497 -0.1136
0.2200 0.0565 -0.1104
0.2400 0.0633 -0.0955
0.2600 0.0699 -0.1007
0.2800 0.0766 -0.1022
0.3000 0.0833 -0.0959
0.3200 0.0900 -0.1061
0.3400 0.0967 -0.1012
0.3600 0.1034 -0.0949
0.3800 0.1100 -0.1007
0.4000 0.1167 -0.1001
0.4200 0.1234 -0.0924
0.4400 0.1301 -0.0961
0.4600 0.1368 -0.0939
0.4800 0.1435 -0.0917
0.5000 0.1502 -0.0975
0.5200 0.1568 -0.0906
0.5400 0.1634 -0.0927
0.5600 0.1700 -0.0922
0.5800 0.1767 -0.0854
0.6000 0.1834 -0.0910
0.6200 0.1901 -0.0888
0.6400 0.1968 -0.0831
0.6600 0.2034 -0.0900
0.6800 0.2101 -0.0832
0.7000 0.2168 -0.0800
0.7200 0.2234 -0.0879
0.7400 0.2300 -0.0798
0.7600 0.2367 -0.0776
0.7800 0.2434 -0.0829
0.8000 0.2500 -0.0784
0.8200 0.2567 -0.0743
0.8400 0.2634 -0.0774
0.8600 0.2701 -0.0799
0.8800 0.2768 -0.0766
0.9000 0.2834 -0.0714
0.9200 0.2900 -0.0709
0.9400 0.2966 -0.0778
0.9600 0.3033 -0.0753
0.9800 0.3100 -0.0706
1.0000 0.3167 -0.0680
1.0200 0.3234 -0.0716
1.0400 0.3301 -0.0708
1.0600 0.3367 -0.0755
1.0800 0.3434 -0.0715
1.1000 0.3500 -0.0651
1.1200 0.3566 -0.0701
1.1400 0.3633 -0.0692
1.1600 0.3701 -0.0698
1.1800 0.3768 -0.0747
1.2000 0.3835 -0.0690
1.2200 0.3901 -0.0711
1.2400 0.3968 -0.0748
1.2600 0.4035 -0.0707
1.2800 0.4101 -0.0732
1.3000 0.4167 -0.0705
1.3200 0.4234 -0.0689
1.3400 0.4301 -0.0731
1.3600 0.4368 -0.0709
1.3800 0.4435 -0.0730
1.4000 0.4502 -0.0759
1.4200 0.4568 -0.0714
1.4400 0.4635 -0.0796
1.4600 0.4700 -0.0769
1.4800 0.4766 -0.0711
1.5000 0.4833 -0.0777
1.5200 0.4900 -0.0807
1.5400 0.4967 -0.0738
1.5600 0.5034 -0.0805
1.5800 0.5101 -0.0804
1.6000 0.5168 -0.0784
1.6200 0.5234 -0.0838
1.6400 0.5300 -0.0816
1.6600 0.5366 -0.0816
1.6800 0.5433 -0.0859
1.7000 0.5500 -0.0787
1.7200 0.5567 -0.0876
1.7400 0.5634 -0.0870
1.7600 0.5701 -0.0841
1.7800 0.5768 -0.0840
1.8000 0.5834 -0.0876
1.8200 0.5901 -0.0885
1.8400 0.5967 -0.0803
1.8600 0.6034 -0.0885
1.8800 0.6101 -0.0906
1.9000 0.6167 -0.0836
1.9200 0.6234 -0.0925
1.9400 0.6301 -0.0900
1.9600 0.6368 -0.0849
1.9800 0.6435 -0.0906
2.0000 0.6501 -0.0930
2.0200 0.6567 -0.0854
2.0400 0.6633 -0.0898
2.0600 0.6700 -0.0920
2.0800 0.6768 -0.0902
2.1000 0.6834 -0.0919
2.1200 0.6901 -0.0978
2.1400 0.6968 -0.0895
2.1600 0.7034 -0.0875
2.1800 0.7100 -0.0979
2.2000 0.7166 -0.0908
2.2200 0.7233 -0.0958
2.2400 0.7301 -0.0999
2.2600 0.7368 -0.0817
2.2800 0.7434 -0.0943
2.3000 0.7501 -0.1041
2.3200 0.7568 -0.0893
2.3400 0.7634 -0.0974
2.3600 0.7700 -0.0968
2.3800 0.7767 -0.0890
2.4000 0.7833 -0.0976
2.4200 0.7900 -0.0969
2.4400 0.7967 -0.0879
2.4600 0.8034 -0.0936
2.4800 0.8101 -0.0916
2.5000 0.8168 -0.0943
2.5200 0.8235 -0.1008
2.5400 0.8301 -0.0927
2.5600 0.8367 -0.0850
2.5800 0.8433 -0.1019
2.6000 0.8501 -0.0913
2.6200 0.8568 -0.0961
2.6400 0.8635 -0.0973
2.6600 0.8701 -0.0963
2.6800 0.8768 -0.0974
2.7000 0.8834 -0.0954
2.7200 0.8900 -0.0934
2.7400 0.8967 -0.0940
2.7600 0.9033 -0.0947
2.7800 0.9101 -0.0976
2.8000 0.9168 -0.0975
2.8200 0.9235 -0.0941
2.8400 0.9301 -0.0935
2.8600 0.9368 -0.0984
2.8800 0.9435 -0.0992
2.9000 0.9501 -0.0985
2.9200 0.9567 -0.0966
2.9400 0.9633 -0.0976
2.9600 0.9700 -0.0975
2.9800 0.9767 -0.0985
3.0000 0.9834 -0.1026
3.0200 0.9901 -0.0975
3.0400 0.9968 -0.0955
3.0600 1.0034 -0.0990
3.0800 1.0100 -0.1022
3.1000 1.0166 -0.0980
3.1200 1.0233 -0.0981
3.1400 1.0300 -0.0978
3.1600 1.0367 -0.1025
3.1800 1.0434 -0.1024
3.2000 1.0501 -0.0985
3.2200 1.0568 -0.1003
3.2400 1.0634 -0.1018
3.2600 1.0701 -0.0996
3.2800 1.0767 -0.0974
3.3000 1.0833 -0.0991
3.3200 1.0900 -0.1034
3.3400 1.0967 -0.1028
3.3600 1.1034 -0.0977
3.3800 1.1101 -0.0996
3.4000 1.1168 -0.1056
3.4200 1.1235 -0.0982
3.4400 1.1301 -0.1021
3.4600 1.1367 -0.0990
3.4800 1.1434 -0.1012
3.5000 1.1500 -0.0987
3.5200 1.1567 -0.0986
3.5400 1.1634 -0.1007
3.5600 1.1701 -0.1055
3.5800 1.1768 -0.0982
3.6000 1.1835 -0.0966
3.6200 1.1901 -0.1060
3.6400 1.1966 -0.0989
3.6600 1.2033 -0.0948
3.6800 1.2100 -0.1051
3.7000 1.2168 -0.0983
3.7200 1.2234 -0.1020
3.7400 1.2301 -0.1074
3.7600 1.2368 -0.0955
3.7800 1.2434 -0.1005
3.8000 1.2501 -0.1083
3.8200 1.2567 -0.0976
3.8400 1.2633 -0.0980
3.8600 1.2700 -0.1048
3.8800 1.2767 -0.0922
3.9000 1.2834 -0.1031
3.9200 1.2901 -0.1059
3.9400 1.2968 -0.0957
3.9600 1.3034 -0.1047
3.9800 1.3101 -0.1018
4.0000 1.3167 -0.0882
4.0200 1.3233 -0.1057
4.0400 1.3300 -0.1027
4.0600 1.3367 -0.0934
4.0800 1.3434 -0.1005
4.1000 1.3501 -0.1029
4.1200 1.3568 -0.0963
4.1400 1.3635 -0.1063
4.1600 1.3701 -0.1008
4.1800 1.3767 -0.0930
4.2000 1.3833 -0.1004
4.2200 1.3900 -0.1003
4.2400 1.3968 -0.0995
4.2600 1.4035 -0.1018
4.2800 1.4101 -0.1018
4.3000 1.4168 -0.0984
4.3200 1.4235 -0.1027
4.3400 1.4301 -0.1044
4.3600 1.4367 -0.0987
4.3800 1.4433 -0.0992
4.4000 1.4500 -0.0996
4.4200 1.4567 -0.1050
4.4400 1.4634 -0.1005
4.4600 1.4701 -0.1000
4.4800 1.4768 -0.1022
4.5000 1.4834 -0.1018
4.5200 1.4901 -0.1026
4.5400 1.4967 -0.0996
4.5600 1.5033 -0.1043
4.5800 1.5100 -0.1063
4.6000 1.5167 -0.0992
4.6200 1.5234 -0.1033
4.6400 1.5301 -0.1062
4.6600 1.5368 -0.0991
4.6800 1.5434 -0.1046
4.7000 1.5501 -0.1063
4.7200 1.5567 -0.0997
4.7400 1.5633 -0.1085
4.7600 1.5701 -0.1033
4.7800 1.5768 -0.1005
4.8000 1.5835 -0.1132
4.8200 1.5902 -0.1008
4.8400 1.5968 -0.1017
4.8600 1.6035 -0.1123
4.8800 1.6101 -0.1037
4.9000 1.6167 -0.1034
4.9200 1.6233 -0.1078
4.9400 1.6300 -0.1006
4.9600 1.6368 -0.1045
4.9800 1.6434 -0.1122
5.0000 1.6501 -0.1026
5.0200 1.6568 -0.1015
5.0400 1.6635 -0.1131
5.0600 1.6701 -0.1056
5.0800 1.6767 -0.1095
5.1000 1.6833 -0.1081
5.1200 1.6900 -0.1070
5.1400 1.6967 -0.1142
5.1600 1.7034 -0.1086
5.1800 1.7101 -0.1068
5.2000 1.7168 -0.1095
5.2200 1.7235 -0.1085
5.2400 1.7301 -0.1141
5.2600 1.7367 -0.1096
5.2800 1.7433 -0.1075
5.3000 1.7500 -0.1113
5.3200 1.7567 -0.1113
5.3400 1.7634 -0.1089
5.3600 1.7701 -0.1167
5.3800 1.7767 -0.1074
5.4000 1.7834 -0.1072
5.4200 1.7901 -0.1212
5.4400 1.7967 -0.1088
5.4600 1.8033 -0.1082
5.4800 1.8100 -0.1150
5.5000 1.8167 -0.1149
5.5200 1.8234 -0.1103
5.5400 1.8301 -0.1141
5.5600 1.8368 -0.1111
5.5800 1.8435 -0.1132
5.6000 1.8502 -0.1148
5.6200 1.8567 -0.1135
5.6400 1.8633 -0.1156
5.6600 1.8700 -0.1166
5.6800 1.8767 -0.1124
5.7000 1.8834 -0.1136
5.7200 1.8901 -0.1148
5.7400 1.8968 -0.1167
5.7600 1.9035 -0.1140
5.7800 1.9101 -0.1145
5.8000 1.9167 -0.1148
5.8200 1.9233 -0.1129
5.8400 1.9300 -0.1143
5.8600 1.9367 -0.1167
5.8800 1.9434 -0.1168
5.9000 1.9501 -0.1146
5.9200 1.9567 -0.1205
5.9400 1.9634 -0.1155
5.9600 1.9701 -0.1105
5.9800 1.9767 -0.1187
6.0000 1.9833 -0.1200
6.0200 1.9900 -0.1105
6.0400 1.9967 -0.1171
6.0600 2.0034 -0.1191
6.0800 2.0101 -0.1106
6.1000 2.0168 -0.1177
6.1200 2.0235 -0.1196
6.1400 2.0301 -0.1132
6.1600 2.0367 -0.1211
6.1800 2.0433 -0.1179
6.2000 2.0500 -0.1091
6.2200 2.0567 -0.1227
6.2400 2.0634 -0.1238
6.2600 2.0701 -0.1113
6.2800 2.0768 -0.1177
6.3000 2.0834 -0.1244
6.3200 2.0901 -0.1126
6.3400 2.0967 -0.1219
6.3600 2.1033 -0.1214
6.3800 2.1100 -0.1095
6.4000 2.1167 -0.1298
6.4200 2.1234 -0.1193
6.4400 2.1301 -0.1111
6.4600 2.1368 -0.1270
6.4800 2.1435 -0.1234
6.5000 2.1502 -0.1108
6.5200 2.1568 -0.1329
6.5400 2.1634 -0.1196
6.5600 2.1700 -0.1089
6.5800 2.1767 -0.1265
6.6000 2.1834 -0.1225
6.6200 2.1901 -0.1149
6.6400 2.1968 -0.1304
6.6600 2.2035 -0.1185
6.6800 2.2101 -0.1184
6.7000 2.2167 -0.1277
6.7200 2.2233 -0.1167
6.7400 2.2300 -0.1218
6.7600 2.2367 -0.1251
6.7800 2.2434 -0.1214
6.8000 2.2501 -0.1210
6.8200 2.2568 -0.1242
6.8400 2.2634 -0.1213
6.8600 2.2701 -0.1222
6.8800 2.2767 -0.1255
6.9000 2.2834 -0.1224
6.9200 2.2900 -0.1222
6.9400 2.2967 -0.1234
6.9600 2.3034 -0.1207
6.9800 2.3101 -0.1227
7.0000 2.3168 -0.1255
7.0200 2.3235 -0.1205
7.0400 2.3301 -0.1197
7.0600 2.3367 -0.1302
7.0800 2.3434 -0.1215
7.1000 2.3500 -0.1182
7.1200 2.3567 -0.1254
7.1400 2.3634 -0.1243
7.1600 2.3701 -0.1197
7.1800 2.3768 -0.1264
7.2000 2.3835 -0.1212
7.2200 2.3902 -0.1239
7.2400 2.3967 -0.1252
7.2600 2.4033 -0.1213
7.2800 2.4100 -0.1272
7.3000 2.4167 -0.1251
7.3200 2.4234 -0.1178
7.3400 2.4301 -0.1269
7.3600 2.4368 -0.1218
7.3800 2.4434 -0.1168
7.4000 2.4501 -0.1305
7.4200 2.4567 -0.1253
7.4400 2.4633 -0.1173
7.4600 2.4700 -0.1258
7.4800 2.4767 -0.1247
7.5000 2.4834 -0.1215
7.5200 2.4900 -0.1284
7.5400 2.4967 -0.1204
7.5600 2.5034 -0.1223
7.5800 2.5101 -0.1275
7.6000 2.5167 -0.1216
7.6200 2.5234 -0.1263
7.6400 2.5300 -0.1267
7.6600 2.5367 -0.1194
7.6800 2.5434 -0.1276
7.7000 2.5501 -0.1257
7.7200 2.5568 -0.1233
7.7400 2.5635 -0.1288
7.7600 2.5702 -0.1228
7.7800 2.5768 -0.1196
7.8000 2.5834 -0.1314
7.8200 2.5900 -0.1242
7.8400 2.5967 -0.1224
7.8600 2.6034 -0.1324
7.8800 2.6101 -0.1192
7.9000 2.6168 -0.1194
7.9200 2.6234 -0.1354
7.9400 2.6301 -0.1167
7.9600 2.6367 -0.1248
7.9800 2.6433 -0.1372
8.0000 2.6500 -0.1160
8.0200 2.6567 -0.1241
8.0400 2.6634 -0.1402
8.0600 2.6701 -0.1133
8.0800 2.6767 -0.1289
8.1000 2.6834 -0.1335
8.1200 2.6901 -0.1142
8.1400 2.6967 -0.1296
8.1600 2.7033 -0.1328
8.1800 2.7100 -0.1100
8.2000 2.7167 -0.1325
8.2200 2.7234 -0.1394
8.2400 2.7301 -0.1116
8.2600 2.7368 -0.1341
8.2800 2.7435 -0.1359
8.3000 2.7501 -0.1187
8.3200 2.7567 -0.1347
8.3400 2.7633 -0.1329
8.3600 2.7700 -0.1224
8.3800 2.7767 -0.1306
8.4000 2.7834 -0.1287
8.4200 2.7901 -0.1282
8.4400 2.7968 -0.1329
8.4600 2.8034 -0.1267
8.4800 2.8101 -0.1265
8.5000 2.8167 -0.1352
8.5200 2.8234 -0.1291
8.5400 2.8300 -0.1267
8.5600 2.8367 -0.1298
8.5800 2.8434 -0.1307
8.6000 2.8501 -0.1275
8.6200 2.8568 -0.1319
8.6400 2.8635 -0.1318
8.6600 2.8702 -0.1304
8.6800 2.8768 -0.1313
8.7000 2.8834 -0.1339
8.7200 2.8900 -0.1236
8.7400 2.8967 -0.1323
8.7600 2.9034 -0.1343
8.7800 2.9101 -0.1248
8.8000 2.9168 -0.1352
8.8200 2.9235 -0.1328
8.8400 2.9301 -0.1262
8.8600 2.9367 -0.1355
8.8800 2.9433 -0.1296
8.9000 2.9499 -0.1233
8.9200 2.9566 -0.1384
8.9400 2.9634 -0.1346
8.9600 2.9700 -0.1269
8.9800 2.9767 -0.1347
9.0000 2.9834 -0.1308
9.0200 2.9901 -0.1275
9.0400 2.9967 -0.1333
9.0600 3.0033 -0.1292
9.0800 3.0100 -0.1299
9.1000 3.0167 -0.1303
9.1200 3.0234 -0.1274
9.1400 3.0301 -0.1374
9.1600 3.0368 -0.1328
9.1800 3.0435 -0.1250
9.2000 3.0502 -0.1351
9.2200 3.0568 -0.1318
9.2400 3.0634 -0.1267
9.2600 3.0700 -0.1310
9.2800 3.0767 -0.1275
9.3000 3.0834 -0.1335
9.3200 3.0901 -0.1385
9.3400 3.0968 -0.1227
9.3600 3.1035 -0.1301
9.3800 3.1102 -0.1358
9.4000 3.1168 -0.1268
9.4200 3.1233 -0.1287
9.4400 3.1300 -0.1358
9.4600 3.1367 -0.1271
9.4800 3.1434 -0.1331
9.5000 3.1501 -0.1313
9.5200 3.1568 -0.1285
9.5400 3.1634 -0.1342
9.5600 3.1701 -0.1310
9.5800 3.1768 -0.1281
9.6000 3.1834 -0.1378
9.6200 3.1900 -0.1280
9.6400 3.1967 -0.1269
9.6600 3.2034 -0.1356
9.6800 3.2101 -0.1330
9.7000 3.2167 -0.1292
9.7200 3.2234 -0.1336
9.7400 3.2301 -0.1294
9.7600 3.2367 -0.1351
9.7800 3.2433 -0.1375
9.8000 3.2500 -0.1250
9.8200 3.2567 -0.1312
9.8400 3.2634 -0.1360
9.8600 3.2701 -0.1294
9.8800 3.2768 -0.1336
9.9000 3.2835 -0.1344
9.9200 3.2902 -0.1306
9.9400 3.2968 -0.1369
9.9600 3.3034 -0.1310
9.9800 3.3100 -0.1289
10.0000 3.3167 -0.1401
10.0200 3.3234 -0.1317
10.0400 3.3302 -0.1307
10.0600 3.3368 -0.1413
10.0800 3.3435 -0.1265
10.1000 3.3501 -0.1335
10.1200 3.3567 -0.1389
10.1400 3.3634 -0.1251
10.1600 3.3700 -0.1401
10.1800 3.3767 -0.1403
10.2000 3.3834 -0.1222
10.2200 3.3901 -0.1434
10.2400 3.3967 -0.1358
10.2600 3.4034 -0.1256
10.2800 3.4101 -0.1494
10.3000 3.4167 -0.1334
10.3200 3.4233 -0.1273
10.3400 3.4299 -0.1451
10.3600 3.4366 -0.1313
10.3800 3.4434 -0.1365
10.4000 3.4501 -0.1432
10.4200 3.4568 -0.1323
10.4400 3.4634 -0.1357
10.4600 3.4701 -0.1404
10.4800 3.4768 -0.1361
10.5000 3.4834 -0.1410
10.5200 3.4900 -0.1353
10.5400 3.4967 -0.1314
10.5600 3.5034 -0.1434
10.5800 3.5101 -0.1385
10.6000 3.5168 -0.1357
10.6200 3.5234 -0.1389
10.6400 3.5301 -0.1368
10.6600 3.5368 -0.1429
10.6800 3.5434 -0.1365
10.7000 3.5500 -0.1350
10.7200 3.5567 -0.1439
10.7400 3.5634 -0.1348
10.7600 3.5701 -0.1389
10.7800 3.5768 -0.1404
10.8000 3.5835 -0.1384
10.8200 3.5902 -0.1398
10.8400 3.5968 -0.1441
10.8600 3.6034 -0.1309
10.8800 3.6100 -0.1383
10.9000 3.6167 -0.1436
10.9200 3.6234 -0.1321
10.9400 3.6301 -0.1407
10.9600 3.6368 -0.1425
10.9800 3.6435 -0.1358
11.0000 3.6501 -0.1457
11.0200 3.6568 -0.1409
11.0400 3.6634 -0.1356
11.0600 3.6700 -0.1425
11.0800 3.6766 -0.1379
11.1000 3.6833 -0.1359
11.1200 3.6900 -0.1480
11.1400 3.6967 -0.1392
11.1600 3.7034 -0.1301
11.1800 3.7101 -0.1452
11.2000 3.7167 -0.1359
11.2200 3.7234 -0.1386
11.2400 3.7300 -0.1471
11.2600 3.7367 -0.1360
11.2800 3.7434 -0.1403
11.3000 3.7501 -0.1485
11.3200 3.7568 -0.1382
11.3400 3.7635 -0.1413
11.3600 3.7702 -0.1454
11.3800 3.7768 -0.1405
11.4000 3.7834 -0.1402
11.4200 3.7900 -0.1408
11.4400 3.7967 -0.1415
11.4600 3.8034 -0.1439
11.4800 3.8101 -0.1376
11.5000 3.8168 -0.1419
11.5200 3.8235 -0.1421
11.5400 3.8302 -0.1461
11.5600 3.8368 -0.1417
11.5800 3.8434 -0.1413
11.6000 3.8500 -0.1429
11.6200 3.8567 -0.1407
11.6400 3.8634 -0.1363
11.6600 3.8700 -0.1480
11.6800 3.8767 -0.1426
11.7000 3.8834 -0.1409
11.7200 3.8901 -0.1385
11.7400 3.8967 -0.1417
11.7600 3.9034 -0.1395
11.7800 3.9099 -0.1401
11.8000 3.9166 -0.1457
11.8200 3.9233 -0.1373
11.8400 3.9300 -0.1399
11.8600 3.9367 -0.1532
11.8800 3.9434 -0.1363
11.9000 3.9501 -0.1443
11.9200 3.9568 -0.1480
11.9400 3.9634 -0.1337
11.9600 3.9700 -0.1432
11.9800 3.9767 -0.1452
12.0000 3.9834 -0.1394
12.0200 3.9901 -0.1498
12.0400 3.9968 -0.1453
12.0600 4.0035 -0.1365
12.0800 4.0101 -0.1475
12.1000 4.0168 -0.1450
12.1200 4.0234 -0.1437
12.1400 4.0301 -0.1466
12.1600 4.0367 -0.1403
12.1800 4.0434 -0.1383
12.2000 4.0501 -0.1485
12.2200 4.0568 -0.1435
12.2400 4.0635 -0.1389
12.2600 4.0702 -0.1486
12.2800 4.0768 -0.1481
12.3000 4.0834 -0.1405
12.3200 4.0900 -0.1427
12.3400 4.0966 -0.1520
12.3600 4.1033 -0.1410
12.3800 4.1101 -0.1410
12.4000 4.1167 -0.1530
12.4200 4.1234 -0.1388
12.4400 4.1301 -0.1455
12.4600 4.1368 -0.1545
12.4800 4.1434 -0.1422
12.5000 4.1500 -0.1402
12.5200 4.1566 -0.1496
12.5400 4.1633 -0.1423
12.5600 4.1701 -0.1521
12.5800 4.1767 -0.1481
12.6000 4.1834 -0.1337
12.6200 4.1901 -0.1532
12.6400 4.1968 -0.1530
12.6600 4.2034 -0.1329
12.6800 4.2100 -0.1549
12.7000 4.2167 -0.1467
12.7200 4.2234 -0.1420
12.7400 4.2301 -0.1530
12.7600 4.2368 -0.1413
12.7800 4.2434 -0.1386
12.8000 4.2502 -0.1566
12.8200 4.2568 -0.1477
12.8400 4.2634 -0.1414
12.8600 4.2700 -0.1542
12.8800 4.2767 -0.1414
12.9000 4.2834 -0.1500
12.9200 4.2901 -0.1518
12.9400 4.2968 -0.1394
12.9600 4.3035 -0.1524
12.9800 4.3102 -0.1508
13.0000 4.3168 -0.1349
13.0200 4.3234 -0.1572
13.0400 4.3300 -0.1494
13.0600 4.3367 -0.1372
13.0800 4.3434 -0.1488
13.1000 4.3501 -0.1526
13.1200 4.3568 -0.1481
13.1400 4.3634 -0.1443
13.1600 4.3701 -0.1383
13.1800 4.3768 -0.1602
13.2000 4.3834 -0.1509
13.2200 4.3900 -0.1313
13.2400 4.3966 -0.1551
13.2600 4.4033 -0.1579
13.2800 4.4100 -0.1365
13.3000 4.4167 -0.1498
13.3200 4.4234 -0.1505
13.3400 4.4301 -0.1445
13.3600 4.4368 -0.1524
13.3800 4.4434 -0.1411
13.4000 4.4500 -0.1445
13.4200 4.4567 -0.1601
13.4400 4.4634 -0.1372
13.4600 4.4701 -0.1447
13.4800 4.4768 -0.1607
13.5000 4.4835 -0.1364
13.5200 4.4902 -0.1456
13.5400 4.4968 -0.1598
13.5600 4.5034 -0.1374
13.5800 4.5100 -0.1436
13.6000 4.5167 -0.1599
13.6200 4.5234 -0.1361
13.6400 4.5301 -0.1472
13.6600 4.5368 -0.1604
13.6800 4.5434 -0.1426
13.7000 4.5501 -0.1484
13.7200 4.5568 -0.1544
13.7400 4.5634 -0.1393
13.7600 4.5700 -0.1556
13.7800 4.5766 -0.1522
13.8000 4.5833 -0.1346
13.8200 4.5901 -0.1561
13.8400 4.5968 -0.1488
13.8600 4.6034 -0.1364
13.8800 4.6101 -0.1612
13.9000 4.6168 -0.1499
13.9200 4.6234 -0.1411
13.9400 4.6300 -0.1590
13.9600 4.6366 -0.1526
13.9800 4.6433 -0.1351
14.0000 4.6501 -0.1566
14.0200 4.6567 -0.1518
14.0400 4.6634 -0.1527
14.0600 4.6701 -0.1517
14.0800 4.6768 -0.1413
14.1000 4.6834 -0.1568
14.1200 4.6900 -0.1535
14.1400 4.6966 -0.1461
14.1600 4.7033 -0.1476
14.1800 4.7101 -0.1486
14.2000 4.7168 -0.1573
14.2200 4.7235 -0.1423
14.2400 4.7302 -0.1437
14.2600 4.7368 -0.1598
14.2800 4.7435 -0.1521
14.3000 4.7501 -0.1426
14.3200 4.7567 -0.1484
14.3400 4.7634 -0.1535
14.3600 4.7701 -0.1557
14.3800 4.7768 -0.1515
14.4000 4.7835 -0.1383
14.4200 4.7902 -0.1526
14.4400 4.7968 -0.1646
14.4600 4.8035 -0.1434
14.4800 4.8100 -0.1481
14.5000 4.8167 -0.1602
14.5200 4.8233 -0.1452
14.5400 4.8300 -0.1499
14.5600 4.8367 -0.1535
14.5800 4.8434 -0.1496
14.6000 4.8501 -0.1575
14.6200 4.8568 -0.1558
14.6400 4.8634 -0.1385
14.6600 4.8700 -0.1590
14.6800 4.8766 -0.1558
14.7000 4.8833 -0.1485
14.7200 4.8900 -0.1499
14.7400 4.8967 -0.1503
14.7600 4.9034 -0.1521
14.7800 4.9101 -0.1537
14.8000 4.9168 -0.1560
14.8200 4.9234 -0.1468
14.8400 4.9300 -0.1515
14.8600 4.9367 -0.1612
14.8800 4.9434 -0.1470
14.9000 4.9501 -0.1525
14.9200 4.9568 -0.1571
14.9400 4.9634 -0.1527
14.9600 4.9701 -0.1502
14.9800 4.9768 -0.1590
15.0000 4.9834 -0.1526
15.0200 4.9900 -0.1539
15.0400 4.9967 -0.1617
15.0600 5.0034 -0.1476
15.0800 5.0101 -0.1563
15.1000 5.0168 -0.1571
15.1200 5.0235 -0.1525
15.1400 5.0301 -0.1621
15.1600 5.0368 -0.1498
15.1800 5.0435 -0.1546
15.2000 5.0501 -0.1684
15.2200 5.0567 -0.1541
15.2400 5.0634 -0.1526
15.2600 5.0701 -0.1688
15.2800 5.0768 -0.1459
15.3000 5.0834 -0.1481
15.3200 5.0901 -0.1698
15.3400 5.0968 -0.1514
15.3600 5.1034 -0.1586
15.3800 5.1100 -0.1675
15.4000 5.1166 -0.1467
15.4200 5.1233 -0.1542
15.4400 5.1300 -0.1728
15.4600 5.1367 -0.1525
15.4800 5.1434 -0.1592
15.5000 5.1501 -0.1628
15.5200 5.1568 -0.1499
15.5400 5.1634 -0.1623
15.5600 5.1700 -0.1671
15.5800 5.1766 -0.1521
15.6000 5.1833 -0.1594
15.6200 5.1901 -0.1609
15.6400 5.1968 -0.1566
15.6600 5.2035 -0.1625
15.6800 5.2101 -0.1607
15.7000 5.2168 -0.1576
15.7200 5.2235 -0.1640
15.7400 5.2301 -0.1578
15.7600 5.2367 -0.1537
15.7800 5.2434 -0.1637
15.8000 5.2501 -0.1595
15.8200 5.2568 -0.1580
15.8400 5.2635 -0.1616
15.8600 5.2702 -0.1626
15.8800 5.2768 -0.1618
15.9000 5.2835 -0.1586
15.9200 5.2901 -0.1620
15.9400 5.2967 -0.1639
15.9600 5.3033 -0.1597
15.9800 5.3100 -0.1603
16.0000 5.3167 -0.1614
16.0200 5.3234 -0.1630
16.0400 5.3301 -0.1615
16.0600 5.3368 -0.1588
16.0800 5.3434 -0.1623
16.1000 5.3500 -0.1676
16.1200 5.3566 -0.1540
16.1400 5.3633 -0.1571
16.1600 5.3701 -0.1710
16.1800 5.3768 -0.1571
16.2000 5.3834 -0.1576
16.2200 5.3901 -0.1724
16.2400 5.3968 -0.1517
16.2600 5.4034 -0.1583
16.2800 5.4101 -0.1713
16.3000 5.4167 -0.1537
16.3200 5.4234 -0.1613
16.3400 5.4301 -0.1711
16.3600 5.4368 -0.1455
16.3800 5.4435 -0.1632
16.4000 5.4501 -0.1718
16.4200 5.4568 -0.1507
16.4400 5.4635 -0.1631
16.4600 5.4701 -0.1687
16.4800 5.4767 -0.1502
16.5000 5.4833 -0.1639
16.5200 5.4900 -0.1676
16.5400 5.4967 -0.1508
16.5600 5.5034 -0.1679
16.5800 5.5101 -0.1696
16.6000 5.5167 -0.1520
16.6200 5.5234 -0.1664
16.6400 5.5301 -0.1683
16.6600 5.5367 -0.1564
16.6800 5.5434 -0.1637
16.7000 5.5501 -0.1604
16.7200 5.5568 -0.1583
16.7400 5.5634 -0.1677
16.7600 5.5701 -0.1642
16.7800 5.5768 -0.1512
16.8000 5.5834 -0.1678
16.8200 5.5901 -0.1716
16.8400 5.5967 -0.1586
16.8600 5.6033 -0.1572
16.8800 5.6100 -0.1626
16.9000 5.6167 -0.1649
16.9200 5.6234 -0.1577
16.9400 5.6301 -0.1617
16.9600 5.6368 -0.1654
16.9800 5.6435 -0.1635
17.0000 5.6501 -0.1684
17.0200 5.6567 -0.1530
17.0400 5.6633 -0.1633
17.0600 5.6701 -0.1757
17.0800 5.6768 -0.1571
17.1000 5.6835 -0.1591
17.1200 5.6902 -0.1737
17.1400 5.6968 -0.1581
17.1600 5.7034 -0.1619
17.1800 5.7101 -0.1738
17.2000 5.7167 -0.1545
17.2200 5.7233 -0.1633
17.2400 5.7301 -0.1730
17.2600 5.7368 -0.1516
17.2800 5.7435 -0.1675
17.3000 5.7501 -0.1751
17.3200 5.7568 -0.1508
17.3400 5.7635 -0.1649
17.3600 5.7701 -0.1737
17.3800 5.7766 -0.1575
17.4000 5.7833 -0.1636
17.4200 5.7900 -0.1698
17.4400 5.7967 -0.1634
17.4600 5.8034 -0.1676
17.4800 5.8101 -0.1630
17.5000 5.8168 -0.1647
17.5200 5.8235 -0.1664
17.5400 5.8300 -0.1707
17.5600 5.8366 -0.1575
17.5800 5.8433 -0.1638
17.6000 5.8500 -0.1709
17.6200 5.8567 -0.1681
17.6400 5.8634 -0.1610
17.6600 5.8701 -0.1693
17.6800 5.8768 -0.1690
17.7000 5.8834 -0.1649
17.7200 5.8901 -0.1686
17.7400 5.8967 -0.1680
17.7600 5.9033 -0.1604
17.7800 5.9100 -0.1698
17.8000 5.9168 -0.1628
17.8200 5.9234 -0.1604
17.8400 5.9301 -0.1771
17.8600 5.9368 -0.1598
17.8800 5.9435 -0.1593
17.9000 5.9501 -0.1802
17.9200 5.9567 -0.1622
17.9400 5.9634 -0.1608
17.9600 5.9700 -0.1758
17.9800 5.9768 -0.1569
18.0000 5.9835 -0.1657
18.0200 5.9901 -0.1750
18.0400 5.9968 -0.1576
18.0600 6.0035 -0.1661
18.0800 6.0101 -0.1756
18.1000 6.0167 -0.1552
18.1200 6.0233 -0.1675
18.1400 6.0300 -0.1730
18.1600 6.0367 -0.1632
18.1800 6.0434 -0.1690
18.2000 6.0500 -0.1686
18.2200 6.0567 -0.1629
18.2400 6.0635 -0.1689
18.2600 6.0701 -0.1692
18.2800 6.0767 -0.1647
18.3000 6.0834 -0.1671
18.3200 6.0900 -0.1710
18.3400 6.0967 -0.1647
18.3600 6.1034 -0.1750
18.3800 6.1101 -0.1702
18.4000 6.1168 -0.1680
18.4200 6.1235 -0.1687
18.4400 6.1301 -0.1705
18.4600 6.1367 -0.1682
18.4800 6.1433 -0.1684
18.5000 6.1500 -0.1717
18.5200 6.1567 -0.1687
18.5400 6.1634 -0.1673
18.5600 6.1701 -0.1745
18.5800 6.1768 -0.1733
18.6000 6.1835 -0.1609
18.6200 6.1901 -0.1732
18.6400 6.1967 -0.1717
18.6600 6.2033 -0.1581
18.6800 6.2100 -0.1755
18.7000 6.2168 -0.1713
18.7200 6.2235 -0.1640
18.7400 6.2301 -0.1761
18.7600 6.2368 -0.1717
18.7800 6.2435 -0.1603
18.8000 6.2501 -0.1765
18.8200 6.2567 -0.1778
18.8400 6.2633 -0.1548
18.8600 6.2700 -0.1790
18.8800 6.2767 -0.1758
18.9000 6.2834 -0.1596
18.9200 6.2901 -0.1780
18.9400 6.2967 -0.1702
18.9600 6.3034 -0.1646
18.9800 6.3100 -0.1765
19.0000 6.3166 -0.1673
19.0200 6.3233 -0.1660
19.0400 6.3300 -0.1765
19.0600 6.3367 -0.1640
19.0800 6.3434 -0.1673
19.1000 6.3501 -0.1801
19.1200 6.3568 -0.1634
19.1400 6.3635 -0.1666
19.1600 6.3701 -0.1767
19.1800 6.3767 -0.1661
19.2000 6.3833 -0.1665
19.2200 6.3900 -0.1725
19.2400 6.3968 -0.1644
19.2600 6.4035 -0.1750
19.2800 6.4101 -0.1674
19.3000 6.4168 -0.1648
19.3200 6.4235 -0.1722
19.3400 6.4301 -0.1697
19.3600 6.4367 -0.1677
19.3800 6.4433 -0.1692
19.4000 6.4500 -0.1663
19.4200 6.4567 -0.1806
19.4400 6.4634 -0.1672
19.4600 6.4701 -0.1625
19.4800 6.4768 -0.1823
19.5000 6.4835 -0.1662
19.5200 6.4901 -0.1634
19.5400 6.4967 -0.1792
19.5600 6.5033 -0.1675
19.5800 6.5100 -0.1606
19.6000 6.5167 -0.1762
19.6200 6.5234 -0.1685
19.6400 6.5301 -0.1649
19.6600 6.5368 -0.1776
19.6800 6.5435 -0.1682
19.7000 6.5501 -0.1699
19.7200 6.5567 -0.1733
19.7400 6.5633 -0.1622
19.7600 6.5699 -0.1730
19.7800 6.5767 -0.1732
19.8000 6.5834 -0.1667
19.8200 6.5901 -0.1688
19.8400 6.5967 -0.1679
19.8600 6.6034 -0.1647
19.8800 6.6101 -0.1719
19.9000 6.6167 -0.1653
19.9200 6.6233 -0.1725
19.9400 6.6300 -0.1747
19.9600 6.6367 -0.1625
19.9800 6.6434 -0.1675
20.0000 6.6501 -0.1752
20.0200 6.6568 -0.1664
20.0400 6.6635 -0.1760
20.0600 6.6702 -0.1681
20.0800 6.6767 -0.1669
20.1000 6.6834 -0.1771
20.1200 6.6900 -0.1642
20.1400 6.6967 -0.1690
20.1600 6.7035 -0.1794
20.1800 6.7101 -0.1607
20.2000 6.7168 -0.1718
20.2200 6.7235 -0.1823
20.2400 6.7301 -0.1611
20.2600 6.7367 -0.1746
20.2800 6.7433 -0.1754
20.3000 6.7500 -0.1654
20.3200 6.7567 -0.1734
20.3400 6.7634 -0.1739
20.3600 6.7701 -0.1660
20.3800 6.7767 -0.1709
20.4000 6.7834 -0.1743
20.4200 6.7901 -0.1677
20.4400 6.7967 -0.1744
20.4600 6.8033 -0.1684
20.4800 6.8100 -0.1638
20.5000 6.8167 -0.1782
20.5200 6.8234 -0.1714
20.5400 6.8301 -0.1692
20.5600 6.8368 -0.1750
20.5800 6.8435 -0.1733
20.6000 6.8501 -0.1633
20.6200 6.8567 -0.1734
20.6400 6.8634 -0.1725
20.6600 6.8700 -0.1608
20.6800 6.8767 -0.1770
20.7000 6.8835 -0.1772
20.7200 6.8901 -0.1630
20.7400 6.8968 -0.1772
20.7600 6.9035 -0.1739
20.7800 6.9101 -0.1665
20.8000 6.9167 -0.1756
20.8200 6.9233 -0.1722
20.8400 6.9300 -0.1663
20.8600 6.9367 -0.1727
20.8800 6.9434 -0.1708
20.9000 6.9501 -0.1723
20.9200 6.9568 -0.1748
20.9400 6.9635 -0.1712
20.9600 6.9701 -0.1725
20.9800 6.9768 -0.1715
21.0000 6.9834 -0.1701
21.0200 6.9900 -0.1708
21.0400 6.9967 -0.1730
21.0600 7.0034 -0.1714
21.0800 7.0101 -0.1696
21.1000 7.0168 -0.1732
21.1200 7.0235 -0.1742
21.1400 7.0301 -0.1661
21.1600 7.0367 -0.1770
21.1800 7.0433 -0.1747
21.2000 7.0499 -0.1608
21.2200 7.0566 -0.1720
21.2400 7.0634 -0.1779
21.2600 7.0701 -0.1681
21.2800 7.0767 -0.1734
21.3000 7.0834 -0.1745
21.3200 7.0901 -0.1694
21.3400 7.0967 -0.1707
21.3600 7.1033 -0.1708
21.3800 7.1100 -0.1702
21.4000 7.1167 -0.1762
21.4200 7.1234 -0.1727
21.4400 7.1301 -0.1729
21.4600 7.1368 -0.1710
21.4800 7.1435 -0.1744
21.5000 7.1501 -0.1759
21.5200 7.1568 -0.1734
21.5400 7.1634 -0.1747
21.5600 7.1700 -0.1766
21.5800 7.1767 -0.1686
21.6000 7.1834 -0.1773
21.6200 7.1901 -0.1762
21.6400 7.1968 -0.1704
21.6600 7.2035 -0.1784
21.6800 7.2102 -0.1762
21.7000 7.2168 -0.1694
21.7200 7.2233 -0.1784
21.7400 7.2300 -0.1714
21.7600 7.2367 -0.1698
21.7800 7.2434 -0.1840
21.8000 7.2501 -0.1705
21.8200 7.2568 -0.1699
21.8400 7.2635 -0.1820
21.8600 7.2701 -0.1711
21.8800 7.2767 -0.1732
21.9000 7.2833 -0.1839
21.9200 7.2900 -0.1680
21.9400 7.2967 -0.1696
21.9600 7.3034 -0.1823
21.9800 7.3100 -0.1732
22.0000 7.3167 -0.1728
22.0200 7.3234 -0.1822
22.0400 7.3301 -0.1649
22.0600 7.3367 -0.1755
22.0800 7.3434 -0.1814
22.1000 7.3500 -0.1666
22.1200 7.3567 -0.1769
22.1400 7.3634 -0.1826
22.1600 7.3701 -0.1663
22.1800 7.3768 -0.1749
22.2000 7.3835 -0.1821
22.2200 7.3902 -0.1721
22.2400 7.3968 -0.1722
22.2600 7.4034 -0.1840
22.2800 7.4100 -0.1680
22.3000 7.4167 -0.1733
22.3200 7.4234 -0.1854
22.3400 7.4301 -0.1709
22.3600 7.4368 -0.1730
22.3800 7.4435 -0.1798
22.4000 7.4501 -0.1744
22.4200 7.4567 -0.1792
22.4400 7.4633 -0.1779
22.4600 7.4700 -0.1750
22.4800 7.4767 -0.1735
22.5000 7.4834 -0.1783
22.5200 7.4901 -0.1791
22.5400 7.4968 -0.1724
22.5600 7.5034 -0.1775
22.5800 7.5101 -0.1767
22.6000 7.5167 -0.1734
22.6200 7.5233 -0.1786
22.6400 7.5299 -0.1784
22.6600 7.5366 -0.1663
22.6800 7.5434 -0.1844
22.7000 7.5501 -0.1758
22.7200 7.5568 -0.1656
22.7400 7.5635 -0.1837
22.7600 7.5701 -0.1758
22.7800 7.5767 -0.1706
22.8000 7.5833 -0.1830
22.8200 7.5900 -0.1718
22.8400 7.5967 -0.1715
22.8600 7.6034 -0.1782
22.8800 7.6101 -0.1732
22.9000 7.6168 -0.1814
22.9200 7.6235 -0.1827
22.9400 7.6301 -0.1695
22.9600 7.6368 -0.1767
22.9800 7.6434 -0.1816
23.0000 7.6500 -0.1762
23.0200 7.6567 -0.1806
23.0400 7.6634 -0.1792
23.0600 7.6701 -0.1726
23.0800 7.6768 -0.1815
23.1000 7.6835 -0.1815
23.1200 7.6902 -0.1794
23.1400 7.6968 -0.1816
23.1600 7.7034 -0.1721
23.1800 7.7100 -0.1719
23.2000 7.7167 -0.1821
23.2200 7.7234 -0.1845
23.2400 7.7301 -0.1739
23.2600 7.7368 -0.1767
23.2800 7.7434 -0.1793
23.3000 7.7501 -0.1804
23.3200 7.7567 -0.1722
23.3400 7.7633 -0.1812
23.3600 7.7700 -0.1803
23.3800 7.7766 -0.1751
23.4000 7.7833 -0.1829
23.4200 7.7900 -0.1768
23.4400 7.7967 -0.1720
23.4600 7.8034 -0.1864
23.4800 7.8101 -0.1816
23.5000 7.8167 -0.1751
23.5200 7.8234 -0.1807
23.5400 7.8300 -0.1793
23.5600 7.8367 -0.1751
23.5800 7.8434 -0.1884
23.6000 7.8501 -0.1767
23.6200 7.8568 -0.1738
23.6400 7.8635 -0.1836
23.6600 7.8702 -0.1745
23.6800 7.8768 -0.1829
23.7000 7.8834 -0.1830
23.7200 7.8900 -0.1737
23.7400 7.8967 -0.1824
23.7600 7.9034 -0.1827
23.7800 7.9101 -0.1763
23.8000 7.9168 -0.1843
23.8200 7.9235 -0.1784
23.8400 7.9302 -0.1797
23.8600 7.9368 -0.1884
23.8800 7.9434 -0.1741
23.9000 7.9500 -0.1767
23.9200 7.9567 -0.1895
23.9400 7.9634 -0.1769
23.9600 7.9701 -0.1740
23.9800 7.9768 -0.1837
24.0000 7.9834 -0.1815
24.0200 7.9901 -0.1750
24.0400 7.9968 -0.1856
24.0600 8.0034 -0.1818
24.0800 8.0100 -0.1742
24.1000 8.0167 -0.1812
24.1200 8.0234 -0.1820
24.1400 8.0301 -0.1809
24.1600 8.0367 -0.1793
24.1800 8.0434 -0.1838
24.2000 8.0501 -0.1763
24.2200 8.0568 -0.1780
24.2400 8.0634 -0.1885
24.2600 8.0700 -0.1750
24.2800 8.0767 -0.1786
24.3000 8.0834 -0.1833
24.3200 8.0901 -0.1784
24.3400 8.0968 -0.1748
24.3600 8.1035 -0.1870
24.3800 8.1101 -0.1838
24.4000 8.1168 -0.1738
24.4200 8.1234 -0.1794
24.4400 8.1300 -0.1818
24.4600 8.1367 -0.1805
24.4800 8.1434 -0.1821
24.5000 8.1501 -0.1821
24.5200 8.1568 -0.1784
24.5400 8.1635 -0.1795
24.5600 8.1701 -0.1862
24.5800 8.1768 -0.1759
24.6000 8.1834 -0.1793
24.6200 8.1900 -0.1879
24.6400 8.1967 -0.1734
24.6600 8.2033 -0.1810
24.6800 8.2100 -0.1883
24.7000 8.2167 -0.1742
24.7200 8.2234 -0.1761
24.7400 8.2301 -0.1856
24.7600 8.2368 -0.1778
24.7800 8.2434 -0.1822
24.8000 8.2500 -0.1825
24.8200 8.2566 -0.1746
24.8400 8.2634 -0.1831
24.8600 8.2701 -0.1872
24.8800 8.2768 -0.1751
24.9000 8.2834 -0.1835
24.9200 8.2901 -0.1832
24.9400 8.2968 -0.1767
24.9600 8.3034 -0.1837
24.9800 8.3100 -0.1865
25.0000 8.3167 -0.1732
25.0200 8.3234 -0.1812
25.0400 8.3301 -0.1849
25.0600 8.3368 -0.1774
25.0800 8.3434 -0.1772
25.1000 8.3501 -0.1899
25.1200 8.3568 -0.1803
25.1400 8.3634 -0.1771
25.1600 8.3700 -0.1859
25.1800 8.3767 -0.1774
25.2000 8.3834 -0.1802
25.2200 8.3901 -0.1843
25.2400 8.3968 -0.1770
25.2600 8.4035 -0.1803
25.2800 8.4101 -0.1855
25.3000 8.4168 -0.1780
25.3200 8.4234 -0.1794
25.3400 8.4300 -0.1853
25.3600 8.4367 -0.1788
25.3800 8.4434 -0.1738
25.4000 8.4501 -0.1867
25.4200 8.4568 -0.1830
25.4400 8.4635 -0.1766
25.4600 8.4701 -0.1850
25.4800 8.4768 -0.1819
25.5000 8.4834 -0.1734
25.5200 8.4900 -0.1868
25.5400 8.4966 -0.1819
25.5600 8.5033 -0.1737
25.5800 8.5100 -0.1887
25.6000 8.5167 -0.1853
25.6200 8.5234 -0.1736
25.6400 8.5301 -0.1889
25.6600 8.5368 -0.1841
25.6800 8.5434 -0.1765
25.7000 8.5500 -0.1862
25.7200 8.5566 -0.1806
25.7400 8.5634 -0.1798
25.7600 8.5701 -0.1894
25.7800 8.5768 -0.1799
25.8000 8.5835 -0.1797
25.8200 8.5902 -0.1868
25.8400 8.5968 -0.1866
25.8600 8.6034 -0.1750
25.8800 8.6100 -0.1884
25.9000 8.6167 -0.1808
25.9200 8.6234 -0.1764
25.9400 8.6301 -0.1882
25.9600 8.6368 -0.1842
25.9800 8.6435 -0.1835
26.0000 8.6502 -0.1894
26.0200 8.6568 -0.1779
26.0400 8.6634 -0.1802
26.0600 8.6700 -0.1928
26.0800 8.6767 -0.1787
26.1000 8.6834 -0.1792
26.1200 8.6901 -0.1919
26.1400 8.6967 -0.1782
26.1600 8.7034 -0.1782
26.1800 8.7101 -0.1863
26.2000 8.7168 -0.1835
26.2200 8.7234 -0.1810
26.2400 8.7300 -0.1839
26.2600 8.7366 -0.1792
26.2800 8.7433 -0.1833
26.3000 8.7500 -0.1896
26.3200 8.7567 -0.1777
26.3400 8.7634 -0.1874
26.3600 8.7701 -0.1877
26.3800 8.7768 -0.1833
26.4000 8.7834 -0.1853
26.4200 8.7900 -0.1828
26.4400 8.7966 -0.1839
26.4600 8.8034 -0.1834
26.4800 8.8101 -0.1820
26.5000 8.8168 -0.1921
26.5200 8.8235 -0.1839
26.5400 8.8302 -0.1810
26.5600 8.8368 -0.1883
26.5800 8.8434 -0.1888
26.6000 8.8500 -0.1825
26.6200 8.8567 -0.1872
26.6400 8.8634 -0.1804
26.6600 8.8701 -0.1844
26.6800 8.8768 -0.1925
26.7000 8.8835 -0.1778
26.7200 8.8902 -0.1839
26.7400 8.8968 -0.1929
26.7600 8.9034 -0.1764
26.7800 8.9100 -0.1857
26.8000 8.9166 -0.1886
26.8200 8.9233 -0.1766
26.8400 8.9301 -0.1893
26.8600 8.9368 -0.1874
26.8800 8.9434 -0.1782
26.9000 8.9501 -0.1916
26.9200 8.9568 -0.1878
26.9400 8.9634 -0.1731
26.9600 8.9700 -0.1929
26.9800 8.9766 -0.1888
27.0000 8.9833 -0.1767
27.0200 8.9901 -0.1896
27.0400 8.9967 -0.1889
27.0600 9.0034 -0.1808
27.0800 9.0101 -0.1889
27.1000 9.0168 -0.1869
27.1200 9.0234 -0.1833
27.1400 9.0300 -0.1873
27.1600 9.0367 -0.1859
27.1800 9.0433 -0.1837
27.2000 9.0500 -0.1888
27.2200 9.0567 -0.1802
27.2400 9.0634 -0.1872
27.2600 9.0702 -0.1895
27.2800 9.0768 -0.1884
27.3000 9.0834 -0.1877
27.3200 9.0900 -0.1809
27.3400 9.0967 -0.1841
27.3600 9.1034 -0.1893
27.3800 9.1101 -0.1872
27.4000 9.1168 -0.1864
27.4200 9.1235 -0.1868
27.4400 9.1301 -0.1857
27.4600 9.1368 -0.1906
27.4800 9.1434 -0.1920
27.5000 9.1500 -0.1831
27.5200 9.1567 -0.1896
27.5400 9.1634 -0.1885
27.5600 9.1701 -0.1801
27.5800 9.1768 -0.1968
27.6000 9.1834 -0.1875
27.6200 9.1901 -0.1851
27.6400 9.1968 -0.1940
27.6600 9.2034 -0.1843
27.6800 9.2100 -0.1854
27.7000 9.2166 -0.1947
27.7200 9.2233 -0.1863
27.7400 9.2300 -0.1888
27.7600 9.2367 -0.1935
27.7800 9.2434 -0.1858
27.8000 9.2501 -0.1893
27.8200 9.2568 -0.1947
27.8400 9.2634 -0.1890
27.8600 9.2700 -0.1880
27.8800 9.2766 -0.1799
27.9000 9.2833 -0.1951
27.9200 9.2901 -0.1911
27.9400 9.2968 -0.1860
27.9600 9.3035 -0.1949
27.9800 9.3102 -0.1903
28.0000 9.3168 -0.1875
28.0200 9.3234 -0.1954
28.0400 9.3300 -0.1847
28.0600 9.3367 -0.1873
28.0800 9.3434 -0.1971
28.1000 9.3501 -0.1869
28.1200 9.3568 -0.1865
28.1400 9.3634 -0.1962
28.1600 9.3701 -0.1828
28.1800 9.3768 -0.1908
28.2000 9.3834 -0.1953
28.2200 9.3900 -0.1827
28.2400 9.3966 -0.1903
28.2600 9.4033 -0.1964
28.2800 9.4100 -0.1805
28.3000 9.4167 -0.1938
28.3200 9.4234 -0.1951
28.3400 9.4301 -0.1845
28.3600 9.4368 -0.1951
28.3800 9.4434 -0.1921
28.4000 9.4500 -0.1867
28.4200 9.4566 -0.1919
28.4400 9.4633 -0.1900
28.4600 9.4700 -0.1855
28.4800 9.4767 -0.1906
28.5000 9.4834 -0.1908
28.5200 9.4901 -0.1906
28.5400 9.4968 -0.1885
28.5600 9.5034 -0.1918
28.5800 9.5100 -0.1924
28.6000 9.5167 -0.1875
28.6200 9.5233 -0.1909
28.6400 9.5301 -0.1932
28.6600 9.5368 -0.1817
28.6800 9.5435 -0.1938
28.7000 9.5501 -0.1932
28.7200 9.5568 -0.1809
28.7400 9.5634 -0.1971
28.7600 9.5701 -0.1949
28.7800 9.5767 -0.1760
28.8000 9.5834 -0.1969
28.8200 9.5901 -0.1930
28.8400 9.5968 -0.1828
28.8600 9.6035 -0.1954
28.8800 9.6102 -0.1909
28.9000 9.6168 -0.1871
28.9200 9.6235 -0.1990
28.9400 9.6301 -0.1874
28.9600 9.6367 -0.1844
28.9800 9.6433 -0.1940
29.0000 9.6500 -0.1885
29.0200 9.6567 -0.1914
29.0400 9.6634 -0.1908
29.0600 9.6701 -0.1857
29.0800 9.6768 -0.1914
29.1000 9.6834 -0.1916
29.1200 9.6900 -0.1879
29.1400 9.6967 -0.1936
29.1600 9.7033 -0.1845
29.1800 9.7100 -0.1865
29.2000 9.7167 -0.1971
29.2200 9.7234 -0.1900
29.2400 9.7301 -0.1860
29.2600 9.7368 -0.1920
29.2800 9.7434 -0.1895
29.3000 9.7501 -0.1944
29.3200 9.7567 -0.1904
29.3400 9.7634 -0.1912
29.3600 9.7701 -0.1952
29.3800 9.7768 -0.1834
29.4000 9.7834 -0.1874
29.4200 9.7901 -0.1995
29.4400 9.7968 -0.1853
29.4600 9.8035 -0.1926
29.4800 9.8101 -0.1938
29.5000 9.8167 -0.1806
29.5200 9.8233 -0.1941
29.5400 9.8301 -0.1979
29.5600 9.8368 -0.1798
29.5800 9.8434 -0.1979
29.6000 9.8501 -0.1935
29.6200 9.8568 -0.1802
29.6400 9.8635 -0.1986
29.6600 9.8701 -0.1935
29.6800 9.8767 -0.1806
29.7000 9.8834 -0.1986
29.7200 9.8901 -0.1879
29.7400 9.8967 -0.1837
29.7600 9.9034 -0.2027
29.7800 9.9101 -0.1869
29.8000 9.9168 -0.1845
29.8200 9.9234 -0.1998
29.8400 9.9300 -0.1914
29.8600 9.9366 -0.1857
29.8800 9.9433 -0.1961
29.9000 9.9500 -0.1884
29.9200 9.9567 -0.1901
29.9400 9.9634 -0.1969
29.9600 9.9701 -0.1886
29.9800 9.9767 -0.1939
30.0000 9.9834 -0.2004
30.0200 9.9900 -0.1865
30.0400 9.9966 -0.1892
30.0600 10.0033 -0.1969
30.0800 10.0101 -0.1903
30.1000 10.0168 -0.1876
30.1200 10.0235 -0.1991
30.1400 10.0301 -0.1921
30.1600 10.0368 -0.1900
30.1800 10.0435 -0.1959
30.2000 10.0501 -0.1960
30.2200 10.0567 -0.1900
30.2400 10.0634 -0.1935
30.2600 10.0701 -0.1949
30.2800 10.0768 -0.1915
30.3000 10.0835 -0.1963
30.3200 10.0901 -0.2016
30.3400 10.0968 -0.1859
30.3600 10.1035 -0.2000
30.3800 10.1101 -0.1953
30.4000 10.1167 -0.1881
30.4200 10.1233 -0.1959
30.4400 10.1300 -0.1960
30.4600 10.1367 -0.1902
30.4800 10.1434 -0.1964
30.5000 10.1501 -0.2010
30.5200 10.1568 -0.1880
30.5400 10.1634 -0.2001
30.5600 10.1700 -0.1987
30.5800 10.1766 -0.1865
30.6000 10.1833 -0.1989
30.6200 10.1900 -0.1963
30.6400 10.1968 -0.1900
30.6600 10.2034 -0.2015
30.6800 10.2101 -0.1985
30.7000 10.2168 -0.1894
30.7200 10.2235 -0.2009
30.7400 10.2301 -0.2030
30.7600 10.2367 -0.1865
30.7800 10.2434 -0.2004
30.8000 10.2501 -0.1966
30.8200 10.2567 -0.1856
30.8400 10.2634 -0.1974
30.8600 10.2701 -0.1962
30.8800 10.2768 -0.1875
30.9000 10.2835 -0.2052
30.9200 10.2901 -0.1949
30.9400 10.2967 -0.1836
30.9600 10.3033 -0.2013
30.9800 10.3100 -0.1959
31.0000 10.3168 -0.1862
31.0200 10.3235 -0.2050
31.0400 10.3301 -0.1924
31.0600 10.3368 -0.1916
31.0800 10.3434 -0.2013
31.1000 10.3500 -0.1961
31.1200 10.3567 -0.1956
31.1400 10.3633 -0.1971
31.1600 10.3700 -0.1918
31.1800 10.3767 -0.1922
31.2000 10.3834 -0.2018
31.2200 10.3901 -0.1939
31.2400 10.3968 -0.1891
31.2600 10.4034 -0.2037
31.2800 10.4101 -0.1976
31.3000 10.4167 -0.1926
31.3200 10.4233 -0.1963
31.3400 10.4300 -0.2015
31.3600 10.4367 -0.1982
31.3800 10.4434 -0.1885
31.4000 10.4501 -0.2023
31.4200 10.4568 -0.1951
31.4400 10.4635 -0.1952
31.4600 10.4701 -0.2028
31.4800 10.4767 -0.1904
31.5000 10.4833 -0.1943
31.5200 10.4900 -0.2045
31.5400 10.4968 -0.1892
31.5600 10.5035 -0.1988
31.5800 10.5102 -0.2066
31.6000 10.5168 -0.1876
31.6200 10.5235 -0.1938
31.6400 10.5301 -0.2087
31.6600 10.5367 -0.1879
31.6800 10.5433 -0.1931
31.7000 10.5500 -0.2007
31.7200 10.5568 -0.1907
31.7400 10.5635 -0.1952
31.7600 10.5701 -0.2033
31.7800 10.5768 -0.1875
31.8000 10.5835 -0.1974
31.8200 10.5901 -0.2027
31.8400 10.5967 -0.1845
31.8600 10.6033 -0.1960
31.8800 10.6100 -0.2046
31.9000 10.6167 -0.1855
31.9200 10.6234 -0.1985
31.9400 10.6301 -0.2012
31.9600 10.6368 -0.1890
31.9800 10.6435 -0.2030
32.0000 10.6501 -0.1992
32.0200 10.6566 -0.1891
32.0400 10.6633 -0.1988
32.0600 10.6700 -0.1972
32.0800 10.6767 -0.1962
32.1000 10.6834 -0.1983
32.1200 10.6901 -0.1965
32.1400 10.6968 -0.1959
32.1600 10.7034 -0.1986
32.1800 10.7101 -0.1946
32.2000 10.7167 -0.1968
32.2200 10.7233 -0.1968
32.2400 10.7300 -0.1899
32.2600 10.7368 -0.2028
32.2800 10.7435 -0.1988
32.3000 10.7501 -0.1948
32.3200 10.7568 -0.2011
32.3400 10.7635 -0.1949
32.3600 10.7701 -0.1924
32.3800 10.7767 -0.2034
32.4000 10.7834 -0.1877
32.4200 10.7900 -0.1932
32.4400 10.7967 -0.2070
32.4600 10.8034 -0.1899
32.4800 10.8101 -0.1949
32.5000 10.8168 -0.2048
32.5200 10.8235 -0.1911
32.5400 10.8301 -0.1995
32.5600 10.8367 -0.2026
32.5800 10.8433 -0.1929
32.6000 10.8500 -0.1971
32.6200 10.8567 -0.2025
32.6400 10.8634 -0.1945
32.6600 10.8701 -0.1962
32.6800 10.8768 -0.2011
32.7000 10.8834 -0.1943
32.7200 10.8901 -0.1984
32.7400 10.8967 -0.1990
32.7600 10.9033 -0.1968
32.7800 10.9100 -0.2010
32.8000 10.9167 -0.1990
32.8200 10.9234 -0.1943
32.8400 10.9301 -0.1997
32.8600 10.9367 -0.1989
32.8800 10.9434 -0.1923
32.9000 10.9501 -0.2018
32.9200 10.9567 -0.2011
32.9400 10.9633 -0.1937
32.9600 10.9700 -0.2026
32.9800 10.9767 -0.1946
33.0000 10.9834 -0.1975
33.0200 10.9901 -0.2060
33.0400 10.9968 -0.1946
33.0600 11.0035 -0.1975
33.0800 11.0101 -0.2015
33.1000 11.0167 -0.1972
33.1200 11.0233 -0.1967
33.1400 11.0300 -0.1976
33.1600 11.0368 -0.1986
33.1800 11.0435 -0.1952
33.2000 11.0501 -0.1975
33.2200 11.0568 -0.1995
33.2400 11.0635 -0.2002
33.2600 11.0701 -0.1982
33.2800 11.0767 -0.1996
33.3000 11.0833 -0.1975
33.3200 11.0900 -0.1967
33.3400 11.0967 -0.2061
33.3600 11.1034 -0.1998
33.3800 11.1101 -0.1963
33.4000 11.1167 -0.2043
33.4200 11.1234 -0.1977
33.4400 11.1301 -0.1950
33.4600 11.1367 -0.2042
33.4800 11.1433 -0.1952
33.5000 11.1500 -0.1962
33.5200 11.1567 -0.2038
33.5400 11.1634 -0.1948
33.5600 11.1701 -0.1970
33.5800 11.1768 -0.2035
33.6000 11.1834 -0.1921
33.6200 11.1901 -0.2009
33.6400 11.1967 -0.2011
33.6600 11.2033 -0.1962
33.6800 11.2100 -0.1939
33.7000 11.2168 -0.2030
33.7200 11.2235 -0.1959
33.7400 11.2302 -0.1957
33.7600 11.2368 -0.2035
33.7800 11.2435 -0.1971
33.8000 11.2501 -0.1924
33.8200 11.2567 -0.2035
33.8400 11.2633 -0.1925
33.8600 11.2700 -0.2009
33.8800 11.2767 -0.2003
33.9000 11.2834 -0.1903
33.9200 11.2901 -0.2008
33.9400 11.2968 -0.2037
33.9600 11.3035 -0.1927
33.9800 11.3101 -0.1991
34.0000 11.3167 -0.2044
34.0200 11.3233 -0.1917
34.0400 11.3300 -0.1976
34.0600 11.3367 -0.2012
34.0800 11.3434 -0.1970
34.1000 11.3501 -0.1976
34.1200 11.3568 -0.2001
34.1400 11.3635 -0.1989
34.1600 11.3701 -0.2012
34.1800 11.3767 -0.2050
34.2000 11.3833 -0.1954
34.2200 11.3899 -0.1961
34.2400 11.3967 -0.2022
34.2600 11.4034 -0.1992
34.2800 11.4101 -0.1964
34.3000 11.4167 -0.2025
34.3200 11.4234 -0.1997
34.3400 11.4301 -0.1963
34.3600 11.4367 -0.2006
34.3800 11.4433 -0.1964
34.4000 11.4500 -0.2020
34.4200 11.4567 -0.1989
34.4400 11.4634 -0.2006
34.4600 11.4701 -0.1999
34.4800 11.4768 -0.1957
34.5000 11.4835 -0.2052
34.5200 11.4902 -0.1982
34.5400 11.4968 -0.1982
34.5600 11.5034 -0.2044
34.5800 11.5100 -0.1911
34.6000 11.5167 -0.2015
34.6200 11.5235 -0.2057
34.6400 11.5301 -0.1934
34.6600 11.5368 -0.2003
34.6800 11.5435 -0.2112
34.7000 11.5501 -0.1907
34.7200 11.5567 -0.1972
34.7400 11.5633 -0.2059
34.7600 11.5700 -0.1975
34.7800 11.5767 -0.2019
34.8000 11.5834 -0.2007
34.8200 11.5901 -0.2010
34.8400 11.5967 -0.2034
34.8600 11.6034 -0.1953
34.8800 11.6101 -0.2000
34.9000 11.6167 -0.2063
34.9200 11.6233 -0.1966
34.9400 11.6300 -0.1945
34.9600 11.6367 -0.2057
34.9800 11.6434 -0.2020
35.0000 11.6501 -0.1966
35.0200 11.6568 -0.2068
35.0400 11.6635 -0.1984
35.0600 11.6702 -0.1999
35.0800 11.6768 -0.2047
35.1000 11.6834 -0.1952
35.1200 11.6900 -0.1978
35.1400 11.6967 -0.2089
35.1600 11.7034 -0.2037
35.1800 11.7101 -0.1981
35.2000 11.7168 -0.2068
35.2200 11.7235 -0.2003
35.2400 11.7301 -0.1963
35.2600 11.7367 -0.2082
35.2800 11.7433 -0.2006
35.3000 11.7500 -0.1990
35.3200 11.7567 -0.2037
35.3400 11.7634 -0.1999
35.3600 11.7701 -0.1987
35.3800 11.7768 -0.2053
35.4000 11.7835 -0.1976
35.4200 11.7902 -0.2010
35.4400 11.7968 -0.2053
35.4600 11.8034 -0.1972
35.4800 11.8100 -0.2048
35.5000 11.8167 -0.2024
35.5200 11.8234 -0.1958
35.5400 11.8301 -0.2040
35.5600 11.8368 -0.2009
35.5800 11.8435 -0.1966
35.6000 11.8501 -0.2004
35.6200 11.8567 -0.2057
35.6400 11.8633 -0.2043
35.6600 11.8700 -0.1949
35.6800 11.8766 -0.1980
35.7000 11.8834 -0.2085
35.7200 11.8901 -0.1985
35.7400 11.8968 -0.1936
35.7600 11.9034 -0.2092
35.7800 11.9101 -0.2009
35.8000 11.9167 -0.1920
35.8200 11.9233 -0.2054
35.8400 11.9300 -0.1983
35.8600 11.9367 -0.1955
35.8800 11.9434 -0.2082
35.9000 11.9501 -0.1941
35.9200 11.9568 -0.1978
35.9400 11.9635 -0.2087
35.9600 11.9701 -0.1957
35.9800 11.9768 -0.2015
36.0000 11.9834 -0.2039
36.0200 11.9900 -0.1969
36.0400 11.9967 -0.2047
36.0600 12.0034 -0.2013
36.0800 12.0101 -0.2009
36.1000 12.0168 -0.2011
36.1200 12.0235 -0.1978
36.1400 12.0302 -0.1982
36.1600 12.0368 -0.2105
36.1800 12.0433 -0.1964
36.2000 12.0500 -0.1982
36.2200 12.0567 -0.2037
36.2400 12.0634 -0.1984
36.2600 12.0701 -0.2047
36.2800 12.0768 -0.2031
36.3000 12.0834 -0.1972
36.3200 12.0901 -0.2063
36.3400 12.0967 -0.2023
36.3600 12.1033 -0.1994
36.3800 12.1100 -0.2041
36.4000 12.1167 -0.2011
36.4200 12.1234 -0.1988
36.4400 12.1300 -0.2049
36.4600 12.1367 -0.2006
36.4800 12.1434 -0.1988
36.5000 12.1501 -0.2065
36.5200 12.1568 -0.2000
36.5400 12.1634 -0.2039
36.5600 12.1700 -0.2063
36.5800 12.1767 -0.1972
36.6000 12.1834 -0.2039
36.6200 12.1901 -0.2063
36.6400 12.1968 -0.1914
36.6600 12.2035 -0.2095
36.6800 12.2102 -0.2049
36.7000 12.2168 -0.1942
36.7200 12.2234 -0.2108
36.7400 12.2300 -0.2036
36.7600 12.2367 -0.1913
36.7800 12.2434 -0.2111
36.8000 12.2501 -0.2058
36.8200 12.2568 -0.1937
36.8400 12.2635 -0.2095
36.8600 12.2701 -0.2043
36.8800 12.2767 -0.1972
36.9000 12.2833 -0.2142
36.9200 12.2900 -0.1959
36.9400 12.2967 -0.2019
36.9600 12.3034 -0.2087
36.9800 12.3101 -0.1956
37.0000 12.3168 -0.2038
37.0200 12.3234 -0.2128
37.0400 12.3301 -0.1980
37.0600 12.3368 -0.2034
37.0800 12.3433 -0.2099
37.1000 12.3500 -0.1982
37.1200 12.3566 -0.2005
37.1400 12.3634 -0.2090
37.1600 12.3701 -0.1996
37.1800 12.3768 -0.2011
37.2000 12.3835 -0.2106
37.2200 12.3901 -0.2050
37.2400 12.3968 -0.2003
37.2600 12.4033 -0.2098
37.2800 12.4100 -0.2045
37.3000 12.4167 -0.1977
37.3200 12.4234 -0.2103
37.3400 12.4301 -0.2046
37.3600 12.4368 -0.1991
37.3800 12.4435 -0.2122
37.4000 12.4502 -0.2050
37.4200 12.4568 -0.1980
37.4400 12.4634 -0.2098
37.4600 12.4700 -0.2012
37.4800 12.4767 -0.2005
37.5000 12.4834 -0.2161
37.5200 12.4901 -0.2039
37.5400 12.4968 -0.1976
37.5600 12.5035 -0.2087
37.5800 12.5102 -0.2023
37.6000 12.5168 -0.2039
37.6200 12.5234 -0.2105
37.6400 12.5300 -0.2045
37.6600 12.5366 -0.2015
37.6800 12.5434 -0.2075
37.7000 12.5501 -0.2046
37.7200 12.5567 -0.2032
37.7400 12.5634 -0.2045
37.7600 12.5701 -0.2053
37.7800 12.5767 -0.2068
37.8000 12.5833 -0.2049
37.8200 12.5899 -0.2082
37.8400 12.5966 -0.2052
37.8600 12.6033 -0.1988
37.8800 12.6100 -0.2140
37.9000 12.6167 -0.2080
37.9200 12.6234 -0.1985
37.9400 12.6301 -0.2159
37.9600 12.6367 -0.2049
37.9800 12.6434 -0.2014
38.0000 12.6500 -0.2162
38.0200 12.6567 -0.2021
38.0400 12.6634 -0.2004
38.0600 12.6701 -0.2193
38.0800 12.6768 -0.1954
38.1000 12.6835 -0.2014
38.1200 12.6902 -0.2298
38.1400 12.6968 -0.1970
38.1600 12.7034 -0.1971
38.1800 12.7100 -0.2237
38.2000 12.7167 -0.1959
38.2200 12.7234 -0.2060
38.2400 12.7301 -0.2220
38.2600 12.7368 -0.1961
38.2800 12.7435 -0.2030
38.3000 12.7501 -0.2227
38.3200 12.7568 -0.1981
38.3400 12.7634 -0.2011
38.3600 12.7700 -0.2223
38.3800 12.7767 -0.1964
38.4000 12.7834 -0.1997
38.4200 12.7901 -0.2233
38.4400 12.7968 -0.1990
38.4600 12.8034 -0.2017
38.4800 12.8101 -0.2222
38.5000 12.8168 -0.1967
38.5200 12.8234 -0.2027
38.5400 12.8300 -0.2233
38.5600 12.8367 -0.1928
38.5800 12.8434 -0.2019
38.6000 12.8501 -0.2266
38.6200 12.8567 -0.1930
38.6400 12.8634 -0.2004
38.6600 12.8701 -0.2229
38.6800 12.8768 -0.2022
38.7000 12.8834 -0.2009
38.7200 12.8900 -0.2141
38.7400 12.8967 -0.1957
38.7600 12.9034 -0.2082
38.7800 12.9101 -0.2212
38.8000 12.9168 -0.1947
38.8200 12.9235 -0.2087
38.8400 12.9302 -0.2162
38.8600 12.9368 -0.1945
38.8800 12.9434 -0.2166
38.9000 12.9500 -0.2084
38.9200 12.9567 -0.1976
38.9400 12.9634 -0.2135
38.9600 12.9701 -0.2040
38.9800 12.9768 -0.2044
39.0000 12.9835 -0.2167
39.0200 12.9901 -0.2044
39.0400 12.9968 -0.2007
39.0600 13.0034 -0.2164
39.0800 13.0100 -0.2042
39.1000 13.0167 -0.2063
39.1200 13.0234 -0.2153
39.1400 13.0301 -0.1990
39.1600 13.0367 -0.2078
39.1800 13.0434 -0.2072
39.2000 13.0501 -0.2031
39.2200 13.0568 -0.2153
39.2400 13.0634 -0.2078
39.2600 13.0700 -0.1980
39.2800 13.0766 -0.2111
39.3000 13.0833 -0.2072
39.3200 13.0901 -0.2068
39.3400 13.0968 -0.2121
39.3600 13.1034 -0.2041
39.3800 13.1101 -0.2052
39.4000 13.1168 -0.2138
39.4200 13.1234 -0.2034
39.4400 13.1300 -0.2053
39.4600 13.1367 -0.2099
39.4800 13.1434 -0.2048
39.5000 13.1501 -0.2111
39.5200 13.1568 -0.2064
39.5400 13.1634 -0.2054
39.5600 13.1701 -0.2092
39.5800 13.1768 -0.2039
39.6000 13.1834 -0.2107
39.6200 13.1900 -0.2096
39.6400 13.1967 -0.2035
39.6600 13.2034 -0.2098
39.6800 13.2101 -0.2080
39.7000 13.2168 -0.1989
39.7200 13.2235 -0.2104
39.7400 13.2301 -0.2135
39.7600 13.2368 -0.1994
39.7800 13.2434 -0.2154
39.8000 13.2500 -0.2065
39.8200 13.2567 -0.1994
39.8400 13.2634 -0.2152
39.8600 13.2701 -0.2066
39.8800 13.2768 -0.2044
39.9000 13.2835 -0.2158
39.9200 13.2901 -0.1983
39.9400 13.2968 -0.2109
39.9600 13.3034 -0.2155
39.9800 13.3100 -0.2033
40.0000 13.3166 -0.2037
40.0200 13.3233 -0.2163
40.0400 13.3300 -0.2044
40.0600 13.3367 -0.2110
40.0800 13.3434 -0.2110
40.1000 13.3500 -0.2051
40.1200 13.3567 -0.2144
40.1400 13.3634 -0.2077
40.1600 13.3700 -0.2044
40.1800 13.3767 -0.2138
40.2000 13.3834 -0.2083
40.2200 13.3901 -0.2032
40.2400 13.3968 -0.2164
40.2600 13.4035 -0.2104
40.2800 13.4102 -0.2046
40.3000 13.4168 -0.2149
40.3200 13.4234 -0.2086
40.3400 13.4300 -0.2086
40.3600 13.4367 -0.2129
40.3800 13.4434 -0.2044
40.4000 13.4501 -0.2098
40.4200 13.4568 -0.2152
40.4400 13.4635 -0.2050
40.4600 13.4701 -0.2064
40.4800 13.4768 -0.2136
40.5000 13.4834 -0.2097
40.5200 13.4900 -0.2104
40.5400 13.4966 -0.2091
40.5600 13.5033 -0.2078
40.5800 13.5100 -0.2143
40.6000 13.5167 -0.2118
40.6200 13.5234 -0.2010
40.6400 13.5301 -0.2115
40.6600 13.5368 -0.2087
40.6800 13.5434 -0.2131
40.7000 13.5500 -0.2068
40.7200 13.5566 -0.2081
40.7400 13.5633 -0.2102
40.7600 13.5700 -0.2099
40.7800 13.5767 -0.2098
40.8000 13.5834 -0.2101
40.8200 13.5901 -0.2114
40.8400 13.5968 -0.2120
40.8600 13.6034 -0.2124
40.8800 13.6100 -0.2054
40.9000 13.6166 -0.2106
40.9200 13.6233 -0.2167
40.9400 13.6301 -0.2018
40.9600 13.6368 -0.2120
40.9800 13.6434 -0.2165
41.0000 13.6501 -0.2026
41.0200 13.6568 -0.2132
41.0400 13.6635 -0.2134
41.0600 13.6701 -0.2038
41.0800 13.6767 -0.2105
41.1000 13.6834 -0.2103
41.1200 13.6901 -0.2035
41.1400 13.6968 -0.2128
41.1600 13.7034 -0.2064
41.1800 13.7101 -0.2107
41.2000 13.7168 -0.2122
41.2200 13.7235 -0.2080
41.2400 13.7300 -0.2055
41.2600 13.7366 -0.2133
41.2800 13.7433 -0.2074
41.3000 13.7500 -0.2081
41.3200 13.7567 -0.2121
41.3400 13.7634 -0.2118
41.3600 13.7701 -0.2048
41.3800 13.7768 -0.2126
41.4000 13.7834 -0.2106
41.4200 13.7900 -0.2022
41.4400 13.7966 -0.2114
41.4600 13.8033 -0.2111
41.4800 13.8100 -0.2019
41.5000 13.8167 -0.2146
41.5200 13.8234 -0.2142
41.5400 13.8301 -0.1983
41.5600 13.8368 -0.2123
41.5800 13.8434 -0.2163
41.6000 13.8501 -0.2002
41.6200 13.8567 -0.2148
41.6400 13.8634 -0.2111
41.6600 13.8701 -0.2003
41.6800 13.8768 -0.2153
41.7000 13.8834 -0.2092
41.7200 13.8901 -0.2073
41.7400 13.8968 -0.2163
41.7600 13.9034 -0.2116
41.7800 13.9100 -0.2034
41.8000 13.9166 -0.2164
41.8200 13.9234 -0.2067
41.8400 13.9301 -0.2017
41.8600 13.9368 -0.2228
41.8800 13.9435 -0.2063
41.9000 13.9502 -0.2025
41.9200 13.9568 -0.2248
41.9400 13.9634 -0.2009
41.9600 13.9700 -0.2069
41.9800 13.9767 -0.2191
42.0000 13.9834 -0.2018
42.0200 13.9901 -0.2078
42.0400 13.9968 -0.2186
42.0600 14.0034 -0.2010
42.0800 14.0101 -0.2119
42.1000 14.0168 -0.2136
42.1200 14.0234 -0.2019
42.1400 14.0300 -0.2153
42.1600 14.0366 -0.2116
42.1800 14.0433 -0.2049
42.2000 14.0500 -0.2195
42.2200 14.0567 -0.2054
42.2400 14.0634 -0.2110
42.2600 14.0701 -0.2170
42.2800 14.0768 -0.2091
42.3000 14.0834 -0.2149
42.3200 14.0900 -0.2140
42.3400 14.0967 -0.2058
42.3600 14.1033 -0.2120
42.3800 14.1101 -0.2109
42.4000 14.1168 -0.2114
42.4200 14.1235 -0.2171
42.4400 14.1302 -0.2107
42.4600 14.1368 -0.2150
42.4800 14.1435 -0.2193
42.5000 14.1501 -0.2097
42.5200 14.1567 -0.2102
42.5400 14.1634 -0.2196
42.5600 14.1701 -0.2039
42.5800 14.1767 -0.2128
42.6000 14.1834 -0.2149
42.6200 14.1901 -0.2073
42.6400 14.1968 -0.2141
42.6600 14.2035 -0.2166
42.6800 14.2100 -0.2108
42.7000 14.2166 -0.2140
42.7200 14.2233 -0.2150
42.7400 14.2300 -0.2104
42.7600 14.2367 -0.2121
42.7800 14.2434 -0.2183
42.8000 14.2501 -0.2106
42.8200 14.2568 -0.2158
42.8400 14.2635 -0.2149
42.8600 14.2700 -0.2149
42.8800 14.2766 -0.2102
42.9000 14.2833 -0.2129
42.9200 14.2900 -0.2100
42.9400 14.2967 -0.2124
42.9600 14.3034 -0.2147
42.9800 14.3101 -0.2110
43.0000 14.3168 -0.2140
43.0200 14.3234 -0.2123
43.0400 14.3300 -0.2083
43.0600 14.3367 -0.2136
43.0800 14.3434 -0.2088
43.1000 14.3501 -0.2105
43.1200 14.3568 -0.2123
43.1400 14.3634 -0.2114
43.1600 14.3701 -0.2104
43.1800 14.3768 -0.2149
43.2000 14.3835 -0.2144
43.2200 14.3901 -0.2069
43.2400 14.3967 -0.2135
43.2600 14.4033 -0.2080
43.2800 14.4101 -0.2112
43.3000 14.4168 -0.2125
43.3200 14.4235 -0.2108
43.3400 14.4301 -0.2134
43.3600 14.4368 -0.2078
43.3800 14.4435 -0.2129
43.4000 14.4501 -0.2132
43.4200 14.4567 -0.2056
43.4400 14.4633 -0.2126
43.4600 14.4701 -0.2142
43.4800 14.4768 -0.2123
43.5000 14.4834 -0.2130
43.5200 14.4901 -0.2088
43.5400 14.4968 -0.2118
43.5600 14.5034 -0.2151
43.5800 14.5100 -0.2076
43.6000 14.5166 -0.2129
43.6200 14.5233 -0.2104
43.6400 14.5300 -0.2087
43.6600 14.5367 -0.2120
43.6800 14.5434 -0.2112
43.7000 14.5501 -0.2065
43.7200 14.5567 -0.2105
43.7400 14.5634 -0.2108
43.7600 14.5701 -0.2124
43.7800 14.5767 -0.2140
43.8000 14.5833 -0.2105
43.8200 14.5900 -0.2116
43.8400 14.5967 -0.2093
43.8600 14.6034 -0.2115
43.8800 14.6101 -0.2134
43.9000 14.6168 -0.2114
43.9200 14.6235 -0.2160
43.9400 14.6301 -0.2138
43.9600 14.6367 -0.2097
43.9800 14.6433 -0.2157
44.0000 14.6500 -0.2094
44.0200 14.6568 -0.2099
44.0400 14.6635 -0.2128
44.0600 14.6701 -0.2131
44.0800 14.6768 -0.2073
44.1000 14.6834 -0.2134
44.1200 14.6900 -0.2100
44.1400 14.6966 -0.2113
44.1600 14.7033 -0.2136
44.1800 14.7100 -0.2048
44.2000 14.7167 -0.2144
44.2200 14.7234 -0.2143
44.2400 14.7301 -0.2048
44.2600 14.7368 -0.2173
44.2800 14.7435 -0.2146
44.3000 14.7501 -0.2091
44.3200 14.7566 -0.2116
44.3400 14.7633 -0.2101
44.3600 14.7700 -0.2098
44.3800 14.7767 -0.2161
44.4000 14.7834 -0.2107
44.4200 14.7901 -0.2082
44.4400 14.7967 -0.2136
44.4600 14.8034 -0.2103
44.4800 14.8100 -0.2112
44.5000 14.8166 -0.2141
44.5200 14.8233 -0.2119
44.5400 14.8300 -0.2133
44.5600 14.8368 -0.2124
44.5800 14.8434 -0.2095
44.6000 14.8501 -0.2132
44.6200 14.8568 -0.2148
44.6400 14.8635 -0.2095
44.6600 14.8701 -0.2094
44.6800 14.8767 -0.2118
44.7000 14.8834 -0.2117
44.7200 14.8901 -0.2149
44.7400 14.8967 -0.2071
44.7600 14.9034 -0.2129
44.7800 14.9101 -0.2129
44.8000 14.9168 -0.2074
44.8200 14.9235 -0.2140
44.8400 14.9301 -0.2211
44.8600 14.9367 -0.2094
44.8800 14.9433 -0.2086
44.9000 14.9500 -0.2190
44.9200 14.9567 -0.2139
44.9400 14.9634 -0.2105
44.9600 14.9700 -0.2198
44.9800 14.9767 -0.2078
45.0000 14.9834 -0.2168
45.0200 14.9900 -0.2148
45.0400 14.9966 -0.2061
45.0600 15.0033 -0.2207
45.0800 15.0100 -0.2099
45.1000 15.0168 -0.2090
45.1200 15.0234 -0.2197
45.1400 15.0301 -0.2086
45.1600 15.0368 -0.2090
45.1800 15.0435 -0.2163
45.2000 15.0501 -0.2130
45.2200 15.0567 -0.2100
45.2400 15.0634 -0.2161
45.2600 15.0701 -0.2085
45.2800 15.0767 -0.2104
45.3000 15.0834 -0.2156
45.3200 15.0901 -0.2058
45.3400 15.0968 -0.2162
45.3600 15.1035 -0.2142
45.3800 15.1101 -0.2119
45.4000 15.1167 -0.2153
45.4200 15.1233 -0.2120
45.4400 15.1300 -0.2129
45.4600 15.1368 -0.2186
45.4800 15.1435 -0.2076
45.5000 15.1501 -0.2151
45.5200 15.1568 -0.2184
45.5400 15.1635 -0.2084
45.5600 15.1701 -0.2204
45.5800 15.1767 -0.2179
45.6000 15.1833 -0.2021
45.6200 15.1900 -0.2239
45.6400 15.1968 -0.2141
45.6600 15.2034 -0.2061
45.6800 15.2101 -0.2228
45.7000 15.2168 -0.2082
45.7200 15.2235 -0.2081
45.7400 15.2301 -0.2253
45.7600 15.2367 -0.2042
45.7800 15.2433 -0.2090
45.8000 15.2500 -0.2266
45.8200 15.2567 -0.2049
45.8400 15.2634 -0.2095
45.8600 15.2701 -0.2266
45.8800 15.2768 -0.2029
45.9000 15.2835 -0.2171
45.9200 15.2901 -0.2240
45.9400 15.2967 -0.2029
45.9600 15.3033 -0.2167
45.9800 15.3100 -0.2154
46.0000 15.3167 -0.2026
46.0200 15.3234 -0.2216
46.0400 15.3301 -0.2126
46.0600 15.3368 -0.2052
46.0800 15.3435 -0.2271
46.1000 15.3501 -0.2135
46.1200 15.3567 -0.2077
46.1400 15.3633 -0.2232
46.1600 15.3700 -0.2094
46.1800 15.3768 -0.2143
46.2000 15.3835 -0.2207
46.2200 15.3901 -0.2071
46.2400 15.3968 -0.2158
46.2600 15.4035 -0.2153
46.2800 15.4101 -0.2124
46.3000 15.4167 -0.2177
46.3200 15.4233 -0.2143
46.3400 15.4300 -0.2074
46.3600 15.4367 -0.2136
46.3800 15.4434 -0.2143
46.4000 15.4501 -0.2138
46.4200 15.4568 -0.2152
46.4400 15.4635 -0.2127
46.4600 15.4701 -0.2172
46.4800 15.4767 -0.2151
46.5000 15.4833 -0.2080
46.5200 15.4900 -0.2143
46.5400 15.4967 -0.2146
46.5600 15.5034 -0.2148
46.5800 15.5101 -0.2167
46.6000 15.5167 -0.2128
46.6200 15.5234 -0.2111
46.6400 15.5301 -0.2165
46.6600 15.5367 -0.2093
46.6800 15.5433 -0.2151
46.7000 15.5500 -0.2192
46.7200 15.5567 -0.2069
46.7400 15.5634 -0.2143
46.7600 15.5701 -0.2150
46.7800 15.5768 -0.2118
46.8000 15.5835 -0.2163
46.8200 15.5902 -0.2172
46.8400 15.5968 -0.2093
46.8600 15.6034 -0.2118
46.8800 15.6100 -0.2151
46.9000 15.6167 -0.2120
46.9200 15.6234 -0.2179
46.9400 15.6301 -0.2143
46.9600 15.6368 -0.2109
46.9800 15.6435 -0.2153
47.0000 15.6501 -0.2157
47.0200 15.6567 -0.2136
47.0400 15.6633 -0.2132
47.0600 15.6700 -0.2163
47.0800 15.6767 -0.2115
47.1000 15.6834 -0.2171
47.1200 15.6901 -0.2143
47.1400 15.6968 -0.2127
47.1600 15.7035 -0.2176
47.1800 15.7101 -0.2154
47.2000 15.7167 -0.2114
47.2200 15.7233 -0.2203
47.2400 15.7300 -0.2133
47.2600 15.7367 -0.2132
47.2800 15.7434 -0.2230
47.3000 15.7501 -0.2137
47.3200 15.7567 -0.2071
47.3400 15.7634 -0.2214
47.3600 15.7701 -0.2208
47.3800 15.7767 -0.2121
47.4000 15.7833 -0.2134
47.4200 15.7900 -0.2185
47.4400 15.7967 -0.2151
47.4600 15.8034 -0.2159
47.4800 15.8101 -0.2136
47.5000 15.8168 -0.2165
47.5200 15.8235 -0.2189
47.5400 15.8301 -0.2180
47.5600 15.8367 -0.2151
47.5800 15.8433 -0.2136
47.6000 15.8500 -0.2192
47.6200 15.8567 -0.2167
47.6400 15.8635 -0.2137
47.6600 15.8701 -0.2159
47.6800 15.8768 -0.2187
47.7000 15.8835 -0.2201
47.7200 15.8901 -0.2185
47.7400 15.8967 -0.2144
47.7600 15.9033 -0.2193
47.7800 15.9100 -0.2113
47.8000 15.9167 -0.2197
47.8200 15.9234 -0.2187
47.8400 15.9301 -0.2116
47.8600 15.9368 -0.2165
47.8800 15.9435 -0.2159
47.9000 15.9501 -0.2164
47.9200 15.9567 -0.2178
47.9400 15.9633 -0.2160
47.9600 15.9700 -0.2148
47.9800 15.9767 -0.2196
48.0000 15.9834 -0.2200
48.0200 15.9901 -0.2155
48.0400 15.9968 -0.2212
48.0600 16.0035 -0.2199
48.0800 16.0101 -0.2176
48.1000 16.0167 -0.2169
48.1200 16.0233 -0.2195
48.1400 16.0300 -0.2181
48.1600 16.0368 -0.2193
48.1800 16.0435 -0.2219
48.2000 16.0501 -0.2163
48.2200 16.0568 -0.2208
48.2400 16.0635 -0.2208
48.2600 16.0701 -0.2154
48.2800 16.0768 -0.2218
48.3000 16.0834 -0.2214
48.3200 16.0900 -0.2206
48.3400 16.0967 -0.2202
48.3600 16.1034 -0.2170
48.3800 16.1101 -0.2182
48.4000 16.1168 -0.2242
48.4200 16.1235 -0.2176
48.4400 16.1301 -0.2171
48.4600 16.1367 -0.2223
48.4800 16.1433 -0.2175
48.5000 16.1500 -0.2192
48.5200 16.1567 -0.2214
48.5400 16.1634 -0.2268
48.5600 16.1701 -0.2173
48.5800 16.1768 -0.2228
48.6000 16.1835 -0.2225
48.6200 16.1901 -0.2237
48.6400 16.1967 -0.2251
48.6600 16.2033 -0.2207
48.6800 16.2100 -0.2154
48.7000 16.2167 -0.2243
48.7200 16.2234 -0.2246
48.7400 16.2301 -0.2153
48.7600 16.2367 -0.2247
48.7800 16.2434 -0.2275
48.8000 16.2501 -0.2195
48.8200 16.2567 -0.2231
48.8400 16.2633 -0.2230
48.8600 16.2700 -0.2198
48.8800 16.2767 -0.2226
48.9000 16.2834 -0.2228
48.9200 16.2901 -0.2158
48.9400 16.2968 -0.2246
48.9600 16.3035 -0.2230
48.9800 16.3102 -0.2198
49.0000 16.3168 -0.2264
49.0200 16.3234 -0.2193
49.0400 16.3300 -0.2147
49.0600 16.3367 -0.2256
49.0800 16.3434 -0.2198
49.1000 16.3501 -0.2204
49.1200 16.3568 -0.2249
49.1400 16.3635 -0.2192
49.1600 16.3701 -0.2196
49.1800 16.3767 -0.2243
49.2000 16.3833 -0.2195
49.2200 16.3900 -0.2176
49.2400 16.3967 -0.2223
49.2600 16.4034 -0.2194
49.2800 16.4100 -0.2224
49.3000 16.4167 -0.2207
49.3200 16.4234 -0.2192
49.3400 16.4301 -0.2223
49.3600 16.4367 -0.2203
49.3800 16.4433 -0.2215
49.4000 16.4500 -0.2182
49.4200 16.4567 -0.2178
49.4400 16.4634 -0.2274
49.4600 16.4701 -0.2144
49.4800 16.4768 -0.2189
49.5000 16.4835 -0.2222
49.5200 16.4902 -0.2183
49.5400 16.4968 -0.2178
49.5600 16.5034 -0.2198
49.5800 16.5100 -0.2189
49.6000 16.5167 -0.2158
49.6200 16.5234 -0.2248
49.6400 16.5301 -0.2204
49.6600 16.5368 -0.2133
49.6800 16.5435 -0.2226
49.7000 16.5501 -0.2193
49.7200 16.5567 -0.2171
49.7400 16.5633 -0.2215
49.7600 16.5700 -0.2191
49.7800 16.5767 -0.2151
49.8000 16.5834 -0.2220
49.8200 16.5901 -0.2177
49.8400 16.5968 -0.2160
49.8600 16.6035 -0.2245
49.8800 16.6101 -0.2186
49.9000 16.6168 -0.2147
49.9200 16.6234 -0.2258
49.9400 16.6300 -0.2181
49.9600 16.6367 -0.2184
49.9800 16.6434 -0.2222
50.0000 16.6501 -0.2165
50.0200 16.6568 -0.2197
50.0400 16.6635 -0.2207
50.0600 16.6701 -0.2179
50.0800 16.6768 -0.2214
50.1000 16.6833 -0.2206
50.1200 16.6900 -0.2131
50.1400 16.6966 -0.2213
50.1600 16.7034 -0.2227
50.1800 16.7101 -0.2150
50.2000 16.7168 -0.2247
50.2200 16.7235 -0.2223
50.2400 16.7301 -0.2144
50.2600 16.7367 -0.2265
50.2800 16.7433 -0.2228
50.3000 16.7500 -0.2164
50.3200 16.7567 -0.2256
50.3400 16.7634 -0.2216
50.3600 16.7701 -0.2147
50.3800 16.7768 -0.2249
50.4000 16.7835 -0.2199
50.4200 16.7901 -0.2180
50.4400 16.7968 -0.2267
50.4600 16.8034 -0.2205
50.4800 16.8100 -0.2219
50.5000 16.8167 -0.2272
50.5200 16.8234 -0.2159
50.5400 16.8301 -0.2229
50.5600 16.8368 -0.2259
50.5800 16.8435 -0.2166
50.6000 16.8502 -0.2264
50.6200 16.8568 -0.2276
50.6400 16.8634 -0.2173
50.6600 16.8700 -0.2245
50.6800 16.8767 -0.2197
50.7000 16.8834 -0.2188
50.7200 16.8901 -0.2269
50.7400 16.8968 -0.2214
50.7600 16.9035 -0.2221
50.7800 16.9101 -0.2257
50.8000 16.9167 -0.2204
50.8200 16.9234 -0.2278
50.8400 16.9300 -0.2235
50.8600 16.9367 -0.2190
50.8800 16.9434 -0.2298
50.9000 16.9500 -0.2266
50.9200 16.9567 -0.2173
50.9400 16.9634 -0.2279
50.9600 16.9701 -0.2272
50.9800 16.9767 -0.2160
51.0000 16.9834 -0.2341
51.0200 16.9900 -0.2218
51.0400 16.9967 -0.2172
51.0600 17.0034 -0.2306
51.0800 17.0101 -0.2190
51.1000 17.0168 -0.2225
51.1200 17.0235 -0.2294
51.1400 17.0302 -0.2169
51.1600 17.0368 -0.2316
51.1800 17.0434 -0.2296
51.2000 17.0500 -0.2153
51.2200 17.0567 -0.2292
51.2400 17.0634 -0.2328
51.2600 17.0701 -0.2161
51.2800 17.0768 -0.2297
51.3000 17.0834 -0.2257
51.3200 17.0901 -0.2200
51.3400 17.0968 -0.2326
51.3600 17.1034 -0.2219
51.3800 17.1100 -0.2204
51.4000 17.1167 -0.2304
51.4200 17.1234 -0.2234
51.4400 17.1301 -0.2231
51.4600 17.1368 -0.2317
51.4800 17.1434 -0.2199
51.5000 17.1501 -0.2284
51.5200 17.1568 -0.2288
51.5400 17.1634 -0.2154
51.5600 17.1700 -0.2296
51.5800 17.1766 -0.2291
51.6000 17.1833 -0.2170
51.6200 17.1901 -0.2341
51.6400 17.1968 -0.2241
51.6600 17.2035 -0.2227
51.6800 17.2101 -0.2299
51.7000 17.2168 -0.2267
51.7200 17.2234 -0.2260
51.7400 17.2300 -0.2313
51.7600 17.2367 -0.2197
51.7800 17.2434 -0.2286
51.8000 17.2501 -0.2296
51.8200 17.2568 -0.2253
51.8400 17.2634 -0.2281
51.8600 17.2701 -0.2298
51.8800 17.2768 -0.2267
51.9000 17.2834 -0.2314
51.9200 17.2900 -0.2293
51.9400 17.2967 -0.2261
51.9600 17.3034 -0.2314
51.9800 17.3101 -0.2250
52.0000 17.3168 -0.2270
52.0200 17.3235 -0.2395
52.0400 17.3302 -0.2255
52.0600 17.3368 -0.2259
52.0800 17.3434 -0.2328
52.1000 17.3500 -0.2214
52.1200 17.3566 -0.2330
52.1400 17.3633 -0.2314
52.1600 17.3701 -0.2192
52.1800 17.3768 -0.2346
52.2000 17.3835 -0.2315
52.2200 17.3901 -0.2231
52.2400 17.3968 -0.2369
52.2600 17.4033 -0.2279
52.2800 17.4100 -0.2231
52.3000 17.4166 -0.2306
52.3200 17.4233 -0.2320
52.3400 17.4300 -0.2259
52.3600 17.4367 -0.2347
52.3800 17.4434 -0.2221
52.4000 17.4501 -0.2267
52.4200 17.4568 -0.2355
52.4400 17.4634 -0.2254
52.4600 17.4700 -0.2258
52.4800 17.4767 -0.2374
52.5000 17.4834 -0.2205
52.5200 17.4901 -0.2312
52.5400 17.4968 -0.2335
52.5600 17.5035 -0.2216
52.5800 17.5102 -0.2323
52.6000 17.5168 -0.2348
52.6200 17.5234 -0.2207
52.6400 17.5300 -0.2276
52.6600 17.5367 -0.2302
52.6800 17.5434 -0.2254
52.7000 17.5501 -0.2268
52.7200 17.5568 -0.2298
52.7400 17.5635 -0.2277
52.7600 17.5702 -0.2286
52.7800 17.5768 -0.2299
52.8000 17.5834 -0.2260
52.8200 17.5900 -0.2257
52.8400 17.5967 -0.2286
52.8600 17.6034 -0.2232
52.8800 17.6101 -0.2324
52.9000 17.6168 -0.2288
52.9200 17.6234 -0.2182
52.9400 17.6301 -0.2266
52.9600 17.6368 -0.2295
52.9800 17.6434 -0.2238
53.0000 17.6500 -0.2279
53.0200 17.6567 -0.2325
53.0400 17.6634 -0.2236
53.0600 17.6701 -0.2259
53.0800 17.6767 -0.2274
53.1000 17.6834 -0.2236
53.1200 17.6901 -0.2267
53.1400 17.6968 -0.2324
53.1600 17.7034 -0.2220
53.1800 17.7100 -0.2294
53.2000 17.7167 -0.2311
53.2200 17.7234 -0.2260
53.2400 17.7301 -0.2276
53.2600 17.7368 -0.2289
53.2800 17.7435 -0.2218
53.3000 17.7502 -0.2308
53.3200 17.7568 -0.2328
53.3400 17.7634 -0.2268
53.3600 17.7700 -0.2291
53.3800 17.7767 -0.2264
53.4000 17.7834 -0.2245
53.4200 17.7901 -0.2313
53.4400 17.7968 -0.2295
53.4600 17.8035 -0.2262
53.4800 17.8101 -0.2273
53.5000 17.8168 -0.2322
53.5200 17.8234 -0.2293
53.5400 17.8300 -0.2295
53.5600 17.8367 -0.2275
53.5800 17.8433 -0.2296
53.6000 17.8500 -0.2318
53.6200 17.8567 -0.2292
53.6400 17.8634 -0.2277
53.6600 17.8701 -0.2331
53.6800 17.8768 -0.2304
53.7000 17.8834 -0.2294
53.7200 17.8900 -0.2261
53.7400 17.8966 -0.2283
53.7600 17.9033 -0.2303
53.7800 17.9100 -0.2256
53.8000 17.9167 -0.2314
53.8200 17.9234 -0.2291
53.8400 17.9301 -0.2330
53.8600 17.9368 -0.2285
53.8800 17.9434 -0.2278
53.9000 17.9500 -0.2341
53.9200 17.9567 -0.2270
53.9400 17.9634 -0.2220
53.9600 17.9701 -0.2373
53.9800 17.9768 -0.2293
54.0000 17.9834 -0.2237
54.0200 17.9901 -0.2335
54.0400 17.9968 -0.2288
54.0600 18.0034 -0.2273
54.0800 18.0100 -0.2379
54.1000 18.0167 -0.2298
54.1200 18.0233 -0.2271
54.1400 18.0300 -0.2345
54.1600 18.0367 -0.2296
54.1800 18.0434 -0.2279
54.2000 18.0501 -0.2374
54.2200 18.0568 -0.2279
54.2400 18.0634 -0.2309
54.2600 18.0700 -0.2351
54.2800 18.0767 -0.2205
54.3000 18.0834 -0.2315
54.3200 18.0901 -0.2409
54.3400 18.0968 -0.2234
54.3600 18.1035 -0.2298
54.3800 18.1101 -0.2378
54.4000 18.1168 -0.2294
54.4200 18.1234 -0.2306
54.4400 18.1300 -0.2357
54.4600 18.1366 -0.2272
54.4800 18.1433 -0.2311
54.5000 18.1500 -0.2352
54.5200 18.1567 -0.2254
54.5400 18.1634 -0.2312
54.5600 18.1701 -0.2364
54.5800 18.1767 -0.2272
54.6000 18.1834 -0.2306
54.6200 18.1900 -0.2377
54.6400 18.1966 -0.2265
54.6600 18.2033 -0.2314
54.6800 18.2101 -0.2328
54.7000 18.2168 -0.2306
54.7200 18.2235 -0.2308
54.7400 18.2302 -0.2366
54.7600 18.2369 -0.2289
54.7800 18.2435 -0.2320
54.8000 18.2500 -0.2383
54.8200 18.2567 -0.2277
54.8400 18.2634 -0.2311
54.8600 18.2701 -0.2350
54.8800 18.2768 -0.2306
54.9000 18.2835 -0.2283
54.9200 18.2901 -0.2313
54.9400 18.2968 -0.2319
54.9600 18.3034 -0.2328
54.9800 18.3100 -0.2305
55.0000 18.3167 -0.2280
55.0200 18.3233 -0.2381
55.0400 18.3300 -0.2327
55.0600 18.3367 -0.2305
55.0800 18.3434 -0.2379
55.1000 18.3501 -0.2297
55.1200 18.3568 -0.2338
55.1400 18.3634 -0.2356
55.1600 18.3700 -0.2311
55.1800 18.3766 -0.2382
55.2000 18.3833 -0.2290
55.2200 18.3900 -0.2297
55.2400 18.3967 -0.2379
55.2600 18.4034 -0.2301
55.2800 18.4101 -0.2339
55.3000 18.4168 -0.2326
55.3200 18.4234 -0.2340
55.3400 18.4300 -0.2346
55.3600 18.4367 -0.2324
55.3800 18.4434 -0.2274
55.4000 18.4501 -0.2392
55.4200 18.4568 -0.2300
55.4400 18.4635 -0.2304
55.4600 18.4701 -0.2398
55.4800 18.4768 -0.2310
55.5000 18.4835 -0.2319
55.5200 18.4901 -0.2391
55.5400 18.4967 -0.2266
55.5600 18.5034 -0.2334
55.5800 18.5101 -0.2401
55.6000 18.5168 -0.2257
55.6200 18.5234 -0.2357
55.6400 18.5301 -0.2403
55.6600 18.5368 -0.2245
55.6800 18.5435 -0.2409
55.7000 18.5501 -0.2376
55.7200 18.5567 -0.2268
55.7400 18.5633 -0.2348
55.7600 18.5700 -0.2363
55.7800 18.5767 -0.2309
55.8000 18.5834 -0.2363
55.8200 18.5901 -0.2362
55.8400 18.5968 -0.2307
55.8600 18.6034 -0.2374
55.8800 18.6100 -0.2340
55.9000 18.6166 -0.2295
55.9200 18.6233 -0.2373
55.9400 18.6300 -0.2334
55.9600 18.6367 -0.2334
55.9800 18.6434 -0.2380
56.0000 18.6501 -0.2319
56.0200 18.6568 -0.2362
56.0400 18.6634 -0.2367
56.0600 18.6701 -0.2335
56.0800 18.6767 -0.2389
56.1000 18.6834 -0.2388
56.1200 18.6901 -0.2318
56.1400 18.6967 -0.2386
56.1600 18.7034 -0.2347
56.1800 18.7101 -0.2324
56.2000 18.7168 -0.2381
56.2200 18.7235 -0.2357
56.2400 18.7301 -0.2345
56.2600 18.7367 -0.2411
56.2800 18.7433 -0.2321
56.3000 18.7501 -0.2367
56.3200 18.7568 -0.2401
56.3400 18.7635 -0.2322
56.3600 18.7701 -0.2383
56.3800 18.7768 -0.2392
56.4000 18.7834 -0.2289
56.4200 18.7901 -0.2361
56.4400 18.7967 -0.2369
56.4600 18.8034 -0.2334
56.4800 18.8101 -0.2356
56.5000 18.8168 -0.2370
56.5200 18.8234 -0.2331
56.5400 18.8301 -0.2354
56.5600 18.8368 -0.2332
56.5800 18.8434 -0.2367
56.6000 18.8500 -0.2385
56.6200 18.8566 -0.2282
56.6400 18.8633 -0.2341
56.6600 18.8700 -0.2365
56.6800 18.8767 -0.2311
56.7000 18.8834 -0.2346
56.7200 18.8901 -0.2345
56.7400 18.8968 -0.2290
56.7600 18.9035 -0.2367
56.7800 18.9100 -0.2354
56.8000 18.9167 -0.2302
56.8200 18.9233 -0.2342
56.8400 18.9301 -0.2378
56.8600 18.9368 -0.2275
56.8800 18.9435 -0.2365
56.9000 18.9502 -0.2386
56.9200 18.9568 -0.2309
56.9400 18.9635 -0.2365
56.9600 18.9701 -0.2369
56.9800 18.9767 -0.2282
57.0000 18.9834 -0.2365
57.0200 18.9901 -0.2369
57.0400 18.9968 -0.2322
57.0600 19.0034 -0.2355
57.0800 19.0101 -0.2362
57.1000 19.0168 -0.2314
57.1200 19.0235 -0.2381
57.1400 19.0301 -0.2345
57.1600 19.0366 -0.2320
57.1800 19.0433 -0.2356
57.2000 19.0500 -0.2333
57.2200 19.0567 -0.2323
57.2400 19.0634 -0.2361
57.2600 19.0701 -0.2355
57.2800 19.0768 -0.2322
57.3000 19.0834 -0.2365
57.3200 19.0900 -0.2356
57.3400 19.0966 -0.2352
57.3600 19.1033 -0.2344
57.3800 19.1100 -0.2319
57.4000 19.1167 -0.2395
57.4200 19.1234 -0.2353
57.4400 19.1301 -0.2315
57.4600 19.1368 -0.2417
57.4800 19.1434 -0.2358
57.5000 19.1500 -0.2358
57.5200 19.1567 -0.2374
57.5400 19.1633 -0.2317
57.5600 19.1700 -0.2349
57.5800 19.1768 -0.2404
57.6000 19.1834 -0.2332
57.6200 19.1901 -0.2379
57.6400 19.1968 -0.2390
57.6600 19.2035 -0.2380
57.6800 19.2101 -0.2387
57.7000 19.2167 -0.2376
57.7200 19.2234 -0.2327
57.7400 19.2301 -0.2388
57.7600 19.2368 -0.2348
57.7800 19.2435 -0.2386
57.8000 19.2502 -0.2389
57.8200 19.2568 -0.2310
57.8400 19.2635 -0.2362
57.8600 19.2701 -0.2397
57.8800 19.2767 -0.2332
57.9000 19.2833 -0.2361
57.9200 19.2900 -0.2362
57.9400 19.2967 -0.2366
57.9600 19.3034 -0.2402
57.9800 19.3101 -0.2369
58.0000 19.3168 -0.2315
58.0200 19.3234 -0.2403
58.0400 19.3301 -0.2388
58.0600 19.3367 -0.2335
58.0800 19.3433 -0.2395
58.1000 19.3500 -0.2388
58.1200 19.3567 -0.2367
58.1400 19.3634 -0.2399
58.1600 19.3700 -0.2370
58.1800 19.3767 -0.2368
58.2000 19.3834 -0.2410
58.2200 19.3901 -0.2370
58.2400 19.3967 -0.2328
58.2600 19.4034 -0.2402
58.2800 19.4100 -0.2357
58.3000 19.4167 -0.2338
58.3200 19.4234 -0.2454
58.3400 19.4301 -0.2321
58.3600 19.4368 -0.2309
58.3800 19.4435 -0.2412
58.4000 19.4501 -0.2372
58.4200 19.4567 -0.2337
58.4400 19.4633 -0.2411
58.4600 19.4700 -0.2365
58.4800 19.4767 -0.2403
58.5000 19.4834 -0.2358
58.5200 19.4901 -0.2368
58.5400 19.4968 -0.2405
58.5600 19.5035 -0.2388
58.5800 19.5101 -0.2353
58.6000 19.5167 -0.2417
58.6200 19.5233 -0.2364
58.6400 19.5300 -0.2335
58.6600 19.5368 -0.2468
58.6800 19.5434 -0.2408
58.7000 19.5501 -0.2323
58.7200 19.5568 -0.2440
58.7400 19.5635 -0.2363
58.7600 19.5701 -0.2378
58.7800 19.5767 -0.2398
58.8000 19.5833 -0.2363
58.8200 19.5900 -0.2407
58.8400 19.5967 -0.2400
58.8600 19.6034 -0.2365
58.8800 19.6101 -0.2376
58.9000 19.6168 -0.2388
58.9200 19.6234 -0.2375
58.9400 19.6301 -0.2379
58.9600 19.6367 -0.2367
58.9800 19.6433 -0.2415
59.0000 19.6500 -0.2362
59.0200 19.6567 -0.2339
59.0400 19.6635 -0.2477
59.0600 19.6701 -0.2377
59.0800 19.6768 -0.2342
59.1000 19.6835 -0.2451
59.1200 19.6901 -0.2346
59.1400 19.6967 -0.2410
59.1600 19.7034 -0.2407
59.1800 19.7101 -0.2345
59.2000 19.7168 -0.2418
59.2200 19.7235 -0.2400
59.2400 19.7301 -0.2353
59.2600 19.7368 -0.2441
59.2800 19.7435 -0.2413
59.3000 19.7500 -0.2475
