Raw Data
Time Displacement Force
(s) (mm) (N)
0.0000 0.0000 -0.0992
0.0200 0.0000 -0.1024
0.0400 0.0008 -0.0653
0.0600 0.0040 -0.0560
0.0800 0.0095 -0.1040
0.1000 0.0152 -0.1019
0.1200 0.0211 -0.0746
0.1400 0.0278 -0.0941
0.1600 0.0351 -0.0955
0.1800 0.0425 -0.0923
0.2000 0.0497 -0.1022
0.2200 0.0565 -0.0917
0.2400 0.0632 -0.0903
0.2600 0.0699 -0.0944
0.2800 0.0766 -0.0889
0.3000 0.0833 -0.0821
0.3200 0.0900 -0.0937
0.3400 0.0967 -0.0845
0.3600 0.1034 -0.0829
0.3800 0.1100 -0.0895
0.4000 0.1167 -0.0750
0.4200 0.1234 -0.0830
0.4400 0.1301 -0.0857
0.4600 0.1368 -0.0769
0.4800 0.1434 -0.0811
0.5000 0.1501 -0.0812
0.5200 0.1568 -0.0679
0.5400 0.1634 -0.0755
0.5600 0.1700 -0.0752
0.5800 0.1766 -0.0700
0.6000 0.1833 -0.0747
0.6200 0.1900 -0.0676
0.6400 0.1968 -0.0703
0.6600 0.2034 -0.0741
0.6800 0.2101 -0.0653
0.7000 0.2168 -0.0741
0.7200 0.2234 -0.0725
0.7400 0.2300 -0.0642
0.7600 0.2366 -0.0729
0.7800 0.2433 -0.0697
0.8000 0.2500 -0.0660
0.8200 0.2567 -0.0739
0.8400 0.2634 -0.0660
0.8600 0.2700 -0.0695
0.8800 0.2767 -0.0730
0.9000 0.2833 -0.0643
0.9200 0.2899 -0.0735
0.9400 0.2966 -0.0719
0.9600 0.3033 -0.0638
0.9800 0.3100 -0.0764
1.0000 0.3167 -0.0717
1.0200 0.3234 -0.0660
1.0400 0.3301 -0.0786
1.0600 0.3367 -0.0727
1.0800 0.3434 -0.0655
1.1000 0.3500 -0.0817
1.1200 0.3566 -0.0678
1.1400 0.3633 -0.0658
1.1600 0.3701 -0.0851
1.1800 0.3768 -0.0704
1.2000 0.3834 -0.0726
1.2200 0.3901 -0.0822
1.2400 0.3968 -0.0696
1.2600 0.4035 -0.0754
1.2800 0.4101 -0.0819
1.3000 0.4167 -0.0657
1.3200 0.4234 -0.0794
1.3400 0.4301 -0.0776
1.3600 0.4367 -0.0718
1.3800 0.4434 -0.0798
1.4000 0.4501 -0.0720
1.4200 0.4568 -0.0750
1.4400 0.4634 -0.0862
1.4600 0.4700 -0.0673
1.4800 0.4766 -0.0780
1.5000 0.4833 -0.0807
1.5200 0.4900 -0.0692
1.5400 0.4967 -0.0813
1.5600 0.5034 -0.0783
1.5800 0.5101 -0.0674
1.6000 0.5167 -0.0851
1.6200 0.5234 -0.0740
1.6400 0.5300 -0.0676
1.6600 0.5366 -0.0929
1.6800 0.5433 -0.0714
1.7000 0.5500 -0.0672
1.7200 0.5567 -0.0946
1.7400 0.5634 -0.0677
1.7600 0.5700 -0.0733
1.7800 0.5767 -0.0873
1.8000 0.5834 -0.0731
1.8200 0.5900 -0.0778
1.8400 0.5967 -0.0871
1.8600 0.6034 -0.0694
1.8800 0.6101 -0.0782
1.9000 0.6167 -0.0873
1.9200 0.6234 -0.0678
1.9400 0.6301 -0.0781
1.9600 0.6368 -0.0858
1.9800 0.6434 -0.0739
2.0000 0.6500 -0.0774
2.0200 0.6566 -0.0808
2.0400 0.6633 -0.0731
2.0600 0.6700 -0.0826
2.0800 0.6768 -0.0847
2.1000 0.6834 -0.0794
2.1200 0.6901 -0.0780
2.1400 0.6967 -0.0823
2.1600 0.7034 -0.0815
2.1800 0.7100 -0.0787
2.2000 0.7166 -0.0837
2.2200 0.7233 -0.0856
2.2400 0.7300 -0.0788
2.2600 0.7367 -0.0828
2.2800 0.7434 -0.0849
2.3000 0.7500 -0.0827
2.3200 0.7567 -0.0815
2.3400 0.7634 -0.0877
2.3600 0.7700 -0.0793
2.3800 0.7766 -0.0867
2.4000 0.7833 -0.0843
2.4200 0.7900 -0.0798
2.4400 0.7967 -0.0904
2.4600 0.8034 -0.0847
2.4800 0.8101 -0.0781
2.5000 0.8168 -0.0905
2.5200 0.8234 -0.0908
2.5400 0.8300 -0.0819
2.5600 0.8366 -0.0903
2.5800 0.8433 -0.0897
2.6000 0.8500 -0.0844
2.6200 0.8567 -0.0906
2.6400 0.8634 -0.0902
2.6600 0.8701 -0.0828
2.6800 0.8768 -0.0907
2.7000 0.8834 -0.0925
2.7200 0.8900 -0.0825
2.7400 0.8966 -0.0902
2.7600 0.9033 -0.0927
2.7800 0.9100 -0.0844
2.8000 0.9168 -0.0940
2.8200 0.9234 -0.0873
2.8400 0.9301 -0.0867
2.8600 0.9368 -0.0958
2.8800 0.9434 -0.0908
2.9000 0.9500 -0.0866
2.9200 0.9566 -0.0969
2.9400 0.9633 -0.0838
2.9600 0.9700 -0.0883
2.9800 0.9767 -0.0984
3.0000 0.9834 -0.0873
3.0200 0.9901 -0.0867
3.0400 0.9968 -0.0964
3.0600 1.0034 -0.0907
3.0800 1.0100 -0.0929
3.1000 1.0166 -0.0923
3.1200 1.0232 -0.0893
3.1400 1.0300 -0.0886
3.1600 1.0367 -0.0931
3.1800 1.0434 -0.0914
3.2000 1.0501 -0.0906
3.2200 1.0567 -0.0924
3.2400 1.0634 -0.0921
3.2600 1.0700 -0.0856
3.2800 1.0766 -0.0886
3.3000 1.0833 -0.0962
3.3200 1.0900 -0.0897
3.3400 1.0967 -0.0906
3.3600 1.1034 -0.0898
3.3800 1.1101 -0.0890
3.4000 1.1168 -0.0947
3.4200 1.1235 -0.0962
3.4400 1.1301 -0.0920
3.4600 1.1367 -0.0925
3.4800 1.1433 -0.0936
3.5000 1.1500 -0.0909
3.5200 1.1567 -0.0934
3.5400 1.1634 -0.0955
3.5600 1.1701 -0.0843
3.5800 1.1768 -0.0935
3.6000 1.1834 -0.0937
3.6200 1.1900 -0.0869
3.6400 1.1966 -0.0942
3.6600 1.2033 -0.0924
3.6800 1.2100 -0.0916
3.7000 1.2167 -0.0966
3.7200 1.2234 -0.0933
3.7400 1.2301 -0.0920
3.7600 1.2367 -0.0956
3.7800 1.2434 -0.0938
3.8000 1.2500 -0.0903
3.8200 1.2566 -0.0951
3.8400 1.2633 -0.0916
3.8600 1.2700 -0.0964
3.8800 1.2767 -0.0895
3.9000 1.2834 -0.0932
3.9200 1.2900 -0.0955
3.9400 1.2967 -0.0906
3.9600 1.3034 -0.1008
3.9800 1.3101 -0.0945
4.0000 1.3167 -0.0875
4.0200 1.3233 -0.0981
4.0400 1.3300 -0.0896
4.0600 1.3367 -0.0915
4.0800 1.3434 -0.0986
4.1000 1.3501 -0.0858
4.1200 1.3568 -0.0938
4.1400 1.3634 -0.1018
4.1600 1.3700 -0.0875
4.1800 1.3767 -0.0949
4.2000 1.3833 -0.1012
4.2200 1.3900 -0.0779
4.2400 1.3967 -0.0990
4.2600 1.4034 -0.1049
4.2800 1.4101 -0.0810
4.3000 1.4168 -0.0989
4.3200 1.4234 -0.0965
4.3400 1.4301 -0.0814
4.3600 1.4367 -0.1072
4.3800 1.4433 -0.0918
4.4000 1.4500 -0.0835
4.4200 1.4567 -0.1064
4.4400 1.4634 -0.0922
4.4600 1.4701 -0.0826
4.4800 1.4767 -0.1095
4.5000 1.4834 -0.0934
4.5200 1.4900 -0.0881
4.5400 1.4967 -0.1029
4.5600 1.5033 -0.0934
4.5800 1.5100 -0.0909
4.6000 1.5167 -0.1015
4.6200 1.5234 -0.0927
4.6400 1.5301 -0.0954
4.6600 1.5368 -0.1047
4.6800 1.5434 -0.0933
4.7000 1.5500 -0.0988
4.7200 1.5566 -0.1020
4.7400 1.5633 -0.0931
4.7600 1.5700 -0.0949
4.7800 1.5768 -0.0999
4.8000 1.5835 -0.0994
4.8200 1.5901 -0.0978
4.8400 1.5968 -0.0956
4.8600 1.6034 -0.0997
4.8800 1.6101 -0.1003
4.9000 1.6166 -0.0998
4.9200 1.6233 -0.1027
4.9400 1.6300 -0.0986
4.9600 1.6367 -0.1011
4.9800 1.6434 -0.1071
5.0000 1.6501 -0.0942
5.0200 1.6568 -0.1021
5.0400 1.6634 -0.1030
5.0600 1.6701 -0.0987
5.0800 1.6767 -0.1046
5.1000 1.6833 -0.0986
5.1200 1.6900 -0.0971
5.1400 1.6967 -0.1104
5.1600 1.7034 -0.0953
5.1800 1.7101 -0.0996
5.2000 1.7168 -0.1055
5.2200 1.7235 -0.1010
5.2400 1.7301 -0.1027
5.2600 1.7367 -0.1062
5.2800 1.7433 -0.0991
5.3000 1.7500 -0.1042
5.3200 1.7567 -0.1060
5.3400 1.7634 -0.1015
5.3600 1.7700 -0.1062
5.3800 1.7767 -0.0997
5.4000 1.7834 -0.1027
5.4200 1.7900 -0.1091
5.4400 1.7967 -0.1000
5.4600 1.8033 -0.1052
5.4800 1.8100 -0.1099
5.5000 1.8167 -0.1023
5.5200 1.8234 -0.1046
5.5400 1.8301 -0.1082
5.5600 1.8368 -0.0983
5.5800 1.8435 -0.1063
5.6000 1.8501 -0.1124
5.6200 1.8567 -0.0966
5.6400 1.8633 -0.1041
5.6600 1.8700 -0.1079
5.6800 1.8767 -0.1011
5.7000 1.8834 -0.1065
5.7200 1.8901 -0.1097
5.7400 1.8968 -0.1008
5.7600 1.9034 -0.1120
5.7800 1.9101 -0.1109
5.8000 1.9167 -0.1032
5.8200 1.9233 -0.1064
5.8400 1.9300 -0.1109
5.8600 1.9367 -0.1018
5.8800 1.9434 -0.1119
5.9000 1.9501 -0.1059
5.9200 1.9567 -0.1013
5.9400 1.9634 -0.1156
5.9600 1.9700 -0.1029
5.9800 1.9767 -0.1029
6.0000 1.9833 -0.1150
6.0200 1.9900 -0.1056
6.0400 1.9967 -0.1036
6.0600 2.0034 -0.1099
6.0800 2.0101 -0.1072
6.1000 2.0167 -0.1061
6.1200 2.0234 -0.1107
6.1400 2.0301 -0.1101
6.1600 2.0367 -0.1071
6.1800 2.0433 -0.1098
6.2000 2.0500 -0.1076
6.2200 2.0567 -0.1086
6.2400 2.0634 -0.1075
6.2600 2.0701 -0.1091
6.2800 2.0768 -0.1105
6.3000 2.0834 -0.1060
6.3200 2.0901 -0.1085
6.3400 2.0967 -0.1096
6.3600 2.1033 -0.1048
6.3800 2.1100 -0.1098
6.4000 2.1167 -0.1085
6.4200 2.1234 -0.1065
6.4400 2.1301 -0.1094
6.4600 2.1368 -0.1138
6.4800 2.1434 -0.1009
6.5000 2.1501 -0.1171
6.5200 2.1567 -0.1114
6.5400 2.1633 -0.0993
6.5600 2.1700 -0.1183
6.5800 2.1767 -0.1091
6.6000 2.1834 -0.1002
6.6200 2.1901 -0.1201
6.6400 2.1968 -0.1064
6.6600 2.2035 -0.1072
6.6800 2.2101 -0.1172
6.7000 2.2167 -0.1023
6.7200 2.2233 -0.1072
6.7400 2.2299 -0.1154
6.7600 2.2367 -0.0999
6.7800 2.2434 -0.1111
6.8000 2.2501 -0.1183
6.8200 2.2567 -0.1038
6.8400 2.2634 -0.1106
6.8600 2.2701 -0.1188
6.8800 2.2767 -0.1064
6.9000 2.2833 -0.1060
6.9200 2.2900 -0.1147
6.9400 2.2967 -0.1068
6.9600 2.3034 -0.1110
6.9800 2.3101 -0.1188
7.0000 2.3167 -0.1053
7.0200 2.3234 -0.1100
7.0400 2.3301 -0.1225
7.0600 2.3367 -0.1017
7.0800 2.3433 -0.1090
7.1000 2.3500 -0.1238
7.1200 2.3567 -0.1065
7.1400 2.3634 -0.1022
7.1600 2.3701 -0.1234
7.1800 2.3768 -0.1107
7.2000 2.3835 -0.1084
7.2200 2.3901 -0.1197
7.2400 2.3967 -0.1082
7.2600 2.4033 -0.1062
7.2800 2.4100 -0.1250
7.3000 2.4167 -0.1086
7.3200 2.4234 -0.1104
7.3400 2.4301 -0.1231
7.3600 2.4367 -0.1081
7.3800 2.4434 -0.1078
7.4000 2.4501 -0.1272
7.4200 2.4567 -0.1109
7.4400 2.4633 -0.1066
7.4600 2.4700 -0.1269
7.4800 2.4767 -0.1079
7.5000 2.4834 -0.1099
7.5200 2.4900 -0.1280
7.5400 2.4967 -0.1068
7.5600 2.5034 -0.1108
7.5800 2.5101 -0.1253
7.6000 2.5167 -0.1084
7.6200 2.5233 -0.1098
7.6400 2.5300 -0.1288
7.6600 2.5367 -0.1093
7.6800 2.5434 -0.1073
7.7000 2.5501 -0.1292
7.7200 2.5568 -0.1107
7.7400 2.5635 -0.1121
7.7600 2.5701 -0.1305
7.7800 2.5767 -0.1121
7.8000 2.5833 -0.1124
7.8200 2.5900 -0.1289
7.8400 2.5967 -0.1088
7.8600 2.6034 -0.1184
7.8800 2.6101 -0.1256
7.9000 2.6168 -0.1103
7.9200 2.6234 -0.1169
7.9400 2.6301 -0.1231
7.9600 2.6367 -0.1122
7.9800 2.6433 -0.1178
8.0000 2.6500 -0.1217
8.0200 2.6567 -0.1121
8.0400 2.6634 -0.1146
8.0600 2.6700 -0.1253
8.0800 2.6767 -0.1189
8.1000 2.6834 -0.1145
8.1200 2.6901 -0.1241
8.1400 2.6967 -0.1234
8.1600 2.7032 -0.1183
8.1800 2.7099 -0.1192
8.2000 2.7166 -0.1239
8.2200 2.7234 -0.1185
8.2400 2.7301 -0.1205
8.2600 2.7368 -0.1255
8.2800 2.7435 -0.1173
8.3000 2.7501 -0.1227
8.3200 2.7567 -0.1311
8.3400 2.7633 -0.1128
8.3600 2.7700 -0.1226
8.3800 2.7767 -0.1325
8.4000 2.7834 -0.1165
8.4200 2.7901 -0.1235
8.4400 2.7967 -0.1318
8.4600 2.8034 -0.1156
8.4800 2.8101 -0.1265
8.5000 2.8167 -0.1278
8.5200 2.8233 -0.1184
8.5400 2.8300 -0.1235
8.5600 2.8367 -0.1274
8.5800 2.8434 -0.1208
8.6000 2.8501 -0.1278
8.6200 2.8568 -0.1235
8.6400 2.8635 -0.1246
8.6600 2.8701 -0.1273
8.6800 2.8767 -0.1245
8.7000 2.8833 -0.1216
8.7200 2.8900 -0.1275
8.7400 2.8967 -0.1258
8.7600 2.9034 -0.1243
8.7800 2.9101 -0.1269
8.8000 2.9167 -0.1266
8.8200 2.9234 -0.1244
8.8400 2.9301 -0.1281
8.8600 2.9367 -0.1258
8.8800 2.9433 -0.1208
8.9000 2.9499 -0.1256
8.9200 2.9566 -0.1323
8.9400 2.9633 -0.1249
8.9600 2.9700 -0.1247
8.9800 2.9767 -0.1297
9.0000 2.9834 -0.1260
9.0200 2.9901 -0.1285
9.0400 2.9967 -0.1278
9.0600 3.0033 -0.1242
9.0800 3.0100 -0.1270
9.1000 3.0167 -0.1327
9.1200 3.0234 -0.1241
9.1400 3.0301 -0.1253
9.1600 3.0368 -0.1350
9.1800 3.0435 -0.1233
9.2000 3.0501 -0.1260
9.2200 3.0568 -0.1337
9.2400 3.0633 -0.1209
9.2600 3.0700 -0.1198
9.2800 3.0767 -0.1335
9.3000 3.0834 -0.1278
9.3200 3.0901 -0.1231
9.3400 3.0968 -0.1326
9.3600 3.1035 -0.1228
9.3800 3.1101 -0.1308
9.4000 3.1167 -0.1296
9.4200 3.1233 -0.1252
9.4400 3.1300 -0.1243
9.4600 3.1367 -0.1286
9.4800 3.1434 -0.1243
9.5000 3.1501 -0.1336
9.5200 3.1567 -0.1276
9.5400 3.1634 -0.1224
9.5600 3.1701 -0.1326
9.5800 3.1767 -0.1295
9.6000 3.1834 -0.1204
9.6200 3.1900 -0.1249
9.6400 3.1967 -0.1292
9.6600 3.2034 -0.1271
9.6800 3.2100 -0.1236
9.7000 3.2167 -0.1277
9.7200 3.2234 -0.1272
9.7400 3.2300 -0.1228
9.7600 3.2367 -0.1223
9.7800 3.2433 -0.1311
9.8000 3.2499 -0.1230
9.8200 3.2567 -0.1216
9.8400 3.2634 -0.1317
9.8600 3.2701 -0.1228
9.8800 3.2768 -0.1319
9.9000 3.2835 -0.1302
9.9200 3.2901 -0.1191
9.9400 3.2967 -0.1271
9.9600 3.3033 -0.1282
9.9800 3.3100 -0.1202
10.0000 3.3167 -0.1334
10.0200 3.3234 -0.1333
10.0400 3.3301 -0.1114
10.0600 3.3368 -0.1288
10.0800 3.3434 -0.1344
10.1000 3.3501 -0.1194
10.1200 3.3567 -0.1311
10.1400 3.3633 -0.1333
10.1600 3.3700 -0.1210
10.1800 3.3767 -0.1259
10.2000 3.3833 -0.1338
10.2200 3.3900 -0.1193
10.2400 3.3967 -0.1316
10.2600 3.4034 -0.1327
10.2800 3.4101 -0.1196
10.3000 3.4167 -0.1352
10.3200 3.4233 -0.1302
10.3400 3.4299 -0.1196
10.3600 3.4366 -0.1352
10.3800 3.4433 -0.1294
10.4000 3.4501 -0.1212
10.4200 3.4567 -0.1314
10.4400 3.4634 -0.1308
10.4600 3.4701 -0.1213
10.4800 3.4767 -0.1278
10.5000 3.4834 -0.1398
10.5200 3.4900 -0.1214
10.5400 3.4967 -0.1265
10.5600 3.5034 -0.1379
10.5800 3.5100 -0.1262
10.6000 3.5167 -0.1245
10.6200 3.5234 -0.1387
10.6400 3.5301 -0.1223
10.6600 3.5368 -0.1244
10.6800 3.5434 -0.1425
10.7000 3.5500 -0.1236
10.7200 3.5566 -0.1272
10.7400 3.5633 -0.1412
10.7600 3.5701 -0.1207
10.7800 3.5768 -0.1310
10.8000 3.5834 -0.1415
10.8200 3.5901 -0.1193
10.8400 3.5968 -0.1315
10.8600 3.6034 -0.1451
10.8800 3.6100 -0.1129
10.9000 3.6167 -0.1347
10.9200 3.6234 -0.1426
10.9400 3.6301 -0.1188
10.9600 3.6368 -0.1323
10.9800 3.6434 -0.1411
11.0000 3.6501 -0.1235
11.0200 3.6567 -0.1312
11.0400 3.6633 -0.1395
11.0600 3.6699 -0.1233
11.0800 3.6766 -0.1284
11.1000 3.6833 -0.1411
11.1200 3.6900 -0.1249
11.1400 3.6967 -0.1336
11.1600 3.7034 -0.1370
11.1800 3.7100 -0.1283
11.2000 3.7167 -0.1307
11.2200 3.7233 -0.1389
11.2400 3.7300 -0.1326
11.2600 3.7366 -0.1237
11.2800 3.7433 -0.1434
11.3000 3.7501 -0.1312
11.3200 3.7568 -0.1269
11.3400 3.7635 -0.1419
11.3600 3.7702 -0.1309
11.3800 3.7768 -0.1291
11.4000 3.7833 -0.1415
11.4200 3.7899 -0.1261
11.4400 3.7966 -0.1265
11.4600 3.8034 -0.1478
11.4800 3.8101 -0.1289
11.5000 3.8168 -0.1271
11.5200 3.8235 -0.1495
11.5400 3.8301 -0.1223
11.5600 3.8368 -0.1328
11.5800 3.8434 -0.1502
11.6000 3.8500 -0.1196
11.6200 3.8567 -0.1339
11.6400 3.8633 -0.1458
11.6600 3.8700 -0.1198
11.6800 3.8767 -0.1388
11.7000 3.8834 -0.1467
11.7200 3.8901 -0.1176
11.7400 3.8967 -0.1412
11.7600 3.9033 -0.1498
11.7800 3.9099 -0.1198
11.8000 3.9166 -0.1385
11.8200 3.9233 -0.1429
11.8400 3.9300 -0.1265
11.8600 3.9367 -0.1380
11.8800 3.9434 -0.1388
11.9000 3.9501 -0.1277
11.9200 3.9567 -0.1395
11.9400 3.9633 -0.1430
11.9600 3.9700 -0.1224
11.9800 3.9766 -0.1379
12.0000 3.9834 -0.1437
12.0200 3.9901 -0.1281
12.0400 3.9968 -0.1322
12.0600 4.0034 -0.1449
12.0800 4.0101 -0.1379
12.1000 4.0168 -0.1304
12.1200 4.0234 -0.1426
12.1400 4.0300 -0.1392
12.1600 4.0367 -0.1291
12.1800 4.0434 -0.1389
12.2000 4.0500 -0.1389
12.2200 4.0567 -0.1329
12.2400 4.0634 -0.1358
12.2600 4.0701 -0.1391
12.2800 4.0768 -0.1370
12.3000 4.0834 -0.1371
12.3200 4.0900 -0.1365
12.3400 4.0966 -0.1369
12.3600 4.1033 -0.1407
12.3800 4.1100 -0.1392
12.4000 4.1167 -0.1260
12.4200 4.1234 -0.1410
12.4400 4.1301 -0.1463
12.4600 4.1368 -0.1293
12.4800 4.1434 -0.1411
12.5000 4.1500 -0.1446
12.5200 4.1566 -0.1248
12.5400 4.1633 -0.1431
12.5600 4.1700 -0.1469
12.5800 4.1767 -0.1294
12.6000 4.1834 -0.1407
12.6200 4.1901 -0.1359
12.6400 4.1968 -0.1355
12.6600 4.2034 -0.1428
12.6800 4.2100 -0.1306
12.7000 4.2167 -0.1318
12.7200 4.2233 -0.1498
12.7400 4.2300 -0.1354
12.7600 4.2367 -0.1352
12.7800 4.2434 -0.1459
12.8000 4.2501 -0.1333
12.8200 4.2568 -0.1371
12.8400 4.2634 -0.1527
12.8600 4.2700 -0.1330
12.8800 4.2766 -0.1356
12.9000 4.2833 -0.1447
12.9200 4.2901 -0.1408
12.9400 4.2968 -0.1392
12.9600 4.3035 -0.1432
12.9800 4.3101 -0.1399
13.0000 4.3168 -0.1441
13.0200 4.3234 -0.1360
13.0400 4.3300 -0.1392
13.0600 4.3367 -0.1437
13.0800 4.3434 -0.1343
13.1000 4.3501 -0.1441
13.1200 4.3568 -0.1398
13.1400 4.3634 -0.1406
13.1600 4.3701 -0.1451
13.1800 4.3768 -0.1330
13.2000 4.3834 -0.1444
13.2200 4.3900 -0.1466
13.2400 4.3966 -0.1344
13.2600 4.4033 -0.1402
13.2800 4.4100 -0.1473
13.3000 4.4167 -0.1350
13.3200 4.4234 -0.1401
13.3400 4.4301 -0.1474
13.3600 4.4368 -0.1397
13.3800 4.4434 -0.1429
13.4000 4.4500 -0.1420
13.4200 4.4566 -0.1385
13.4400 4.4633 -0.1439
13.4600 4.4701 -0.1474
13.4800 4.4768 -0.1366
13.5000 4.4835 -0.1408
13.5200 4.4901 -0.1461
13.5400 4.4968 -0.1384
13.5600 4.5034 -0.1419
13.5800 4.5100 -0.1472
13.6000 4.5167 -0.1408
13.6200 4.5234 -0.1422
13.6400 4.5301 -0.1461
13.6600 4.5368 -0.1413
13.6800 4.5434 -0.1374
13.7000 4.5501 -0.1452
13.7200 4.5567 -0.1465
13.7400 4.5634 -0.1454
13.7600 4.5700 -0.1413
13.7800 4.5766 -0.1440
13.8000 4.5833 -0.1360
13.8200 4.5900 -0.1449
13.8400 4.5967 -0.1480
13.8600 4.6034 -0.1393
13.8800 4.6101 -0.1466
13.9000 4.6168 -0.1442
13.9200 4.6234 -0.1370
13.9400 4.6300 -0.1523
13.9600 4.6366 -0.1457
13.9800 4.6433 -0.1334
14.0000 4.6500 -0.1549
14.0200 4.6567 -0.1479
14.0400 4.6634 -0.1337
14.0600 4.6701 -0.1587
14.0800 4.6767 -0.1409
14.1000 4.6834 -0.1339
14.1200 4.6900 -0.1615
14.1400 4.6966 -0.1351
14.1600 4.7033 -0.1376
14.1800 4.7101 -0.1563
14.2000 4.7168 -0.1433
14.2200 4.7234 -0.1388
14.2400 4.7301 -0.1561
14.2600 4.7368 -0.1358
14.2800 4.7434 -0.1432
14.3000 4.7500 -0.1533
14.3200 4.7567 -0.1376
14.3400 4.7633 -0.1410
14.3600 4.7700 -0.1546
14.3800 4.7768 -0.1396
14.4000 4.7835 -0.1460
14.4200 4.7901 -0.1459
14.4400 4.7968 -0.1438
14.4600 4.8034 -0.1457
14.4800 4.8100 -0.1477
14.5000 4.8166 -0.1424
14.5200 4.8233 -0.1462
14.5400 4.8300 -0.1468
14.5600 4.8367 -0.1453
14.5800 4.8433 -0.1457
14.6000 4.8500 -0.1462
14.6200 4.8567 -0.1443
14.6400 4.8633 -0.1428
14.6600 4.8699 -0.1447
14.6800 4.8766 -0.1463
14.7000 4.8833 -0.1432
14.7200 4.8900 -0.1466
14.7400 4.8967 -0.1502
14.7600 4.9034 -0.1364
14.7800 4.9100 -0.1456
14.8000 4.9167 -0.1538
14.8200 4.9234 -0.1415
14.8400 4.9300 -0.1447
14.8600 4.9367 -0.1497
14.8800 4.9433 -0.1409
14.9000 4.9500 -0.1495
14.9200 4.9567 -0.1487
14.9400 4.9634 -0.1362
14.9600 4.9701 -0.1453
14.9800 4.9768 -0.1522
15.0000 4.9834 -0.1376
15.0200 4.9900 -0.1495
15.0400 4.9966 -0.1477
15.0600 5.0033 -0.1414
15.0800 5.0100 -0.1496
15.1000 5.0167 -0.1465
15.1200 5.0234 -0.1407
15.1400 5.0301 -0.1528
15.1600 5.0368 -0.1478
15.1800 5.0434 -0.1437
15.2000 5.0500 -0.1510
15.2200 5.0566 -0.1505
15.2400 5.0633 -0.1371
15.2600 5.0700 -0.1503
15.2800 5.0767 -0.1506
15.3000 5.0834 -0.1430
15.3200 5.0901 -0.1502
15.3400 5.0968 -0.1500
15.3600 5.1034 -0.1471
15.3800 5.1100 -0.1504
15.4000 5.1166 -0.1520
15.4200 5.1232 -0.1414
15.4400 5.1299 -0.1496
15.4600 5.1366 -0.1537
15.4800 5.1434 -0.1411
15.5000 5.1501 -0.1566
15.5200 5.1568 -0.1525
15.5400 5.1634 -0.1391
15.5600 5.1700 -0.1547
15.5800 5.1766 -0.1539
15.6000 5.1833 -0.1436
15.6200 5.1901 -0.1529
15.6400 5.1968 -0.1584
15.6600 5.2034 -0.1336
15.6800 5.2101 -0.1537
15.7000 5.2168 -0.1579
15.7200 5.2235 -0.1402
15.7400 5.2301 -0.1530
15.7600 5.2367 -0.1512
15.7800 5.2434 -0.1421
15.8000 5.2501 -0.1554
15.8200 5.2568 -0.1555
15.8400 5.2634 -0.1384
15.8600 5.2701 -0.1487
15.8800 5.2768 -0.1591
15.9000 5.2834 -0.1380
15.9200 5.2900 -0.1508
15.9400 5.2966 -0.1567
15.9600 5.3033 -0.1383
15.9800 5.3100 -0.1487
16.0000 5.3167 -0.1583
16.0200 5.3234 -0.1371
16.0400 5.3301 -0.1556
16.0600 5.3367 -0.1553
16.0800 5.3434 -0.1366
16.1000 5.3500 -0.1566
16.1200 5.3566 -0.1505
16.1400 5.3633 -0.1373
16.1600 5.3700 -0.1554
16.1800 5.3767 -0.1458
16.2000 5.3834 -0.1449
16.2200 5.3900 -0.1642
16.2400 5.3967 -0.1366
16.2600 5.4033 -0.1368
16.2800 5.4100 -0.1680
16.3000 5.4167 -0.1417
16.3200 5.4234 -0.1389
16.3400 5.4301 -0.1762
16.3600 5.4368 -0.1381
16.3800 5.4434 -0.1315
16.4000 5.4501 -0.1759
16.4200 5.4568 -0.1461
16.4400 5.4635 -0.1258
16.4600 5.4701 -0.1705
16.4800 5.4766 -0.1522
16.5000 5.4833 -0.1299
16.5200 5.4900 -0.1529
16.5400 5.4967 -0.1591
16.5600 5.5034 -0.1356
16.5800 5.5101 -0.1552
16.6000 5.5168 -0.1496
16.6200 5.5234 -0.1462
16.6400 5.5300 -0.1441
16.6600 5.5366 -0.1477
16.6800 5.5433 -0.1579
16.7000 5.5500 -0.1387
16.7200 5.5567 -0.1415
16.7400 5.5634 -0.1662
16.7600 5.5701 -0.1377
16.7800 5.5767 -0.1412
16.8000 5.5834 -0.1669
16.8200 5.5900 -0.1342
16.8400 5.5967 -0.1480
16.8600 5.6033 -0.1696
16.8800 5.6100 -0.1286
16.9000 5.6167 -0.1525
16.9200 5.6234 -0.1626
16.9400 5.6301 -0.1287
16.9600 5.6368 -0.1639
16.9800 5.6434 -0.1534
17.0000 5.6500 -0.1314
17.0200 5.6566 -0.1601
17.0400 5.6632 -0.1522
17.0600 5.6700 -0.1340
17.0800 5.6767 -0.1676
17.1000 5.6834 -0.1451
17.1200 5.6901 -0.1388
17.1400 5.6968 -0.1637
17.1600 5.7035 -0.1494
17.1800 5.7101 -0.1481
17.2000 5.7167 -0.1521
17.2200 5.7233 -0.1462
17.2400 5.7300 -0.1569
17.2600 5.7368 -0.1483
17.2800 5.7434 -0.1488
17.3000 5.7501 -0.1559
17.3200 5.7568 -0.1442
17.3400 5.7635 -0.1489
17.3600 5.7701 -0.1574
17.3800 5.7767 -0.1444
17.4000 5.7833 -0.1523
17.4200 5.7900 -0.1521
17.4400 5.7967 -0.1523
17.4600 5.8034 -0.1557
17.4800 5.8101 -0.1478
17.5000 5.8168 -0.1521
17.5200 5.8234 -0.1613
17.5400 5.8300 -0.1498
17.5600 5.8366 -0.1516
17.5800 5.8432 -0.1541
17.6000 5.8500 -0.1463
17.6200 5.8567 -0.1591
17.6400 5.8634 -0.1569
17.6600 5.8701 -0.1436
17.6800 5.8767 -0.1564
17.7000 5.8834 -0.1576
17.7200 5.8900 -0.1480
17.7400 5.8967 -0.1549
17.7600 5.9033 -0.1572
17.7800 5.9100 -0.1519
17.8000 5.9167 -0.1477
17.8200 5.9234 -0.1595
17.8400 5.9300 -0.1553
17.8600 5.9367 -0.1512
17.8800 5.9435 -0.1510
17.9000 5.9501 -0.1574
17.9200 5.9567 -0.1549
17.9400 5.9634 -0.1529
17.9600 5.9700 -0.1549
17.9800 5.9767 -0.1525
18.0000 5.9834 -0.1560
18.0200 5.9901 -0.1562
18.0400 5.9968 -0.1526
18.0600 6.0034 -0.1593
18.0800 6.0101 -0.1530
18.1000 6.0166 -0.1461
18.1200 6.0233 -0.1587
18.1400 6.0300 -0.1566
18.1600 6.0367 -0.1486
18.1800 6.0434 -0.1599
18.2000 6.0501 -0.1530
18.2200 6.0568 -0.1497
18.2400 6.0634 -0.1636
18.2600 6.0701 -0.1535
18.2800 6.0767 -0.1497
18.3000 6.0833 -0.1647
18.3200 6.0900 -0.1523
18.3400 6.0967 -0.1510
18.3600 6.1034 -0.1634
18.3800 6.1100 -0.1530
18.4000 6.1167 -0.1518
18.4200 6.1234 -0.1589
18.4400 6.1301 -0.1551
18.4600 6.1367 -0.1539
18.4800 6.1433 -0.1590
18.5000 6.1500 -0.1530
18.5200 6.1567 -0.1528
18.5400 6.1634 -0.1588
18.5600 6.1701 -0.1543
18.5800 6.1768 -0.1496
18.6000 6.1834 -0.1659
18.6200 6.1900 -0.1561
18.6400 6.1966 -0.1471
18.6600 6.2033 -0.1637
18.6800 6.2100 -0.1513
18.7000 6.2167 -0.1485
18.7200 6.2235 -0.1718
18.7400 6.2301 -0.1467
18.7600 6.2368 -0.1447
18.7800 6.2435 -0.1719
18.8000 6.2501 -0.1529
18.8200 6.2567 -0.1471
18.8400 6.2633 -0.1714
18.8600 6.2700 -0.1473
18.8800 6.2767 -0.1503
18.9000 6.2834 -0.1688
18.9200 6.2901 -0.1535
18.9400 6.2968 -0.1512
18.9600 6.3034 -0.1636
18.9800 6.3101 -0.1519
19.0000 6.3166 -0.1521
19.0200 6.3233 -0.1630
19.0400 6.3299 -0.1539
19.0600 6.3367 -0.1548
19.0800 6.3434 -0.1533
19.1000 6.3501 -0.1624
19.1200 6.3567 -0.1600
19.1400 6.3634 -0.1557
19.1600 6.3701 -0.1581
19.1800 6.3767 -0.1569
19.2000 6.3833 -0.1567
19.2200 6.3900 -0.1626
19.2400 6.3968 -0.1512
19.2600 6.4035 -0.1559
19.2800 6.4101 -0.1683
19.3000 6.4168 -0.1507
19.3200 6.4234 -0.1555
19.3400 6.4301 -0.1703
19.3600 6.4367 -0.1457
19.3800 6.4433 -0.1589
19.4000 6.4500 -0.1668
19.4200 6.4567 -0.1431
19.4400 6.4634 -0.1615
19.4600 6.4700 -0.1669
19.4800 6.4767 -0.1379
19.5000 6.4834 -0.1709
19.5200 6.4901 -0.1688
19.5400 6.4967 -0.1363
19.5600 6.5033 -0.1633
19.5800 6.5100 -0.1596
19.6000 6.5167 -0.1483
19.6200 6.5234 -0.1707
19.6400 6.5301 -0.1548
19.6600 6.5368 -0.1510
19.6800 6.5434 -0.1694
19.7000 6.5501 -0.1512
19.7200 6.5566 -0.1562
19.7400 6.5632 -0.1713
19.7600 6.5699 -0.1464
19.7800 6.5767 -0.1578
19.8000 6.5834 -0.1700
19.8200 6.5901 -0.1468
19.8400 6.5967 -0.1640
19.8600 6.6034 -0.1665
19.8800 6.6101 -0.1479
19.9000 6.6167 -0.1630
19.9200 6.6233 -0.1643
19.9400 6.6300 -0.1546
19.9600 6.6367 -0.1637
19.9800 6.6434 -0.1602
20.0000 6.6501 -0.1547
20.0200 6.6568 -0.1596
20.0400 6.6635 -0.1611
20.0600 6.6701 -0.1600
20.0800 6.6767 -0.1608
20.1000 6.6833 -0.1559
20.1200 6.6900 -0.1665
20.1400 6.6967 -0.1571
20.1600 6.7034 -0.1607
20.1800 6.7101 -0.1672
20.2000 6.7168 -0.1524
20.2200 6.7234 -0.1620
20.2400 6.7301 -0.1643
20.2600 6.7367 -0.1554
20.2800 6.7433 -0.1629
20.3000 6.7500 -0.1648
20.3200 6.7567 -0.1520
20.3400 6.7634 -0.1616
20.3600 6.7701 -0.1680
20.3800 6.7767 -0.1546
20.4000 6.7834 -0.1635
20.4200 6.7901 -0.1651
20.4400 6.7967 -0.1508
20.4600 6.8033 -0.1709
20.4800 6.8100 -0.1639
20.5000 6.8167 -0.1489
20.5200 6.8234 -0.1694
20.5400 6.8301 -0.1691
20.5600 6.8367 -0.1467
20.5800 6.8434 -0.1660
20.6000 6.8501 -0.1661
20.6200 6.8567 -0.1483
20.6400 6.8633 -0.1660
20.6600 6.8700 -0.1647
20.6800 6.8767 -0.1529
20.7000 6.8834 -0.1696
20.7200 6.8901 -0.1608
20.7400 6.8968 -0.1536
20.7600 6.9035 -0.1658
20.7800 6.9101 -0.1680
20.8000 6.9167 -0.1548
20.8200 6.9233 -0.1629
20.8400 6.9300 -0.1587
20.8600 6.9367 -0.1621
20.8800 6.9434 -0.1639
20.9000 6.9501 -0.1573
20.9200 6.9568 -0.1627
20.9400 6.9635 -0.1629
20.9600 6.9701 -0.1568
20.9800 6.9767 -0.1612
21.0000 6.9833 -0.1657
21.0200 6.9900 -0.1621
21.0400 6.9967 -0.1587
21.0600 7.0034 -0.1602
21.0800 7.0101 -0.1628
21.1000 7.0167 -0.1610
21.1200 7.0234 -0.1595
21.1400 7.0301 -0.1633
21.1600 7.0367 -0.1692
21.1800 7.0433 -0.1553
21.2000 7.0499 -0.1638
21.2200 7.0566 -0.1653
21.2400 7.0633 -0.1567
21.2600 7.0700 -0.1704
21.2800 7.0767 -0.1601
21.3000 7.0834 -0.1554
21.3200 7.0900 -0.1733
21.3400 7.0967 -0.1599
21.3600 7.1033 -0.1579
21.3800 7.1100 -0.1687
21.4000 7.1167 -0.1599
21.4200 7.1234 -0.1593
21.4400 7.1301 -0.1683
21.4600 7.1368 -0.1556
21.4800 7.1434 -0.1616
21.5000 7.1501 -0.1729
21.5200 7.1567 -0.1579
21.5400 7.1634 -0.1625
21.5600 7.1700 -0.1677
21.5800 7.1767 -0.1545
21.6000 7.1834 -0.1696
21.6200 7.1901 -0.1602
21.6400 7.1968 -0.1559
21.6600 7.2034 -0.1717
21.6800 7.2101 -0.1624
21.7000 7.2167 -0.1572
21.7200 7.2233 -0.1696
21.7400 7.2300 -0.1600
21.7600 7.2367 -0.1552
21.7800 7.2434 -0.1736
21.8000 7.2501 -0.1592
21.8200 7.2568 -0.1605
21.8400 7.2634 -0.1695
21.8600 7.2701 -0.1579
21.8800 7.2767 -0.1708
21.9000 7.2833 -0.1624
21.9200 7.2900 -0.1555
21.9400 7.2967 -0.1721
21.9600 7.3034 -0.1630
21.9800 7.3100 -0.1563
22.0000 7.3167 -0.1717
22.0200 7.3234 -0.1626
22.0400 7.3301 -0.1604
22.0600 7.3367 -0.1730
22.0800 7.3433 -0.1568
22.1000 7.3500 -0.1660
22.1200 7.3567 -0.1711
22.1400 7.3634 -0.1585
22.1600 7.3701 -0.1670
22.1800 7.3768 -0.1692
22.2000 7.3835 -0.1610
22.2200 7.3901 -0.1699
22.2400 7.3967 -0.1653
22.2600 7.4033 -0.1560
22.2800 7.4100 -0.1711
22.3000 7.4167 -0.1654
22.3200 7.4234 -0.1561
22.3400 7.4301 -0.1750
22.3600 7.4368 -0.1616
22.3800 7.4434 -0.1556
22.4000 7.4501 -0.1707
22.4200 7.4567 -0.1677
22.4400 7.4633 -0.1639
22.4600 7.4700 -0.1644
22.4800 7.4766 -0.1611
22.5000 7.4834 -0.1728
22.5200 7.4900 -0.1706
22.5400 7.4967 -0.1527
22.5600 7.5034 -0.1697
22.5800 7.5101 -0.1716
22.6000 7.5167 -0.1550
22.6200 7.5233 -0.1659
22.6400 7.5299 -0.1726
22.6600 7.5366 -0.1603
22.6800 7.5434 -0.1631
22.7000 7.5501 -0.1630
22.7200 7.5568 -0.1693
22.7400 7.5634 -0.1702
22.7600 7.5701 -0.1557
22.7800 7.5767 -0.1656
22.8000 7.5833 -0.1724
22.8200 7.5900 -0.1556
22.8400 7.5967 -0.1720
22.8600 7.6034 -0.1660
22.8800 7.6101 -0.1528
22.9000 7.6168 -0.1724
22.9200 7.6234 -0.1627
22.9400 7.6301 -0.1543
22.9600 7.6368 -0.1793
22.9800 7.6434 -0.1578
23.0000 7.6500 -0.1550
23.0200 7.6567 -0.1760
23.0400 7.6634 -0.1634
23.0600 7.6701 -0.1594
23.0800 7.6768 -0.1715
23.1000 7.6835 -0.1559
23.1200 7.6901 -0.1706
23.1400 7.6968 -0.1777
23.1600 7.7034 -0.1517
23.1800 7.7100 -0.1667
23.2000 7.7166 -0.1707
23.2200 7.7234 -0.1550
23.2400 7.7301 -0.1681
23.2600 7.7368 -0.1729
23.2800 7.7434 -0.1618
23.3000 7.7501 -0.1625
23.3200 7.7567 -0.1728
23.3400 7.7633 -0.1624
23.3600 7.7699 -0.1605
23.3800 7.7766 -0.1720
23.4000 7.7833 -0.1654
23.4200 7.7900 -0.1626
23.4400 7.7967 -0.1664
23.4600 7.8034 -0.1693
23.4800 7.8101 -0.1600
23.5000 7.8167 -0.1711
23.5200 7.8233 -0.1762
23.5400 7.8300 -0.1544
23.5600 7.8367 -0.1681
23.5800 7.8434 -0.1720
23.6000 7.8501 -0.1570
23.6200 7.8568 -0.1762
23.6400 7.8635 -0.1638
23.6600 7.8701 -0.1588
23.6800 7.8768 -0.1793
23.7000 7.8834 -0.1692
23.7200 7.8900 -0.1535
23.7400 7.8967 -0.1790
23.7600 7.9034 -0.1681
23.7800 7.9101 -0.1543
23.8000 7.9168 -0.1782
23.8200 7.9235 -0.1666
23.8400 7.9301 -0.1600
23.8600 7.9368 -0.1792
23.8800 7.9433 -0.1623
23.9000 7.9500 -0.1574
23.9200 7.9567 -0.1800
23.9400 7.9634 -0.1675
23.9600 7.9701 -0.1644
23.9800 7.9767 -0.1748
24.0000 7.9834 -0.1663
24.0200 7.9901 -0.1616
24.0400 7.9968 -0.1802
24.0600 8.0034 -0.1689
24.0800 8.0100 -0.1592
24.1000 8.0166 -0.1740
24.1200 8.0233 -0.1732
24.1400 8.0300 -0.1622
24.1600 8.0367 -0.1754
24.1800 8.0434 -0.1640
24.2000 8.0501 -0.1611
24.2200 8.0567 -0.1786
24.2400 8.0633 -0.1681
24.2600 8.0700 -0.1606
24.2800 8.0767 -0.1753
24.3000 8.0834 -0.1692
24.3200 8.0901 -0.1574
24.3400 8.0968 -0.1763
24.3600 8.1035 -0.1753
24.3800 8.1101 -0.1566
24.4000 8.1168 -0.1802
24.4200 8.1233 -0.1672
24.4400 8.1300 -0.1594
24.4600 8.1367 -0.1841
24.4800 8.1434 -0.1659
24.5000 8.1501 -0.1567
24.5200 8.1568 -0.1822
24.5400 8.1635 -0.1645
24.5600 8.1701 -0.1595
24.5800 8.1768 -0.1823
24.6000 8.1834 -0.1649
24.6200 8.1900 -0.1608
24.6400 8.1966 -0.1785
24.6600 8.2033 -0.1634
24.6800 8.2100 -0.1687
24.7000 8.2167 -0.1801
24.7200 8.2234 -0.1613
24.7400 8.2301 -0.1699
24.7600 8.2367 -0.1784
24.7800 8.2433 -0.1636
24.8000 8.2499 -0.1661
24.8200 8.2566 -0.1743
24.8400 8.2633 -0.1633
24.8600 8.2701 -0.1723
24.8800 8.2767 -0.1725
24.9000 8.2834 -0.1637
24.9200 8.2901 -0.1748
24.9400 8.2967 -0.1738
24.9600 8.3033 -0.1622
24.9800 8.3100 -0.1738
25.0000 8.3167 -0.1679
25.0200 8.3234 -0.1701
25.0400 8.3301 -0.1720
25.0600 8.3367 -0.1694
25.0800 8.3434 -0.1647
25.1000 8.3501 -0.1730
25.1200 8.3568 -0.1703
25.1400 8.3634 -0.1678
25.1600 8.3700 -0.1695
25.1800 8.3766 -0.1725
25.2000 8.3833 -0.1661
25.2200 8.3900 -0.1699
25.2400 8.3967 -0.1777
25.2600 8.4034 -0.1644
25.2800 8.4101 -0.1704
25.3000 8.4168 -0.1750
25.3200 8.4234 -0.1627
25.3400 8.4300 -0.1711
25.3600 8.4366 -0.1698
25.3800 8.4434 -0.1649
25.4000 8.4501 -0.1714
25.4200 8.4568 -0.1699
25.4400 8.4634 -0.1681
25.4600 8.4701 -0.1717
25.4800 8.4767 -0.1700
25.5000 8.4833 -0.1676
25.5200 8.4899 -0.1729
25.5400 8.4966 -0.1703
25.5600 8.5033 -0.1657
25.5800 8.5100 -0.1700
25.6000 8.5167 -0.1745
25.6200 8.5233 -0.1605
25.6400 8.5301 -0.1739
25.6600 8.5367 -0.1730
25.6800 8.5434 -0.1657
25.7000 8.5500 -0.1707
25.7200 8.5566 -0.1685
25.7400 8.5633 -0.1643
25.7600 8.5701 -0.1698
25.7800 8.5768 -0.1696
25.8000 8.5835 -0.1693
25.8200 8.5902 -0.1730
25.8400 8.5968 -0.1702
25.8600 8.6034 -0.1679
25.8800 8.6100 -0.1763
25.9000 8.6167 -0.1612
25.9200 8.6234 -0.1691
25.9400 8.6301 -0.1748
25.9600 8.6368 -0.1709
25.9800 8.6434 -0.1726
26.0000 8.6501 -0.1667
26.0200 8.6568 -0.1637
26.0400 8.6634 -0.1754
26.0600 8.6700 -0.1743
26.0800 8.6766 -0.1602
26.1000 8.6833 -0.1776
26.1200 8.6900 -0.1716
26.1400 8.6967 -0.1615
26.1600 8.7034 -0.1796
26.1800 8.7101 -0.1676
26.2000 8.7168 -0.1626
26.2200 8.7234 -0.1826
26.2400 8.7299 -0.1633
26.2600 8.7366 -0.1611
26.2800 8.7433 -0.1817
26.3000 8.7500 -0.1698
26.3200 8.7567 -0.1593
26.3400 8.7634 -0.1878
26.3600 8.7701 -0.1639
26.3800 8.7767 -0.1627
26.4000 8.7833 -0.1804
26.4200 8.7900 -0.1620
26.4400 8.7966 -0.1672
26.4600 8.8034 -0.1833
26.4800 8.8101 -0.1610
26.5000 8.8168 -0.1711
26.5200 8.8235 -0.1833
26.5400 8.8301 -0.1617
26.5600 8.8368 -0.1688
26.5800 8.8434 -0.1820
26.6000 8.8500 -0.1642
26.6200 8.8567 -0.1702
26.6400 8.8634 -0.1757
26.6600 8.8701 -0.1677
26.6800 8.8767 -0.1744
26.7000 8.8834 -0.1697
26.7200 8.8901 -0.1699
26.7400 8.8968 -0.1773
26.7600 8.9034 -0.1665
26.7800 8.9100 -0.1694
26.8000 8.9166 -0.1717
26.8200 8.9233 -0.1670
26.8400 8.9300 -0.1734
26.8600 8.9367 -0.1701
26.8800 8.9434 -0.1645
26.9000 8.9501 -0.1779
26.9200 8.9568 -0.1750
26.9400 8.9634 -0.1628
26.9600 8.9700 -0.1770
26.9800 8.9766 -0.1680
27.0000 8.9833 -0.1639
27.0200 8.9900 -0.1828
27.0400 8.9967 -0.1709
27.0600 9.0034 -0.1649
27.0800 9.0101 -0.1797
27.1000 9.0168 -0.1658
27.1200 9.0234 -0.1683
27.1400 9.0300 -0.1804
27.1600 9.0366 -0.1676
27.1800 9.0433 -0.1645
27.2000 9.0500 -0.1799
27.2200 9.0567 -0.1669
27.2400 9.0634 -0.1705
27.2600 9.0701 -0.1789
27.2800 9.0768 -0.1672
27.3000 9.0834 -0.1694
27.3200 9.0900 -0.1759
27.3400 9.0967 -0.1655
27.3600 9.1033 -0.1736
27.3800 9.1101 -0.1794
27.4000 9.1168 -0.1662
27.4200 9.1234 -0.1695
27.4400 9.1301 -0.1767
27.4600 9.1368 -0.1652
27.4800 9.1434 -0.1752
27.5000 9.1500 -0.1749
27.5200 9.1566 -0.1649
27.5400 9.1633 -0.1751
27.5600 9.1701 -0.1753
27.5800 9.1767 -0.1727
27.6000 9.1834 -0.1673
27.6200 9.1901 -0.1723
27.6400 9.1968 -0.1728
27.6600 9.2034 -0.1712
27.6800 9.2100 -0.1763
27.7000 9.2166 -0.1724
27.7200 9.2233 -0.1666
27.7400 9.2300 -0.1784
27.7600 9.2367 -0.1734
27.7800 9.2434 -0.1729
27.8000 9.2501 -0.1791
27.8200 9.2568 -0.1740
27.8400 9.2634 -0.1718
27.8600 9.2700 -0.1805
27.8800 9.2766 -0.1685
27.9000 9.2833 -0.1727
27.9200 9.2901 -0.1793
27.9400 9.2968 -0.1684
27.9600 9.3035 -0.1747
27.9800 9.3101 -0.1833
28.0000 9.3168 -0.1672
28.0200 9.3234 -0.1772
28.0400 9.3300 -0.1824
28.0600 9.3367 -0.1668
28.0800 9.3434 -0.1778
28.1000 9.3501 -0.1808
28.1200 9.3568 -0.1702
28.1400 9.3634 -0.1770
28.1600 9.3701 -0.1775
28.1800 9.3768 -0.1730
28.2000 9.3834 -0.1757
28.2200 9.3900 -0.1773
28.2400 9.3966 -0.1728
28.2600 9.4033 -0.1744
28.2800 9.4100 -0.1834
28.3000 9.4167 -0.1716
28.3200 9.4234 -0.1775
28.3400 9.4301 -0.1825
28.3600 9.4368 -0.1775
28.3800 9.4434 -0.1763
28.4000 9.4500 -0.1795
28.4200 9.4566 -0.1725
28.4400 9.4633 -0.1734
28.4600 9.4700 -0.1819
28.4800 9.4767 -0.1766
28.5000 9.4834 -0.1718
28.5200 9.4901 -0.1790
28.5400 9.4967 -0.1747
28.5600 9.5034 -0.1767
28.5800 9.5100 -0.1845
28.6000 9.5167 -0.1767
28.6200 9.5233 -0.1730
28.6400 9.5300 -0.1850
28.6600 9.5367 -0.1767
28.6800 9.5434 -0.1747
28.7000 9.5501 -0.1804
28.7200 9.5568 -0.1787
28.7400 9.5634 -0.1760
28.7600 9.5701 -0.1819
28.7800 9.5767 -0.1793
28.8000 9.5833 -0.1731
28.8200 9.5900 -0.1802
28.8400 9.5967 -0.1816
28.8600 9.6034 -0.1752
28.8800 9.6101 -0.1818
28.9000 9.6168 -0.1827
28.9200 9.6235 -0.1749
28.9400 9.6300 -0.1798
28.9600 9.6366 -0.1783
28.9800 9.6433 -0.1762
29.0000 9.6500 -0.1821
29.0200 9.6567 -0.1793
29.0400 9.6634 -0.1699
29.0600 9.6701 -0.1820
29.0800 9.6768 -0.1779
29.1000 9.6834 -0.1765
29.1200 9.6900 -0.1842
29.1400 9.6966 -0.1752
29.1600 9.7033 -0.1714
29.1800 9.7100 -0.1880
29.2000 9.7167 -0.1793
29.2200 9.7234 -0.1737
29.2400 9.7300 -0.1847
29.2600 9.7367 -0.1764
29.2800 9.7434 -0.1748
29.3000 9.7500 -0.1899
29.3200 9.7567 -0.1748
29.3400 9.7633 -0.1727
29.3600 9.7700 -0.1862
29.3800 9.7767 -0.1769
29.4000 9.7834 -0.1743
29.4200 9.7901 -0.1842
29.4400 9.7968 -0.1756
29.4600 9.8035 -0.1748
29.4800 9.8100 -0.1831
29.5000 9.8166 -0.1781
29.5200 9.8233 -0.1765
29.5400 9.8300 -0.1825
29.5600 9.8367 -0.1795
29.5800 9.8434 -0.1786
29.6000 9.8501 -0.1820
29.6200 9.8568 -0.1802
29.6400 9.8634 -0.1792
29.6600 9.8700 -0.1814
29.6800 9.8767 -0.1827
29.7000 9.8833 -0.1774
29.7200 9.8900 -0.1787
29.7400 9.8967 -0.1806
29.7600 9.9034 -0.1797
29.7800 9.9101 -0.1816
29.8000 9.9167 -0.1821
29.8200 9.9234 -0.1776
29.8400 9.9300 -0.1864
29.8600 9.9366 -0.1836
29.8800 9.9433 -0.1708
29.9000 9.9500 -0.1807
29.9200 9.9567 -0.1843
29.9400 9.9634 -0.1758
29.9600 9.9700 -0.1827
29.9800 9.9767 -0.1816
30.0000 9.9834 -0.1818
30.0200 9.9900 -0.1817
30.0400 9.9966 -0.1755
30.0600 10.0033 -0.1794
30.0800 10.0100 -0.1870
30.1000 10.0167 -0.1795
30.1200 10.0234 -0.1766
30.1400 10.0301 -0.1818
30.1600 10.0368 -0.1778
30.1800 10.0435 -0.1851
30.2000 10.0501 -0.1875
30.2200 10.0567 -0.1757
30.2400 10.0634 -0.1831
30.2600 10.0701 -0.1832
30.2800 10.0768 -0.1788
30.3000 10.0834 -0.1869
30.3200 10.0901 -0.1844
30.3400 10.0968 -0.1751
30.3600 10.1034 -0.1836
30.3800 10.1100 -0.1844
30.4000 10.1166 -0.1766
30.4200 10.1233 -0.1866
30.4400 10.1300 -0.1785
30.4600 10.1367 -0.1830
30.4800 10.1434 -0.1902
30.5000 10.1501 -0.1776
30.5200 10.1567 -0.1806
30.5400 10.1634 -0.1921
30.5600 10.1700 -0.1775
30.5800 10.1766 -0.1848
30.6000 10.1833 -0.1868
30.6200 10.1900 -0.1789
30.6400 10.1967 -0.1807
30.6600 10.2034 -0.1896
30.6800 10.2101 -0.1774
30.7000 10.2167 -0.1832
30.7200 10.2234 -0.1886
30.7400 10.2301 -0.1766
30.7600 10.2367 -0.1839
30.7800 10.2434 -0.1882
30.8000 10.2500 -0.1785
30.8200 10.2567 -0.1817
30.8400 10.2634 -0.1854
30.8600 10.2701 -0.1816
30.8800 10.2768 -0.1835
30.9000 10.2835 -0.1849
30.9200 10.2901 -0.1807
30.9400 10.2967 -0.1844
30.9600 10.3033 -0.1860
30.9800 10.3100 -0.1766
31.0000 10.3167 -0.1839
31.0200 10.3234 -0.1863
31.0400 10.3301 -0.1772
31.0600 10.3368 -0.1823
31.0800 10.3434 -0.1916
31.1000 10.3500 -0.1764
31.1200 10.3566 -0.1812
31.1400 10.3633 -0.1905
31.1600 10.3700 -0.1732
31.1800 10.3767 -0.1882
31.2000 10.3834 -0.1901
31.2200 10.3900 -0.1733
31.2400 10.3967 -0.1900
31.2600 10.4034 -0.1880
31.2800 10.4101 -0.1776
31.3000 10.4167 -0.1843
31.3200 10.4233 -0.1855
31.3400 10.4300 -0.1748
31.3600 10.4367 -0.1893
31.3800 10.4434 -0.1874
31.4000 10.4501 -0.1796
31.4200 10.4568 -0.1883
31.4400 10.4634 -0.1879
31.4600 10.4701 -0.1803
31.4800 10.4767 -0.1893
31.5000 10.4833 -0.1826
31.5200 10.4900 -0.1824
31.5400 10.4967 -0.1878
31.5600 10.5034 -0.1825
31.5800 10.5101 -0.1855
31.6000 10.5168 -0.1888
31.6200 10.5235 -0.1839
31.6400 10.5301 -0.1840
31.6600 10.5367 -0.1881
31.6800 10.5433 -0.1851
31.7000 10.5500 -0.1846
31.7200 10.5567 -0.1874
31.7400 10.5634 -0.1856
31.7600 10.5701 -0.1852
31.7800 10.5768 -0.1867
31.8000 10.5835 -0.1873
31.8200 10.5901 -0.1850
31.8400 10.5967 -0.1854
31.8600 10.6033 -0.1857
31.8800 10.6100 -0.1855
31.9000 10.6167 -0.1904
31.9200 10.6234 -0.1891
31.9400 10.6301 -0.1840
31.9600 10.6368 -0.1918
31.9800 10.6435 -0.1934
32.0000 10.6500 -0.1852
32.0200 10.6566 -0.1885
32.0400 10.6632 -0.1918
32.0600 10.6699 -0.1834
32.0800 10.6767 -0.1881
32.1000 10.6834 -0.1946
32.1200 10.6900 -0.1805
32.1400 10.6967 -0.1934
32.1600 10.7034 -0.1910
32.1800 10.7101 -0.1833
32.2000 10.7167 -0.1913
32.2200 10.7233 -0.1889
32.2400 10.7300 -0.1853
32.2600 10.7367 -0.1907
32.2800 10.7434 -0.1932
32.3000 10.7501 -0.1803
32.3200 10.7568 -0.1880
32.3400 10.7635 -0.1911
32.3600 10.7701 -0.1815
32.3800 10.7767 -0.1932
32.4000 10.7833 -0.1865
32.4200 10.7900 -0.1845
32.4400 10.7967 -0.1894
32.4600 10.8034 -0.1902
32.4800 10.8101 -0.1868
32.5000 10.8168 -0.1880
32.5200 10.8234 -0.1915
32.5400 10.8301 -0.1861
32.5600 10.8366 -0.1902
32.5800 10.8433 -0.1856
32.6000 10.8500 -0.1890
32.6200 10.8567 -0.1907
32.6400 10.8634 -0.1875
32.6600 10.8701 -0.1865
32.6800 10.8768 -0.1900
32.7000 10.8834 -0.1903
32.7200 10.8901 -0.1836
32.7400 10.8967 -0.1911
32.7600 10.9033 -0.1955
32.7800 10.9100 -0.1801
32.8000 10.9167 -0.1901
32.8200 10.9234 -0.1944
32.8400 10.9301 -0.1848
32.8600 10.9367 -0.1906
32.8800 10.9434 -0.1952
32.9000 10.9501 -0.1872
32.9200 10.9567 -0.1895
32.9400 10.9633 -0.1858
32.9600 10.9700 -0.1880
32.9800 10.9767 -0.1868
33.0000 10.9834 -0.1937
33.0200 10.9901 -0.1803
33.0400 10.9968 -0.1910
33.0600 11.0034 -0.1947
33.0800 11.0101 -0.1799
33.1000 11.0167 -0.1906
33.1200 11.0233 -0.1890
33.1400 11.0300 -0.1819
33.1600 11.0367 -0.1897
33.1800 11.0434 -0.1907
33.2000 11.0501 -0.1810
33.2200 11.0568 -0.1915
33.2400 11.0635 -0.1939
33.2600 11.0701 -0.1806
33.2800 11.0767 -0.1901
33.3000 11.0833 -0.1870
33.3200 11.0900 -0.1836
33.3400 11.0967 -0.1941
33.3600 11.1034 -0.1851
33.3800 11.1101 -0.1861
33.4000 11.1167 -0.1925
33.4200 11.1234 -0.1863
33.4400 11.1301 -0.1894
33.4600 11.1367 -0.1910
33.4800 11.1433 -0.1814
33.5000 11.1499 -0.1890
33.5200 11.1567 -0.1888
33.5400 11.1634 -0.1871
33.5600 11.1701 -0.1905
33.5800 11.1767 -0.1876
33.6000 11.1834 -0.1842
33.6200 11.1901 -0.1938
33.6400 11.1967 -0.1838
33.6600 11.2033 -0.1906
33.6800 11.2100 -0.1921
33.7000 11.2167 -0.1865
33.7200 11.2234 -0.1928
33.7400 11.2301 -0.1904
33.7600 11.2368 -0.1857
33.7800 11.2435 -0.1961
33.8000 11.2501 -0.1895
33.8200 11.2567 -0.1877
33.8400 11.2633 -0.1940
33.8600 11.2700 -0.1872
33.8800 11.2767 -0.1929
33.9000 11.2834 -0.1982
33.9200 11.2901 -0.1838
33.9400 11.2968 -0.1876
33.9600 11.3035 -0.2005
33.9800 11.3101 -0.1840
34.0000 11.3167 -0.1931
34.0200 11.3233 -0.1969
34.0400 11.3300 -0.1819
34.0600 11.3367 -0.1939
34.0800 11.3434 -0.1935
34.1000 11.3501 -0.1844
34.1200 11.3568 -0.1959
34.1400 11.3635 -0.1906
34.1600 11.3701 -0.1888
34.1800 11.3767 -0.2001
34.2000 11.3832 -0.1855
34.2200 11.3899 -0.1861
34.2400 11.3967 -0.1987
34.2600 11.4034 -0.1828
34.2800 11.4101 -0.1933
34.3000 11.4167 -0.1991
34.3200 11.4234 -0.1825
34.3400 11.4300 -0.1935
34.3600 11.4367 -0.1985
34.3800 11.4433 -0.1832
34.4000 11.4500 -0.1933
34.4200 11.4567 -0.1951
34.4400 11.4634 -0.1851
34.4600 11.4701 -0.1933
34.4800 11.4768 -0.1929
34.5000 11.4835 -0.1874
34.5200 11.4901 -0.1971
34.5400 11.4967 -0.1907
34.5600 11.5033 -0.1881
34.5800 11.5100 -0.1970
34.6000 11.5167 -0.1898
34.6200 11.5234 -0.1877
34.6400 11.5301 -0.2000
34.6600 11.5368 -0.1901
34.6800 11.5435 -0.1892
34.7000 11.5501 -0.1959
34.7200 11.5567 -0.1872
34.7400 11.5633 -0.1928
34.7600 11.5700 -0.1957
34.7800 11.5767 -0.1895
34.8000 11.5834 -0.1916
34.8200 11.5900 -0.1966
34.8400 11.5967 -0.1876
34.8600 11.6034 -0.1909
34.8800 11.6101 -0.1931
34.9000 11.6167 -0.1940
34.9200 11.6233 -0.1920
34.9400 11.6299 -0.1926
34.9600 11.6366 -0.1898
34.9800 11.6434 -0.1936
35.0000 11.6501 -0.1954
35.0200 11.6567 -0.1885
35.0400 11.6635 -0.1915
35.0600 11.6701 -0.1968
35.0800 11.6767 -0.1900
35.1000 11.6833 -0.1898
35.1200 11.6900 -0.1964
35.1400 11.6967 -0.1921
35.1600 11.7034 -0.1887
35.1800 11.7101 -0.1962
35.2000 11.7168 -0.1942
35.2200 11.7234 -0.1939
35.2400 11.7301 -0.1931
35.2600 11.7367 -0.1895
35.2800 11.7433 -0.1901
35.3000 11.7500 -0.1956
35.3200 11.7567 -0.1877
35.3400 11.7634 -0.1931
35.3600 11.7701 -0.1966
35.3800 11.7767 -0.1866
35.4000 11.7834 -0.1927
35.4200 11.7901 -0.1988
35.4400 11.7968 -0.1889
35.4600 11.8034 -0.1933
35.4800 11.8100 -0.1986
35.5000 11.8167 -0.1860
35.5200 11.8234 -0.1931
35.5400 11.8301 -0.1950
35.5600 11.8367 -0.1903
35.5800 11.8434 -0.1919
35.6000 11.8501 -0.1944
35.6200 11.8567 -0.1880
35.6400 11.8633 -0.1932
35.6600 11.8699 -0.1956
35.6800 11.8766 -0.1894
35.7000 11.8833 -0.1947
35.7200 11.8900 -0.1934
35.7400 11.8967 -0.1872
35.7600 11.9034 -0.1931
35.7800 11.9100 -0.1910
35.8000 11.9167 -0.1944
35.8200 11.9233 -0.1892
35.8400 11.9300 -0.1924
35.8600 11.9367 -0.1887
35.8800 11.9434 -0.1926
35.9000 11.9501 -0.1974
35.9200 11.9567 -0.1886
35.9400 11.9634 -0.1892
35.9600 11.9701 -0.1948
35.9800 11.9767 -0.1898
36.0000 11.9834 -0.1896
36.0200 11.9900 -0.1935
36.0400 11.9967 -0.1930
36.0600 12.0034 -0.1904
36.0800 12.0101 -0.1950
36.1000 12.0168 -0.1917
36.1200 12.0235 -0.1869
36.1400 12.0301 -0.1963
36.1600 12.0367 -0.1948
36.1800 12.0433 -0.1868
36.2000 12.0499 -0.1924
36.2200 12.0566 -0.1923
36.2400 12.0634 -0.1891
36.2600 12.0701 -0.1973
36.2800 12.0768 -0.1910
36.3000 12.0834 -0.1887
36.3200 12.0901 -0.1977
36.3400 12.0967 -0.1934
36.3600 12.1033 -0.1862
36.3800 12.1100 -0.1987
36.4000 12.1166 -0.1933
36.4200 12.1234 -0.1866
36.4400 12.1300 -0.1975
36.4600 12.1367 -0.1958
36.4800 12.1434 -0.1908
36.5000 12.1501 -0.1986
36.5200 12.1567 -0.1935
36.5400 12.1633 -0.1892
36.5600 12.1700 -0.1950
36.5800 12.1767 -0.1947
36.6000 12.1834 -0.1896
36.6200 12.1901 -0.2014
36.6400 12.1968 -0.1941
36.6600 12.2035 -0.1887
36.6800 12.2102 -0.2021
36.7000 12.2168 -0.1986
36.7200 12.2234 -0.1893
36.7400 12.2300 -0.1947
36.7600 12.2367 -0.1938
36.7800 12.2434 -0.1928
36.8000 12.2501 -0.2020
36.8200 12.2568 -0.1934
36.8400 12.2634 -0.1925
36.8600 12.2701 -0.2014
36.8800 12.2767 -0.1929
36.9000 12.2833 -0.1945
36.9200 12.2900 -0.1991
36.9400 12.2966 -0.1907
36.9600 12.3033 -0.1939
36.9800 12.3100 -0.1986
37.0000 12.3167 -0.1973
37.0200 12.3234 -0.1930
37.0400 12.3301 -0.1987
37.0600 12.3367 -0.1931
37.0800 12.3433 -0.1935
37.1000 12.3499 -0.1943
37.1200 12.3566 -0.1994
37.1400 12.3633 -0.1933
37.1600 12.3701 -0.1976
37.1800 12.3768 -0.1963
37.2000 12.3834 -0.1912
37.2200 12.3901 -0.1988
37.2400 12.3967 -0.1971
37.2600 12.4033 -0.1923
37.2800 12.4100 -0.1988
37.3000 12.4167 -0.1939
37.3200 12.4234 -0.1935
37.3400 12.4301 -0.2004
37.3600 12.4367 -0.1957
37.3800 12.4434 -0.1914
37.4000 12.4501 -0.2007
37.4200 12.4568 -0.1944
37.4400 12.4634 -0.1907
37.4600 12.4700 -0.1990
37.4800 12.4767 -0.1937
37.5000 12.4834 -0.1933
37.5200 12.4901 -0.2009
37.5400 12.4968 -0.1906
37.5600 12.5034 -0.1927
37.5800 12.5101 -0.2036
37.6000 12.5168 -0.1937
37.6200 12.5234 -0.1893
37.6400 12.5300 -0.1993
37.6600 12.5366 -0.1981
37.6800 12.5433 -0.1949
37.7000 12.5501 -0.1986
37.7200 12.5568 -0.1971
37.7400 12.5634 -0.1949
37.7600 12.5701 -0.2011
37.7800 12.5767 -0.2004
37.8000 12.5833 -0.1941
37.8200 12.5899 -0.1994
37.8400 12.5966 -0.1955
37.8600 12.6033 -0.1943
37.8800 12.6100 -0.2002
37.9000 12.6167 -0.1998
37.9200 12.6234 -0.1915
37.9400 12.6301 -0.1982
37.9600 12.6367 -0.1961
37.9800 12.6433 -0.1947
38.0000 12.6500 -0.1966
38.0200 12.6567 -0.1996
38.0400 12.6634 -0.1939
38.0600 12.6701 -0.1977
38.0800 12.6768 -0.1927
38.1000 12.6835 -0.1925
38.1200 12.6901 -0.2019
38.1400 12.6968 -0.1977
38.1600 12.7034 -0.1917
38.1800 12.7100 -0.2022
38.2000 12.7166 -0.1942
38.2200 12.7233 -0.1962
38.2400 12.7301 -0.2045
38.2600 12.7368 -0.1925
38.2800 12.7435 -0.1943
38.3000 12.7501 -0.2014
38.3200 12.7568 -0.1936
38.3400 12.7633 -0.1946
38.3600 12.7700 -0.1992
38.3800 12.7766 -0.1923
38.4000 12.7834 -0.1940
38.4200 12.7901 -0.1982
38.4400 12.7967 -0.1955
38.4600 12.8034 -0.1980
38.4800 12.8101 -0.1979
38.5000 12.8167 -0.1946
38.5200 12.8234 -0.1989
38.5400 12.8300 -0.1929
38.5600 12.8366 -0.1946
38.5800 12.8433 -0.1952
38.6000 12.8500 -0.1968
38.6200 12.8567 -0.1909
38.6400 12.8634 -0.1999
38.6600 12.8701 -0.1926
38.6800 12.8767 -0.1935
38.7000 12.8834 -0.2029
38.7200 12.8900 -0.1887
38.7400 12.8966 -0.1963
38.7600 12.9034 -0.2047
38.7800 12.9101 -0.1880
38.8000 12.9168 -0.1979
38.8200 12.9235 -0.2003
38.8400 12.9301 -0.1928
38.8600 12.9368 -0.2011
38.8800 12.9433 -0.1990
38.9000 12.9500 -0.1937
38.9200 12.9567 -0.2017
38.9400 12.9634 -0.1916
38.9600 12.9701 -0.1943
38.9800 12.9768 -0.2084
39.0000 12.9834 -0.1911
39.0200 12.9901 -0.1943
39.0400 12.9968 -0.2010
39.0600 13.0034 -0.1930
39.0800 13.0100 -0.2003
39.1000 13.0166 -0.1976
39.1200 13.0233 -0.1933
39.1400 13.0300 -0.2018
39.1600 13.0367 -0.1926
39.1800 13.0434 -0.1937
39.2000 13.0501 -0.2021
39.2200 13.0568 -0.1982
39.2400 13.0634 -0.1980
39.2600 13.0700 -0.1987
39.2800 13.0766 -0.1877
39.3000 13.0833 -0.2017
39.3200 13.0900 -0.2005
39.3400 13.0967 -0.1898
39.3600 13.1034 -0.2047
39.3800 13.1101 -0.1990
39.4000 13.1167 -0.1892
39.4200 13.1233 -0.2056
39.4400 13.1300 -0.1962
39.4600 13.1367 -0.1892
39.4800 13.1434 -0.2077
39.5000 13.1501 -0.1939
39.5200 13.1568 -0.1911
39.5400 13.1634 -0.2125
39.5600 13.1701 -0.1913
39.5800 13.1768 -0.1943
39.6000 13.1834 -0.2055
39.6200 13.1900 -0.1898
39.6400 13.1966 -0.1993
39.6600 13.2033 -0.2049
39.6800 13.2101 -0.1858
39.7000 13.2168 -0.2036
39.7200 13.2234 -0.2078
39.7400 13.2301 -0.1867
39.7600 13.2368 -0.2044
39.7800 13.2434 -0.1991
39.8000 13.2500 -0.1881
39.8200 13.2566 -0.2061
39.8400 13.2634 -0.1962
39.8600 13.2701 -0.1943
39.8800 13.2768 -0.2062
39.9000 13.2835 -0.1866
39.9200 13.2901 -0.1994
39.9400 13.2968 -0.2059
39.9600 13.3034 -0.1898
39.9800 13.3100 -0.2004
40.0000 13.3166 -0.2011
40.0200 13.3233 -0.1912
40.0400 13.3300 -0.2022
40.0600 13.3367 -0.1998
40.0800 13.3433 -0.1957
40.1000 13.3500 -0.2016
40.1200 13.3567 -0.1968
40.1400 13.3634 -0.1962
40.1600 13.3700 -0.2062
40.1800 13.3766 -0.1922
40.2000 13.3833 -0.1988
40.2200 13.3900 -0.2032
40.2400 13.3967 -0.1900
40.2600 13.4034 -0.2014
40.2800 13.4102 -0.1993
40.3000 13.4169 -0.1920
40.3200 13.4235 -0.2068
40.3400 13.4300 -0.1953
40.3600 13.4367 -0.1952
40.3800 13.4434 -0.2049
40.4000 13.4501 -0.1929
40.4200 13.4568 -0.1970
40.4400 13.4634 -0.2064
40.4600 13.4701 -0.1881
40.4800 13.4768 -0.1968
40.5000 13.4834 -0.2097
40.5200 13.4900 -0.1929
40.5400 13.4966 -0.1953
40.5600 13.5033 -0.2046
40.5800 13.5100 -0.1963
40.6000 13.5167 -0.1945
40.6200 13.5233 -0.2060
40.6400 13.5301 -0.1938
40.6600 13.5368 -0.1956
40.6800 13.5434 -0.2033
40.7000 13.5500 -0.1944
40.7200 13.5566 -0.1986
40.7400 13.5633 -0.2007
40.7600 13.5700 -0.1907
40.7800 13.5767 -0.2035
40.8000 13.5834 -0.2030
40.8200 13.5901 -0.1938
40.8400 13.5967 -0.1974
40.8600 13.6034 -0.2032
40.8800 13.6100 -0.1929
40.9000 13.6166 -0.1983
40.9200 13.6233 -0.2039
40.9400 13.6301 -0.1900
40.9600 13.6368 -0.2020
40.9800 13.6435 -0.2051
41.0000 13.6501 -0.1939
41.0200 13.6568 -0.2020
41.0400 13.6634 -0.2062
41.0600 13.6700 -0.1944
41.0800 13.6767 -0.1958
41.1000 13.6834 -0.2070
41.1200 13.6901 -0.1991
41.1400 13.6968 -0.1976
41.1600 13.7034 -0.2011
41.1800 13.7101 -0.2009
41.2000 13.7168 -0.2002
41.2200 13.7234 -0.2004
41.2400 13.7300 -0.2001
41.2600 13.7366 -0.1981
41.2800 13.7433 -0.2039
41.3000 13.7500 -0.1989
41.3200 13.7567 -0.1977
41.3400 13.7634 -0.2009
41.3600 13.7701 -0.2010
41.3800 13.7767 -0.1990
41.4000 13.7833 -0.2041
41.4200 13.7899 -0.1977
41.4400 13.7966 -0.1948
41.4600 13.8033 -0.2049
41.4800 13.8100 -0.1992
41.5000 13.8167 -0.1988
41.5200 13.8234 -0.2060
41.5400 13.8301 -0.1965
41.5600 13.8368 -0.2041
41.5800 13.8434 -0.2040
41.6000 13.8500 -0.1942
41.6200 13.8567 -0.2047
41.6400 13.8633 -0.2035
41.6600 13.8700 -0.1972
41.6800 13.8767 -0.2032
41.7000 13.8834 -0.1987
41.7200 13.8901 -0.1959
41.7400 13.8968 -0.2064
41.7600 13.9034 -0.1997
41.7800 13.9100 -0.1950
41.8000 13.9167 -0.2108
41.8200 13.9233 -0.1992
41.8400 13.9301 -0.1958
41.8600 13.9368 -0.2097
41.8800 13.9435 -0.1952
41.9000 13.9501 -0.1971
41.9200 13.9568 -0.2113
41.9400 13.9634 -0.2019
41.9600 13.9700 -0.1924
41.9800 13.9766 -0.2061
42.0000 13.9833 -0.2040
42.0200 13.9901 -0.1971
42.0400 13.9967 -0.2008
42.0600 14.0034 -0.1970
42.0800 14.0101 -0.1989
42.1000 14.0167 -0.2011
42.1200 14.0234 -0.2014
42.1400 14.0300 -0.2017
42.1600 14.0366 -0.2009
42.1800 14.0433 -0.1985
42.2000 14.0500 -0.1916
42.2200 14.0567 -0.2067
42.2400 14.0634 -0.1967
42.2600 14.0701 -0.1977
42.2800 14.0768 -0.2017
42.3000 14.0834 -0.1996
42.3200 14.0900 -0.2011
42.3400 14.0967 -0.1978
42.3600 14.1033 -0.1971
42.3800 14.1101 -0.2036
42.4000 14.1168 -0.2066
42.4200 14.1235 -0.1966
42.4400 14.1301 -0.2012
42.4600 14.1368 -0.2070
42.4800 14.1434 -0.1968
42.5000 14.1500 -0.2017
42.5200 14.1567 -0.2000
42.5400 14.1634 -0.2001
42.5600 14.1701 -0.2069
42.5800 14.1768 -0.2022
42.6000 14.1834 -0.1978
42.6200 14.1901 -0.2065
42.6400 14.1968 -0.1983
42.6600 14.2034 -0.2010
42.6800 14.2100 -0.2085
42.7000 14.2166 -0.2004
42.7200 14.2233 -0.2005
42.7400 14.2300 -0.2040
42.7600 14.2367 -0.2011
42.7800 14.2434 -0.2051
42.8000 14.2501 -0.2035
42.8200 14.2568 -0.1951
42.8400 14.2634 -0.2067
42.8600 14.2700 -0.2016
42.8800 14.2766 -0.2015
42.9000 14.2833 -0.2012
42.9200 14.2900 -0.2019
42.9400 14.2967 -0.2039
42.9600 14.3034 -0.2024
42.9800 14.3101 -0.2062
43.0000 14.3167 -0.2042
43.0200 14.3234 -0.2046
43.0400 14.3300 -0.2071
43.0600 14.3366 -0.2004
43.0800 14.3433 -0.2051
43.1000 14.3501 -0.2054
43.1200 14.3568 -0.2006
43.1400 14.3634 -0.1997
43.1600 14.3701 -0.2089
43.1800 14.3768 -0.2054
43.2000 14.3835 -0.2036
43.2200 14.3901 -0.2087
43.2400 14.3967 -0.1998
43.2600 14.4033 -0.2043
43.2800 14.4100 -0.2047
43.3000 14.4168 -0.2001
43.3200 14.4235 -0.2089
43.3400 14.4301 -0.2054
43.3600 14.4368 -0.2001
43.3800 14.4435 -0.2044
43.4000 14.4500 -0.2062
43.4200 14.4566 -0.2068
43.4400 14.4633 -0.2009
43.4600 14.4700 -0.2073
43.4800 14.4767 -0.2057
43.5000 14.4834 -0.2020
43.5200 14.4900 -0.2037
43.5400 14.4967 -0.2060
43.5600 14.5034 -0.2104
43.5800 14.5100 -0.2032
43.6000 14.5166 -0.2022
43.6200 14.5233 -0.2062
43.6400 14.5300 -0.2023
43.6600 14.5367 -0.2102
43.6800 14.5434 -0.2004
43.7000 14.5500 -0.2032
43.7200 14.5567 -0.2082
43.7400 14.5634 -0.2015
43.7600 14.5700 -0.2026
43.7800 14.5767 -0.2094
43.8000 14.5833 -0.2015
43.8200 14.5900 -0.2010
43.8400 14.5967 -0.2078
43.8600 14.6034 -0.1981
43.8800 14.6101 -0.2082
43.9000 14.6168 -0.2100
43.9200 14.6235 -0.1941
43.9400 14.6301 -0.2138
43.9600 14.6367 -0.2045
43.9800 14.6433 -0.1944
44.0000 14.6500 -0.2141
44.0200 14.6567 -0.2061
44.0400 14.6634 -0.1990
44.0600 14.6701 -0.2141
44.0800 14.6768 -0.2067
44.1000 14.6834 -0.1970
44.1200 14.6900 -0.2146
44.1400 14.6966 -0.2024
44.1600 14.7033 -0.2016
44.1800 14.7100 -0.2148
44.2000 14.7167 -0.2028
44.2200 14.7234 -0.2038
44.2400 14.7301 -0.2114
44.2600 14.7368 -0.2028
44.2800 14.7434 -0.2058
44.3000 14.7500 -0.2137
44.3200 14.7566 -0.2001
44.3400 14.7632 -0.1998
44.3600 14.7699 -0.2146
44.3800 14.7767 -0.2038
44.4000 14.7834 -0.2029
44.4200 14.7900 -0.2086
44.4400 14.7967 -0.2057
44.4600 14.8034 -0.2050
44.4800 14.8100 -0.2123
44.5000 14.8166 -0.2046
44.5200 14.8233 -0.2036
44.5400 14.8300 -0.2109
44.5600 14.8367 -0.2086
44.5800 14.8434 -0.2113
44.6000 14.8501 -0.2151
44.6200 14.8568 -0.2030
44.6400 14.8634 -0.2039
44.6600 14.8701 -0.2160
44.6800 14.8767 -0.2094
44.7000 14.8834 -0.2038
44.7200 14.8901 -0.2106
44.7400 14.8968 -0.2096
44.7600 14.9034 -0.2028
44.7800 14.9101 -0.2173
44.8000 14.9168 -0.2114
44.8200 14.9235 -0.2008
44.8400 14.9301 -0.2158
44.8600 14.9367 -0.2094
44.8800 14.9433 -0.2030
44.9000 14.9499 -0.2121
44.9200 14.9567 -0.2076
44.9400 14.9634 -0.2057
44.9600 14.9701 -0.2140
44.9800 14.9767 -0.2059
45.0000 14.9834 -0.2071
45.0200 14.9900 -0.2145
45.0400 14.9966 -0.2086
45.0600 15.0033 -0.2071
45.0800 15.0100 -0.2131
45.1000 15.0167 -0.2044
45.1200 15.0234 -0.2029
45.1400 15.0301 -0.2167
45.1600 15.0367 -0.2026
45.1800 15.0434 -0.2065
45.2000 15.0501 -0.2137
45.2200 15.0567 -0.2090
45.2400 15.0634 -0.2079
45.2600 15.0700 -0.2143
45.2800 15.0767 -0.2077
45.3000 15.0834 -0.2060
45.3200 15.0901 -0.2140
45.3400 15.0968 -0.2102
45.3600 15.1035 -0.2030
45.3800 15.1101 -0.2139
45.4000 15.1167 -0.2093
45.4200 15.1233 -0.2033
45.4400 15.1300 -0.2076
45.4600 15.1367 -0.2082
45.4800 15.1434 -0.2086
45.5000 15.1501 -0.2092
45.5200 15.1568 -0.2132
45.5400 15.1635 -0.2106
45.5600 15.1701 -0.2060
45.5800 15.1767 -0.2097
45.6000 15.1833 -0.2147
45.6200 15.1900 -0.2082
45.6400 15.1967 -0.2091
45.6600 15.2034 -0.2156
45.6800 15.2101 -0.2028
45.7000 15.2167 -0.2106
45.7200 15.2234 -0.2207
45.7400 15.2301 -0.2064
45.7600 15.2367 -0.2094
45.7800 15.2433 -0.2127
45.8000 15.2500 -0.2060
45.8200 15.2567 -0.2143
45.8400 15.2634 -0.2087
45.8600 15.2700 -0.2112
45.8800 15.2767 -0.2159
45.9000 15.2834 -0.2032
45.9200 15.2901 -0.2171
45.9400 15.2967 -0.2180
45.9600 15.3033 -0.2018
45.9800 15.3100 -0.2124
46.0000 15.3167 -0.2163
46.0200 15.3234 -0.2061
46.0400 15.3301 -0.2181
46.0600 15.3368 -0.2118
46.0800 15.3434 -0.2052
46.1000 15.3501 -0.2202
46.1200 15.3567 -0.2113
46.1400 15.3633 -0.2026
46.1600 15.3700 -0.2201
46.1800 15.3767 -0.2096
46.2000 15.3834 -0.2056
46.2200 15.3901 -0.2205
46.2400 15.3968 -0.2113
46.2600 15.4035 -0.2017
46.2800 15.4101 -0.2145
46.3000 15.4167 -0.2138
46.3200 15.4233 -0.2065
46.3400 15.4300 -0.2128
46.3600 15.4367 -0.2097
46.3800 15.4434 -0.2098
46.4000 15.4501 -0.2087
46.4200 15.4568 -0.2182
46.4400 15.4634 -0.2091
46.4600 15.4701 -0.2069
46.4800 15.4766 -0.2152
46.5000 15.4832 -0.2029
46.5200 15.4899 -0.2110
46.5400 15.4967 -0.2186
46.5600 15.5034 -0.2008
46.5800 15.5101 -0.2096
46.6000 15.5167 -0.2175
46.6200 15.5234 -0.1997
46.6400 15.5301 -0.2128
46.6600 15.5367 -0.2255
46.6800 15.5433 -0.1925
46.7000 15.5500 -0.2114
46.7200 15.5567 -0.2236
46.7400 15.5634 -0.1991
46.7600 15.5701 -0.2129
46.7800 15.5768 -0.2179
46.8000 15.5835 -0.1968
46.8200 15.5901 -0.2135
46.8400 15.5967 -0.2170
46.8600 15.6033 -0.1974
46.8800 15.6100 -0.2149
46.9000 15.6167 -0.2170
46.9200 15.6234 -0.1987
46.9400 15.6301 -0.2142
46.9600 15.6368 -0.2142
46.9800 15.6434 -0.2080
47.0000 15.6501 -0.2179
47.0200 15.6567 -0.2055
47.0400 15.6633 -0.2091
47.0600 15.6700 -0.2160
47.0800 15.6767 -0.2098
47.1000 15.6834 -0.2141
47.1200 15.6901 -0.2147
47.1400 15.6967 -0.2049
47.1600 15.7034 -0.2122
47.1800 15.7101 -0.2162
47.2000 15.7167 -0.2113
47.2200 15.7233 -0.2118
47.2400 15.7300 -0.2091
47.2600 15.7367 -0.2093
47.2800 15.7434 -0.2231
47.3000 15.7500 -0.2069
47.3200 15.7567 -0.2109
47.3400 15.7634 -0.2170
47.3600 15.7701 -0.2092
47.3800 15.7767 -0.2161
47.4000 15.7833 -0.2175
47.4200 15.7900 -0.2107
47.4400 15.7967 -0.2130
47.4600 15.8034 -0.2172
47.4800 15.8101 -0.2101
47.5000 15.8168 -0.2149
47.5200 15.8234 -0.2180
47.5400 15.8301 -0.2158
47.5600 15.8367 -0.2179
47.5800 15.8433 -0.2153
47.6000 15.8500 -0.2140
47.6200 15.8567 -0.2152
47.6400 15.8634 -0.2167
47.6600 15.8701 -0.2111
47.6800 15.8768 -0.2152
47.7000 15.8835 -0.2195
47.7200 15.8901 -0.2126
47.7400 15.8967 -0.2185
47.7600 15.9033 -0.2137
47.7800 15.9100 -0.2127
47.8000 15.9167 -0.2164
47.8200 15.9234 -0.2183
47.8400 15.9301 -0.2152
47.8600 15.9367 -0.2148
47.8800 15.9434 -0.2171
47.9000 15.9501 -0.2180
47.9200 15.9567 -0.2151
47.9400 15.9633 -0.2230
47.9600 15.9700 -0.2148
47.9800 15.9767 -0.2123
48.0000 15.9834 -0.2227
48.0200 15.9901 -0.2193
48.0400 15.9967 -0.2128
48.0600 16.0034 -0.2191
48.0800 16.0101 -0.2174
48.1000 16.0167 -0.2143
48.1200 16.0233 -0.2186
48.1400 16.0300 -0.2228
48.1600 16.0367 -0.2083
48.1800 16.0435 -0.2230
48.2000 16.0501 -0.2229
48.2200 16.0568 -0.2100
48.2400 16.0635 -0.2222
48.2600 16.0701 -0.2186
48.2800 16.0767 -0.2081
48.3000 16.0833 -0.2210
48.3200 16.0900 -0.2210
48.3400 16.0967 -0.2094
48.3600 16.1034 -0.2235
48.3800 16.1101 -0.2206
48.4000 16.1168 -0.2059
48.4200 16.1234 -0.2265
48.4400 16.1301 -0.2205
48.4600 16.1367 -0.2044
48.4800 16.1433 -0.2301
48.5000 16.1499 -0.2170
48.5200 16.1566 -0.2070
48.5400 16.1634 -0.2288
48.5600 16.1701 -0.2208
48.5800 16.1767 -0.2054
48.6000 16.1834 -0.2272
48.6200 16.1901 -0.2138
48.6400 16.1967 -0.2125
48.6600 16.2033 -0.2194
48.6800 16.2099 -0.2147
48.7000 16.2166 -0.2157
48.7200 16.2234 -0.2234
48.7400 16.2301 -0.2095
48.7600 16.2367 -0.2162
48.7800 16.2434 -0.2267
48.8000 16.2501 -0.2121
48.8200 16.2567 -0.2178
48.8400 16.2633 -0.2253
48.8600 16.2700 -0.2134
48.8800 16.2767 -0.2206
48.9000 16.2834 -0.2195
48.9200 16.2901 -0.2139
48.9400 16.2968 -0.2217
48.9600 16.3035 -0.2148
48.9800 16.3101 -0.2180
49.0000 16.3167 -0.2221
49.0200 16.3233 -0.2168
49.0400 16.3300 -0.2205
49.0600 16.3367 -0.2146
49.0800 16.3434 -0.2184
49.1000 16.3501 -0.2252
49.1200 16.3568 -0.2148
49.1400 16.3634 -0.2189
49.1600 16.3701 -0.2246
49.1800 16.3767 -0.2134
49.2000 16.3833 -0.2203
49.2200 16.3900 -0.2210
49.2400 16.3967 -0.2098
49.2600 16.4034 -0.2302
49.2800 16.4100 -0.2196
49.3000 16.4167 -0.2045
49.3200 16.4234 -0.2303
49.3400 16.4301 -0.2254
49.3600 16.4367 -0.2055
49.3800 16.4433 -0.2287
49.4000 16.4499 -0.2227
49.4200 16.4566 -0.2030
49.4400 16.4633 -0.2316
49.4600 16.4700 -0.2218
49.4800 16.4767 -0.1957
49.5000 16.4834 -0.2411
49.5200 16.4901 -0.2210
49.5400 16.4967 -0.1996
49.5600 16.5033 -0.2336
49.5800 16.5100 -0.2222
49.6000 16.5167 -0.2050
49.6200 16.5234 -0.2261
49.6400 16.5301 -0.2211
49.6600 16.5368 -0.2130
49.6800 16.5435 -0.2225
49.7000 16.5501 -0.2177
49.7200 16.5567 -0.2221
49.7400 16.5633 -0.2212
49.7600 16.5700 -0.2120
49.7800 16.5767 -0.2204
49.8000 16.5834 -0.2290
49.8200 16.5901 -0.2200
49.8400 16.5968 -0.2179
49.8600 16.6034 -0.2203
49.8800 16.6101 -0.2227
49.9000 16.6168 -0.2175
49.9200 16.6234 -0.2224
49.9400 16.6300 -0.2214
49.9600 16.6367 -0.2183
49.9800 16.6434 -0.2191
50.0000 16.6501 -0.2228
50.0200 16.6568 -0.2154
50.0400 16.6635 -0.2209
50.0600 16.6701 -0.2273
50.0800 16.6767 -0.2136
50.1000 16.6833 -0.2207
50.1200 16.6899 -0.2315
50.1400 16.6966 -0.2124
50.1600 16.7033 -0.2233
50.1800 16.7101 -0.2263
50.2000 16.7167 -0.2099
50.2200 16.7234 -0.2236
50.2400 16.7301 -0.2300
50.2600 16.7367 -0.2130
50.2800 16.7433 -0.2244
50.3000 16.7500 -0.2220
50.3200 16.7567 -0.2062
50.3400 16.7634 -0.2293
50.3600 16.7701 -0.2231
50.3800 16.7767 -0.2091
50.4000 16.7834 -0.2313
50.4200 16.7901 -0.2173
50.4400 16.7968 -0.2100
50.4600 16.8034 -0.2321
50.4800 16.8100 -0.2170
50.5000 16.8167 -0.2117
50.5200 16.8234 -0.2268
50.5400 16.8301 -0.2134
50.5600 16.8368 -0.2157
50.5800 16.8435 -0.2261
50.6000 16.8501 -0.2124
50.6200 16.8568 -0.2177
50.6400 16.8633 -0.2215
50.6600 16.8700 -0.2129
50.6800 16.8767 -0.2203
50.7000 16.8834 -0.2209
50.7200 16.8901 -0.2139
50.7400 16.8968 -0.2202
50.7600 16.9034 -0.2192
50.7800 16.9101 -0.2166
50.8000 16.9167 -0.2193
50.8200 16.9233 -0.2252
50.8400 16.9300 -0.2169
50.8600 16.9366 -0.2159
50.8800 16.9433 -0.2232
50.9000 16.9500 -0.2208
50.9200 16.9567 -0.2202
50.9400 16.9634 -0.2217
50.9600 16.9701 -0.2211
50.9800 16.9767 -0.2206
51.0000 16.9833 -0.2203
51.0200 16.9900 -0.2208
51.0400 16.9966 -0.2247
51.0600 17.0034 -0.2198
51.0800 17.0101 -0.2202
51.1000 17.0168 -0.2226
51.1200 17.0235 -0.2223
51.1400 17.0301 -0.2219
51.1600 17.0368 -0.2213
51.1800 17.0433 -0.2215
51.2000 17.0500 -0.2218
51.2200 17.0567 -0.2182
51.2400 17.0634 -0.2255
51.2600 17.0701 -0.2233
51.2800 17.0768 -0.2185
51.3000 17.0834 -0.2191
51.3200 17.0901 -0.2249
51.3400 17.0967 -0.2192
51.3600 17.1033 -0.2213
51.3800 17.1100 -0.2235
51.4000 17.1166 -0.2201
51.4200 17.1233 -0.2271
51.4400 17.1301 -0.2218
51.4600 17.1367 -0.2208
51.4800 17.1434 -0.2284
51.5000 17.1501 -0.2182
51.5200 17.1567 -0.2224
51.5400 17.1633 -0.2307
51.5600 17.1699 -0.2162
51.5800 17.1766 -0.2215
51.6000 17.1833 -0.2292
51.6200 17.1901 -0.2150
51.6400 17.1968 -0.2262
51.6600 17.2034 -0.2252
51.6800 17.2101 -0.2146
51.7000 17.2167 -0.2270
51.7200 17.2233 -0.2268
51.7400 17.2300 -0.2146
51.7600 17.2366 -0.2270
51.7800 17.2434 -0.2237
51.8000 17.2501 -0.2174
51.8200 17.2567 -0.2273
51.8400 17.2634 -0.2191
51.8600 17.2701 -0.2221
51.8800 17.2768 -0.2268
51.9000 17.2834 -0.2168
51.9200 17.2900 -0.2246
51.9400 17.2967 -0.2271
51.9600 17.3034 -0.2160
51.9800 17.3101 -0.2310
52.0000 17.3168 -0.2238
52.0200 17.3235 -0.2174
52.0400 17.3301 -0.2312
52.0600 17.3368 -0.2240
52.0800 17.3434 -0.2163
52.1000 17.3500 -0.2331
52.1200 17.3566 -0.2202
52.1400 17.3633 -0.2197
52.1600 17.3701 -0.2299
52.1800 17.3767 -0.2210
52.2000 17.3834 -0.2201
52.2200 17.3901 -0.2284
52.2400 17.3967 -0.2231
52.2600 17.4033 -0.2274
52.2800 17.4099 -0.2199
52.3000 17.4166 -0.2193
52.3200 17.4233 -0.2265
52.3400 17.4300 -0.2244
52.3600 17.4367 -0.2203
52.3800 17.4434 -0.2258
52.4000 17.4501 -0.2201
52.4200 17.4567 -0.2256
52.4400 17.4633 -0.2241
52.4600 17.4700 -0.2179
52.4800 17.4766 -0.2266
52.5000 17.4834 -0.2246
52.5200 17.4901 -0.2194
52.5400 17.4968 -0.2292
52.5600 17.5034 -0.2244
52.5800 17.5101 -0.2170
52.6000 17.5168 -0.2284
52.6200 17.5234 -0.2211
52.6400 17.5300 -0.2192
52.6600 17.5366 -0.2314
52.6800 17.5434 -0.2164
52.7000 17.5501 -0.2185
52.7200 17.5568 -0.2309
52.7400 17.5635 -0.2173
52.7600 17.5701 -0.2237
52.7800 17.5768 -0.2251
52.8000 17.5834 -0.2188
52.8200 17.5900 -0.2232
52.8400 17.5966 -0.2248
52.8600 17.6034 -0.2183
52.8800 17.6101 -0.2271
52.9000 17.6167 -0.2257
52.9200 17.6234 -0.2170
52.9400 17.6301 -0.2268
52.9600 17.6367 -0.2265
52.9800 17.6434 -0.2168
53.0000 17.6500 -0.2308
53.0200 17.6566 -0.2177
53.0400 17.6633 -0.2216
53.0600 17.6701 -0.2294
53.0800 17.6767 -0.2214
53.1000 17.6834 -0.2243
53.1200 17.6901 -0.2226
53.1400 17.6967 -0.2239
53.1600 17.7034 -0.2260
53.1800 17.7100 -0.2214
53.2000 17.7166 -0.2236
53.2200 17.7234 -0.2286
53.2400 17.7301 -0.2201
53.2600 17.7368 -0.2232
53.2800 17.7434 -0.2316
53.3000 17.7501 -0.2161
53.3200 17.7568 -0.2252
53.3400 17.7634 -0.2280
53.3600 17.7700 -0.2172
53.3800 17.7767 -0.2304
53.4000 17.7834 -0.2208
53.4200 17.7901 -0.2191
53.4400 17.7968 -0.2295
53.4600 17.8034 -0.2240
53.4800 17.8101 -0.2189
53.5000 17.8168 -0.2321
53.5200 17.8234 -0.2219
53.5400 17.8300 -0.2189
53.5600 17.8366 -0.2304
53.5800 17.8433 -0.2214
53.6000 17.8500 -0.2260
53.6200 17.8567 -0.2320
53.6400 17.8634 -0.2144
53.6600 17.8701 -0.2265
53.6800 17.8767 -0.2306
53.7000 17.8834 -0.2219
53.7200 17.8900 -0.2240
53.7400 17.8966 -0.2280
53.7600 17.9033 -0.2236
53.7800 17.9100 -0.2271
53.8000 17.9167 -0.2219
53.8200 17.9234 -0.2235
53.8400 17.9301 -0.2274
53.8600 17.9368 -0.2240
53.8800 17.9434 -0.2262
53.9000 17.9500 -0.2264
53.9200 17.9566 -0.2239
53.9400 17.9633 -0.2253
53.9600 17.9700 -0.2266
53.9800 17.9767 -0.2256
54.0000 17.9834 -0.2280
54.0200 17.9901 -0.2197
54.0400 17.9968 -0.2298
54.0600 18.0034 -0.2299
54.0800 18.0100 -0.2248
54.1000 18.0166 -0.2280
54.1200 18.0233 -0.2238
54.1400 18.0300 -0.2181
54.1600 18.0367 -0.2309
54.1800 18.0434 -0.2299
54.2000 18.0501 -0.2195
54.2200 18.0568 -0.2307
54.2400 18.0634 -0.2308
54.2600 18.0700 -0.2144
54.2800 18.0767 -0.2309
54.3000 18.0834 -0.2298
54.3200 18.0901 -0.2187
54.3400 18.0968 -0.2308
54.3600 18.1034 -0.2256
54.3800 18.1101 -0.2224
54.4000 18.1168 -0.2332
54.4200 18.1234 -0.2251
54.4400 18.1300 -0.2198
54.4600 18.1366 -0.2290
54.4800 18.1433 -0.2266
54.5000 18.1500 -0.2218
54.5200 18.1567 -0.2344
54.5400 18.1634 -0.2228
54.5600 18.1700 -0.2218
54.5800 18.1767 -0.2309
54.6000 18.1834 -0.2238
54.6200 18.1900 -0.2269
54.6400 18.1966 -0.2264
54.6600 18.2033 -0.2184
54.6800 18.2100 -0.2246
54.7000 18.2168 -0.2273
54.7200 18.2235 -0.2263
54.7400 18.2302 -0.2223
54.7600 18.2368 -0.2282
54.7800 18.2434 -0.2284
54.8000 18.2500 -0.2204
54.8200 18.2567 -0.2297
54.8400 18.2634 -0.2259
54.8600 18.2701 -0.2224
54.8800 18.2768 -0.2250
54.9000 18.2835 -0.2295
54.9200 18.2901 -0.2237
54.9400 18.2968 -0.2246
54.9600 18.3034 -0.2305
54.9800 18.3100 -0.2213
55.0000 18.3166 -0.2226
55.0200 18.3233 -0.2281
55.0400 18.3300 -0.2270
55.0600 18.3367 -0.2246
55.0800 18.3434 -0.2226
55.1000 18.3501 -0.2229
55.1200 18.3567 -0.2265
55.1400 18.3634 -0.2280
55.1600 18.3700 -0.2235
55.1800 18.3766 -0.2267
55.2000 18.3833 -0.2267
55.2200 18.3900 -0.2245
55.2400 18.3967 -0.2257
55.2600 18.4034 -0.2305
55.2800 18.4101 -0.2265
55.3000 18.4168 -0.2214
55.3200 18.4234 -0.2289
55.3400 18.4300 -0.2307
55.3600 18.4366 -0.2227
55.3800 18.4433 -0.2285
55.4000 18.4501 -0.2275
55.4200 18.4568 -0.2229
55.4400 18.4635 -0.2272
55.4600 18.4701 -0.2247
55.4800 18.4768 -0.2273
55.5000 18.4834 -0.2380
55.5200 18.4900 -0.2217
55.5400 18.4967 -0.2195
55.5600 18.5034 -0.2393
55.5800 18.5101 -0.2213
55.6000 18.5167 -0.2212
55.6200 18.5234 -0.2357
55.6400 18.5301 -0.2256
55.6600 18.5368 -0.2237
55.6800 18.5434 -0.2329
55.7000 18.5500 -0.2231
55.7200 18.5566 -0.2324
55.7400 18.5633 -0.2304
55.7600 18.5700 -0.2187
55.7800 18.5767 -0.2344
55.8000 18.5834 -0.2306
55.8200 18.5901 -0.2201
55.8400 18.5968 -0.2390
55.8600 18.6034 -0.2292
55.8800 18.6100 -0.2218
55.9000 18.6166 -0.2298
55.9200 18.6233 -0.2302
55.9400 18.6300 -0.2330
55.9600 18.6367 -0.2307
55.9800 18.6434 -0.2239
56.0000 18.6501 -0.2348
56.0200 18.6568 -0.2288
56.0400 18.6634 -0.2259
56.0600 18.6700 -0.2367
56.0800 18.6767 -0.2257
56.1000 18.6833 -0.2298
56.1200 18.6900 -0.2374
56.1400 18.6967 -0.2225
56.1600 18.7034 -0.2315
56.1800 18.7101 -0.2342
56.2000 18.7168 -0.2237
56.2200 18.7235 -0.2363
56.2400 18.7300 -0.2358
56.2600 18.7366 -0.2209
56.2800 18.7433 -0.2341
56.3000 18.7500 -0.2364
56.3200 18.7568 -0.2220
56.3400 18.7634 -0.2353
56.3600 18.7701 -0.2372
56.3800 18.7768 -0.2201
56.4000 18.7834 -0.2378
56.4200 18.7900 -0.2344
56.4400 18.7967 -0.2217
56.4600 18.8033 -0.2339
56.4800 18.8101 -0.2306
56.5000 18.8167 -0.2288
56.5200 18.8234 -0.2349
56.5400 18.8300 -0.2289
56.5600 18.8367 -0.2279
56.5800 18.8434 -0.2384
56.6000 18.8500 -0.2284
56.6200 18.8566 -0.2291
56.6400 18.8633 -0.2330
56.6600 18.8700 -0.2312
56.6800 18.8767 -0.2273
56.7000 18.8834 -0.2339
56.7200 18.8901 -0.2337
56.7400 18.8968 -0.2242
56.7600 18.9034 -0.2281
56.7800 18.9100 -0.2381
56.8000 18.9166 -0.2259
56.8200 18.9233 -0.2232
56.8400 18.9300 -0.2396
56.8600 18.9368 -0.2215
56.8800 18.9435 -0.2293
56.9000 18.9501 -0.2384
56.9200 18.9568 -0.2208
56.9400 18.9634 -0.2303
56.9600 18.9700 -0.2375
56.9800 18.9767 -0.2182
57.0000 18.9833 -0.2328
57.0200 18.9901 -0.2365
57.0400 18.9968 -0.2161
57.0600 19.0034 -0.2321
57.0800 19.0101 -0.2379
57.1000 19.0168 -0.2200
57.1200 19.0234 -0.2360
57.1400 19.0300 -0.2302
57.1600 19.0366 -0.2217
57.1800 19.0433 -0.2377
57.2000 19.0500 -0.2287
57.2200 19.0567 -0.2249
57.2400 19.0634 -0.2362
57.2600 19.0701 -0.2284
57.2800 19.0768 -0.2243
57.3000 19.0834 -0.2359
57.3200 19.0900 -0.2354
57.3400 19.0966 -0.2215
57.3600 19.1033 -0.2308
57.3800 19.1100 -0.2316
57.4000 19.1167 -0.2293
57.4200 19.1234 -0.2325
57.4400 19.1301 -0.2305
57.4600 19.1367 -0.2246
57.4800 19.1434 -0.2341
57.5000 19.1500 -0.2343
57.5200 19.1566 -0.2267
57.5400 19.1633 -0.2284
57.5600 19.1700 -0.2327
57.5800 19.1767 -0.2257
57.6000 19.1834 -0.2293
57.6200 19.1901 -0.2377
57.6400 19.1968 -0.2293
57.6600 19.2034 -0.2281
57.6800 19.2101 -0.2320
57.7000 19.2167 -0.2270
57.7200 19.2233 -0.2316
57.7400 19.2300 -0.2367
57.7600 19.2368 -0.2239
57.7800 19.2435 -0.2277
57.8000 19.2501 -0.2367
57.8200 19.2568 -0.2324
57.8400 19.2635 -0.2262
57.8600 19.2701 -0.2363
57.8800 19.2767 -0.2297
57.9000 19.2833 -0.2316
57.9200 19.2900 -0.2352
57.9400 19.2967 -0.2259
57.9600 19.3034 -0.2278
57.9800 19.3100 -0.2366
58.0000 19.3167 -0.2279
58.0200 19.3234 -0.2372
58.0400 19.3300 -0.2328
58.0600 19.3366 -0.2228
58.0800 19.3433 -0.2325
58.1000 19.3500 -0.2429
58.1200 19.3567 -0.2262
58.1400 19.3634 -0.2311
58.1600 19.3700 -0.2396
58.1800 19.3767 -0.2208
58.2000 19.3834 -0.2349
58.2200 19.3901 -0.2423
58.2400 19.3967 -0.2241
58.2600 19.4033 -0.2336
58.2800 19.4100 -0.2375
58.3000 19.4167 -0.2273
58.3200 19.4234 -0.2402
58.3400 19.4301 -0.2376
58.3600 19.4368 -0.2221
58.3800 19.4435 -0.2388
58.4000 19.4501 -0.2384
58.4200 19.4567 -0.2272
58.4400 19.4633 -0.2376
58.4600 19.4700 -0.2368
58.4800 19.4767 -0.2283
58.5000 19.4834 -0.2342
58.5200 19.4901 -0.2403
58.5400 19.4968 -0.2259
58.5600 19.5034 -0.2349
58.5800 19.5101 -0.2358
58.6000 19.5167 -0.2356
58.6200 19.5233 -0.2326
58.6400 19.5300 -0.2362
58.6600 19.5367 -0.2350
58.6800 19.5434 -0.2302
58.7000 19.5501 -0.2396
58.7200 19.5568 -0.2363
58.7400 19.5634 -0.2356
58.7600 19.5701 -0.2431
58.7800 19.5766 -0.2334
58.8000 19.5833 -0.2338
58.8200 19.5899 -0.2366
58.8400 19.5967 -0.2385
58.8600 19.6034 -0.2328
58.8800 19.6100 -0.2411
58.9000 19.6167 -0.2365
58.9200 19.6234 -0.2334
58.9400 19.6300 -0.2419
58.9600 19.6366 -0.2379
58.9800 19.6433 -0.2347
59.0000 19.6500 -0.2409
59.0200 19.6567 -0.2340
59.0400 19.6634 -0.2397
59.0600 19.6701 -0.2395
59.0800 19.6768 -0.2301
59.1000 19.6835 -0.2381
59.1200 19.6901 -0.2358
59.1400 19.6967 -0.2408
59.1600 19.7034 -0.2364
59.1800 19.7101 -0.2357
59.2000 19.7167 -0.2364
59.2200 19.7234 -0.2395
59.2400 19.7301 -0.2358
59.2600 19.7368 -0.2393
59.2800 19.7434 -0.2409
59.3000 19.7500 -0.2422
