Raw Data
Time Displacement Force
(s) (mm) (N)
0.0000 0.0000 -0.2480
0.0200 0.0000 -0.2562
0.0400 0.0008 -0.2312
0.0600 0.0039 -0.2099
0.0800 0.0094 -0.2650
0.1000 0.0151 -0.2650
0.1200 0.0210 -0.2254
0.1400 0.0276 -0.2521
0.1600 0.0350 -0.2619
0.1800 0.0424 -0.2444
0.2000 0.0496 -0.2574
0.2200 0.0565 -0.2606
0.2400 0.0632 -0.2432
0.2600 0.0698 -0.2540
0.2800 0.0765 -0.2598
0.3000 0.0832 -0.2394
0.3200 0.0899 -0.2509
0.3400 0.0967 -0.2502
0.3600 0.1033 -0.2421
0.3800 0.1100 -0.2541
0.4000 0.1166 -0.2484
0.4200 0.1233 -0.2409
0.4400 0.1300 -0.2461
0.4600 0.1367 -0.2465
0.4800 0.1434 -0.2465
0.5000 0.1501 -0.2388
0.5200 0.1568 -0.2412
0.5400 0.1634 -0.2414
0.5600 0.1700 -0.2415
0.5800 0.1766 -0.2397
0.6000 0.1833 -0.2342
0.6200 0.1900 -0.2377
0.6400 0.1967 -0.2409
0.6600 0.2034 -0.2343
0.6800 0.2100 -0.2270
0.7000 0.2167 -0.2384
0.7200 0.2234 -0.2326
0.7400 0.2300 -0.2233
0.7600 0.2366 -0.2340
0.7800 0.2433 -0.2263
0.8000 0.2500 -0.2227
0.8200 0.2566 -0.2337
0.8400 0.2633 -0.2176
0.8600 0.2700 -0.2292
0.8800 0.2767 -0.2322
0.9000 0.2833 -0.2185
0.9200 0.2899 -0.2221
0.9400 0.2965 -0.2296
0.9600 0.3032 -0.2191
0.9800 0.3100 -0.2255
1.0000 0.3167 -0.2229
1.0200 0.3233 -0.2197
1.0400 0.3300 -0.2314
1.0600 0.3367 -0.2282
1.0800 0.3433 -0.2144
1.1000 0.3499 -0.2286
1.1200 0.3566 -0.2297
1.1400 0.3633 -0.2230
1.1600 0.3700 -0.2318
1.1800 0.3767 -0.2292
1.2000 0.3834 -0.2213
1.2200 0.3900 -0.2340
1.2400 0.3967 -0.2334
1.2600 0.4034 -0.2257
1.2800 0.4100 -0.2355
1.3000 0.4166 -0.2296
1.3200 0.4233 -0.2270
1.3400 0.4300 -0.2411
1.3600 0.4367 -0.2328
1.3800 0.4434 -0.2263
1.4000 0.4500 -0.2383
1.4200 0.4567 -0.2409
1.4400 0.4633 -0.2292
1.4600 0.4699 -0.2434
1.4800 0.4765 -0.2383
1.5000 0.4832 -0.2305
1.5200 0.4900 -0.2487
1.5400 0.4967 -0.2407
1.5600 0.5034 -0.2408
1.5800 0.5100 -0.2437
1.6000 0.5167 -0.2340
1.6200 0.5233 -0.2465
1.6400 0.5299 -0.2502
1.6600 0.5366 -0.2331
1.6800 0.5432 -0.2515
1.7000 0.5500 -0.2493
1.7200 0.5567 -0.2368
1.7400 0.5633 -0.2592
1.7600 0.5700 -0.2527
1.7800 0.5767 -0.2327
1.8000 0.5833 -0.2618
1.8200 0.5900 -0.2511
1.8400 0.5966 -0.2434
1.8600 0.6033 -0.2614
1.8800 0.6100 -0.2490
1.9000 0.6167 -0.2453
1.9200 0.6234 -0.2610
1.9400 0.6300 -0.2466
1.9600 0.6367 -0.2530
1.9800 0.6434 -0.2649
2.0000 0.6500 -0.2465
2.0200 0.6566 -0.2513
2.0400 0.6632 -0.2659
2.0600 0.6700 -0.2450
2.0800 0.6767 -0.2624
2.1000 0.6834 -0.2651
2.1200 0.6900 -0.2438
2.1400 0.6967 -0.2622
2.1600 0.7034 -0.2629
2.1800 0.7099 -0.2503
2.2000 0.7166 -0.2636
2.2200 0.7232 -0.2616
2.2400 0.7300 -0.2523
2.2600 0.7367 -0.2662
2.2800 0.7433 -0.2647
2.3000 0.7500 -0.2597
2.3200 0.7567 -0.2628
2.3400 0.7633 -0.2613
2.3600 0.7700 -0.2694
2.3800 0.7766 -0.2648
2.4000 0.7832 -0.2597
2.4200 0.7899 -0.2695
2.4400 0.7966 -0.2645
2.4600 0.8033 -0.2660
2.4800 0.8100 -0.2698
2.5000 0.8167 -0.2699
2.5200 0.8234 -0.2628
2.5400 0.8300 -0.2721
2.5600 0.8366 -0.2676
2.5800 0.8433 -0.2680
2.6000 0.8500 -0.2745
2.6200 0.8567 -0.2626
2.6400 0.8634 -0.2700
2.6600 0.8701 -0.2785
2.6800 0.8767 -0.2634
2.7000 0.8834 -0.2712
2.7200 0.8900 -0.2765
2.7400 0.8966 -0.2661
2.7600 0.9033 -0.2718
2.7800 0.9100 -0.2809
2.8000 0.9167 -0.2705
2.8200 0.9234 -0.2734
2.8400 0.9301 -0.2776
2.8600 0.9367 -0.2692
2.8800 0.9434 -0.2781
2.9000 0.9500 -0.2815
2.9200 0.9566 -0.2702
2.9400 0.9632 -0.2765
2.9600 0.9699 -0.2814
2.9800 0.9767 -0.2692
3.0000 0.9833 -0.2812
3.0200 0.9900 -0.2822
3.0400 0.9967 -0.2686
3.0600 1.0034 -0.2857
3.0800 1.0100 -0.2855
3.1000 1.0165 -0.2680
3.1200 1.0232 -0.2847
3.1400 1.0299 -0.2837
3.1600 1.0366 -0.2720
3.1800 1.0433 -0.2895
3.2000 1.0500 -0.2853
3.2200 1.0567 -0.2739
3.2400 1.0634 -0.2938
3.2600 1.0700 -0.2798
3.2800 1.0766 -0.2767
3.3000 1.0833 -0.2884
3.3200 1.0900 -0.2816
3.3400 1.0967 -0.2825
3.3600 1.1034 -0.2914
3.3800 1.1101 -0.2817
3.4000 1.1168 -0.2854
3.4200 1.1234 -0.2880
3.4400 1.1300 -0.2877
3.4600 1.1366 -0.2855
3.4800 1.1433 -0.2860
3.5000 1.1500 -0.2858
3.5200 1.1567 -0.2881
3.5400 1.1634 -0.2867
3.5600 1.1700 -0.2936
3.5800 1.1767 -0.2906
3.6000 1.1834 -0.2826
3.6200 1.1900 -0.2939
3.6400 1.1966 -0.2864
3.6600 1.2032 -0.2901
3.6800 1.2100 -0.2972
3.7000 1.2167 -0.2855
3.7200 1.2233 -0.2900
3.7400 1.2300 -0.2944
3.7600 1.2367 -0.2860
3.7800 1.2434 -0.2960
3.8000 1.2500 -0.2958
3.8200 1.2566 -0.2853
3.8400 1.2633 -0.2936
3.8600 1.2699 -0.3012
3.8800 1.2766 -0.2894
3.9000 1.2833 -0.2907
3.9200 1.2900 -0.2970
3.9400 1.2967 -0.2892
3.9600 1.3034 -0.2954
3.9800 1.3100 -0.2998
4.0000 1.3166 -0.2872
4.0200 1.3232 -0.2932
4.0400 1.3299 -0.2974
4.0600 1.3367 -0.2862
4.0800 1.3434 -0.2905
4.1000 1.3500 -0.2986
4.1200 1.3567 -0.2911
4.1400 1.3634 -0.2947
4.1600 1.3700 -0.2985
4.1800 1.3766 -0.2894
4.2000 1.3833 -0.2943
4.2200 1.3900 -0.2949
4.2400 1.3967 -0.2901
4.2600 1.4034 -0.3007
4.2800 1.4101 -0.2941
4.3000 1.4167 -0.2926
4.3200 1.4234 -0.3011
4.3400 1.4300 -0.2971
4.3600 1.4366 -0.2909
4.3800 1.4433 -0.2966
4.4000 1.4499 -0.2963
4.4200 1.4567 -0.2951
4.4400 1.4633 -0.3035
4.4600 1.4700 -0.2965
4.4800 1.4767 -0.2955
4.5000 1.4834 -0.2988
4.5200 1.4900 -0.2995
4.5400 1.4966 -0.2983
4.5600 1.5032 -0.2937
4.5800 1.5099 -0.3003
4.6000 1.5166 -0.3038
4.6200 1.5233 -0.2972
4.6400 1.5300 -0.2994
4.6600 1.5367 -0.3043
4.6800 1.5434 -0.2995
4.7000 1.5500 -0.2995
4.7200 1.5566 -0.3045
4.7400 1.5633 -0.3016
4.7600 1.5700 -0.3006
4.7800 1.5767 -0.3045
4.8000 1.5834 -0.3054
4.8200 1.5901 -0.3061
4.8400 1.5967 -0.3036
4.8600 1.6034 -0.3000
4.8800 1.6100 -0.3111
4.9000 1.6166 -0.3095
4.9200 1.6233 -0.2994
4.9400 1.6300 -0.3132
4.9600 1.6367 -0.3097
4.9800 1.6434 -0.3007
5.0000 1.6500 -0.3152
5.0200 1.6567 -0.3090
5.0400 1.6634 -0.3097
5.0600 1.6700 -0.3159
5.0800 1.6766 -0.3094
5.1000 1.6832 -0.3123
5.1200 1.6899 -0.3104
5.1400 1.6966 -0.3107
5.1600 1.7033 -0.3146
5.1800 1.7100 -0.3170
5.2000 1.7167 -0.3130
5.2200 1.7234 -0.3162
5.2400 1.7300 -0.3127
5.2600 1.7366 -0.3121
5.2800 1.7432 -0.3222
5.3000 1.7499 -0.3164
5.3200 1.7566 -0.3154
5.3400 1.7633 -0.3215
5.3600 1.7700 -0.3164
5.3800 1.7767 -0.3196
5.4000 1.7833 -0.3164
5.4200 1.7900 -0.3189
5.4400 1.7966 -0.3211
5.4600 1.8033 -0.3209
5.4800 1.8099 -0.3160
5.5000 1.8166 -0.3236
5.5200 1.8233 -0.3151
5.5400 1.8300 -0.3166
5.5600 1.8368 -0.3256
5.5800 1.8434 -0.3165
5.6000 1.8501 -0.3210
5.6200 1.8566 -0.3251
5.6400 1.8633 -0.3117
5.6600 1.8699 -0.3173
5.6800 1.8767 -0.3284
5.7000 1.8834 -0.3206
5.7200 1.8901 -0.3175
5.7400 1.8967 -0.3252
5.7600 1.9034 -0.3170
5.7800 1.9100 -0.3227
5.8000 1.9166 -0.3295
5.8200 1.9232 -0.3171
5.8400 1.9299 -0.3211
5.8600 1.9366 -0.3280
5.8800 1.9433 -0.3231
5.9000 1.9500 -0.3215
5.9200 1.9566 -0.3287
5.9400 1.9633 -0.3255
5.9600 1.9700 -0.3220
5.9800 1.9766 -0.3314
6.0000 1.9832 -0.3230
6.0200 1.9899 -0.3179
6.0400 1.9966 -0.3311
6.0600 2.0033 -0.3229
6.0800 2.0100 -0.3250
6.1000 2.0167 -0.3317
6.1200 2.0234 -0.3257
6.1400 2.0301 -0.3213
6.1600 2.0366 -0.3359
6.1800 2.0433 -0.3293
6.2000 2.0499 -0.3203
6.2200 2.0567 -0.3310
6.2400 2.0634 -0.3267
6.2600 2.0700 -0.3265
6.2800 2.0767 -0.3345
6.3000 2.0834 -0.3278
6.3200 2.0900 -0.3271
6.3400 2.0966 -0.3332
6.3600 2.1033 -0.3284
6.3800 2.1099 -0.3256
6.4000 2.1167 -0.3359
6.4200 2.1234 -0.3275
6.4400 2.1300 -0.3265
6.4600 2.1367 -0.3351
6.4800 2.1434 -0.3273
6.5000 2.1501 -0.3289
6.5200 2.1567 -0.3390
6.5400 2.1633 -0.3236
6.5600 2.1699 -0.3306
6.5800 2.1766 -0.3352
6.6000 2.1833 -0.3271
6.6200 2.1900 -0.3328
6.6400 2.1967 -0.3342
6.6600 2.2034 -0.3318
6.6800 2.2100 -0.3344
6.7000 2.2166 -0.3381
6.7200 2.2232 -0.3325
6.7400 2.2299 -0.3310
6.7600 2.2366 -0.3374
6.7800 2.2433 -0.3355
6.8000 2.2500 -0.3364
6.8200 2.2567 -0.3388
6.8400 2.2634 -0.3341
6.8600 2.2700 -0.3334
6.8800 2.2766 -0.3405
6.9000 2.2833 -0.3323
6.9200 2.2899 -0.3284
6.9400 2.2966 -0.3489
6.9600 2.3033 -0.3355
6.9800 2.3100 -0.3287
7.0000 2.3167 -0.3473
7.0200 2.3234 -0.3385
7.0400 2.3301 -0.3372
7.0600 2.3367 -0.3457
7.0800 2.3433 -0.3344
7.1000 2.3499 -0.3385
7.1200 2.3566 -0.3503
7.1400 2.3633 -0.3341
7.1600 2.3700 -0.3373
7.1800 2.3767 -0.3547
7.2000 2.3834 -0.3388
7.2200 2.3901 -0.3458
7.2400 2.3967 -0.3462
7.2600 2.4033 -0.3377
7.2800 2.4099 -0.3444
7.3000 2.4166 -0.3444
7.3200 2.4234 -0.3427
7.3400 2.4300 -0.3447
7.3600 2.4367 -0.3441
7.3800 2.4434 -0.3417
7.4000 2.4500 -0.3509
7.4200 2.4566 -0.3479
7.4400 2.4632 -0.3347
7.4600 2.4699 -0.3462
7.4800 2.4766 -0.3513
7.5000 2.4833 -0.3433
7.5200 2.4900 -0.3451
7.5400 2.4967 -0.3489
7.5600 2.5033 -0.3435
7.5800 2.5100 -0.3450
7.6000 2.5166 -0.3514
7.6200 2.5233 -0.3429
7.6400 2.5299 -0.3481
7.6600 2.5366 -0.3519
7.6800 2.5433 -0.3478
7.7000 2.5500 -0.3436
7.7200 2.5567 -0.3546
7.7400 2.5634 -0.3497
7.7600 2.5701 -0.3441
7.7800 2.5767 -0.3557
7.8000 2.5833 -0.3490
7.8200 2.5899 -0.3432
7.8400 2.5967 -0.3555
7.8600 2.6034 -0.3502
7.8800 2.6101 -0.3489
7.9000 2.6167 -0.3526
7.9200 2.6234 -0.3497
7.9400 2.6300 -0.3487
7.9600 2.6367 -0.3560
7.9800 2.6433 -0.3518
8.0000 2.6499 -0.3500
8.0200 2.6566 -0.3528
8.0400 2.6633 -0.3585
8.0600 2.6700 -0.3492
8.0800 2.6767 -0.3560
8.1000 2.6834 -0.3562
8.1200 2.6900 -0.3492
8.1400 2.6967 -0.3574
8.1600 2.7032 -0.3528
8.1800 2.7099 -0.3490
8.2000 2.7166 -0.3598
8.2200 2.7233 -0.3591
8.2400 2.7300 -0.3475
8.2600 2.7367 -0.3618
8.2800 2.7434 -0.3614
8.3000 2.7500 -0.3469
8.3200 2.7567 -0.3613
8.3400 2.7633 -0.3598
8.3600 2.7699 -0.3480
8.3800 2.7766 -0.3623
8.4000 2.7833 -0.3615
8.4200 2.7900 -0.3529
8.4400 2.7967 -0.3651
8.4600 2.8034 -0.3581
8.4800 2.8101 -0.3499
8.5000 2.8167 -0.3707
8.5200 2.8233 -0.3565
8.5400 2.8299 -0.3518
8.5600 2.8366 -0.3688
8.5800 2.8433 -0.3585
8.6000 2.8500 -0.3507
8.6200 2.8567 -0.3696
8.6400 2.8634 -0.3581
8.6600 2.8701 -0.3585
8.6800 2.8767 -0.3722
8.7000 2.8833 -0.3561
8.7200 2.8899 -0.3617
8.7400 2.8966 -0.3720
8.7600 2.9033 -0.3581
8.7800 2.9100 -0.3659
8.8000 2.9167 -0.3660
8.8200 2.9234 -0.3546
8.8400 2.9300 -0.3700
8.8600 2.9366 -0.3706
8.8800 2.9432 -0.3550
8.9000 2.9499 -0.3686
8.9200 2.9565 -0.3683
8.9400 2.9633 -0.3610
8.9600 2.9700 -0.3721
8.9800 2.9766 -0.3688
9.0000 2.9833 -0.3570
9.0200 2.9900 -0.3725
9.0400 2.9967 -0.3700
9.0600 3.0033 -0.3626
9.0800 3.0099 -0.3722
9.1000 3.0166 -0.3683
9.1200 3.0233 -0.3666
9.1400 3.0300 -0.3682
9.1600 3.0367 -0.3706
9.1800 3.0434 -0.3656
9.2000 3.0501 -0.3711
9.2200 3.0567 -0.3720
9.2400 3.0633 -0.3642
9.2600 3.0699 -0.3703
9.2800 3.0766 -0.3729
9.3000 3.0833 -0.3678
9.3200 3.0900 -0.3771
9.3400 3.0967 -0.3707
9.3600 3.1034 -0.3688
9.3800 3.1101 -0.3724
9.4000 3.1167 -0.3718
9.4200 3.1233 -0.3706
9.4400 3.1299 -0.3752
9.4600 3.1366 -0.3686
9.4800 3.1433 -0.3691
9.5000 3.1500 -0.3730
9.5200 3.1567 -0.3679
9.5400 3.1634 -0.3697
9.5600 3.1700 -0.3752
9.5800 3.1767 -0.3708
9.6000 3.1833 -0.3716
9.6200 3.1899 -0.3725
9.6400 3.1966 -0.3760
9.6600 3.2033 -0.3741
9.6800 3.2100 -0.3735
9.7000 3.2167 -0.3713
9.7200 3.2233 -0.3735
9.7400 3.2300 -0.3761
9.7600 3.2367 -0.3689
9.7800 3.2433 -0.3732
9.8000 3.2499 -0.3737
9.8200 3.2566 -0.3752
9.8400 3.2633 -0.3774
9.8600 3.2700 -0.3786
9.8800 3.2767 -0.3674
9.9000 3.2834 -0.3759
9.9200 3.2901 -0.3761
9.9400 3.2967 -0.3705
9.9600 3.3033 -0.3804
9.9800 3.3099 -0.3744
10.0000 3.3166 -0.3691
10.0200 3.3234 -0.3828
10.0400 3.3301 -0.3759
10.0600 3.3367 -0.3766
10.0800 3.3434 -0.3799
10.1000 3.3500 -0.3741
10.1200 3.3567 -0.3784
10.1400 3.3633 -0.3824
10.1600 3.3699 -0.3783
10.1800 3.3766 -0.3744
10.2000 3.3833 -0.3791
10.2200 3.3900 -0.3793
10.2400 3.3967 -0.3725
10.2600 3.4033 -0.3813
10.2800 3.4100 -0.3839
10.3000 3.4167 -0.3791
10.3200 3.4233 -0.3797
10.3400 3.4299 -0.3844
10.3600 3.4366 -0.3748
10.3800 3.4433 -0.3839
10.4000 3.4500 -0.3858
10.4200 3.4567 -0.3754
10.4400 3.4633 -0.3837
10.4600 3.4700 -0.3885
10.4800 3.4767 -0.3807
10.5000 3.4833 -0.3822
10.5200 3.4899 -0.3875
10.5400 3.4966 -0.3762
10.5600 3.5033 -0.3858
10.5800 3.5100 -0.3893
10.6000 3.5167 -0.3768
10.6200 3.5234 -0.3861
10.6400 3.5301 -0.3907
10.6600 3.5367 -0.3789
10.6800 3.5433 -0.3864
10.7000 3.5499 -0.3902
10.7200 3.5566 -0.3819
10.7400 3.5633 -0.3885
10.7600 3.5700 -0.3923
10.7800 3.5767 -0.3801
10.8000 3.5834 -0.3942
10.8200 3.5901 -0.3892
10.8400 3.5967 -0.3840
10.8600 3.6033 -0.3913
10.8800 3.6099 -0.3866
10.9000 3.6166 -0.3858
10.9200 3.6233 -0.3932
10.9400 3.6300 -0.3888
10.9600 3.6367 -0.3918
10.9800 3.6434 -0.3947
11.0000 3.6500 -0.3923
11.0200 3.6567 -0.3905
11.0400 3.6633 -0.3936
11.0600 3.6699 -0.3900
11.0800 3.6766 -0.3910
11.1000 3.6833 -0.3892
11.1200 3.6900 -0.3966
11.1400 3.6966 -0.3950
11.1600 3.7033 -0.3889
11.1800 3.7100 -0.3969
11.2000 3.7166 -0.3957
11.2200 3.7233 -0.3879
11.2400 3.7299 -0.3981
11.2600 3.7366 -0.3980
11.2800 3.7433 -0.3893
11.3000 3.7500 -0.4003
11.3200 3.7567 -0.3970
11.3400 3.7634 -0.3874
11.3600 3.7701 -0.4034
11.3800 3.7768 -0.3983
11.4000 3.7833 -0.3898
11.4200 3.7899 -0.4018
11.4400 3.7966 -0.3919
11.4600 3.8033 -0.3948
11.4800 3.8100 -0.4048
11.5000 3.8167 -0.3961
11.5200 3.8234 -0.3932
11.5400 3.8301 -0.4039
11.5600 3.8367 -0.3982
11.5800 3.8433 -0.3993
11.6000 3.8499 -0.4035
11.6200 3.8566 -0.3933
11.6400 3.8633 -0.3963
11.6600 3.8700 -0.4073
11.6800 3.8766 -0.3955
11.7000 3.8833 -0.3992
11.7200 3.8900 -0.4037
11.7400 3.8967 -0.3943
11.7600 3.9033 -0.4018
11.7800 3.9099 -0.4074
11.8000 3.9165 -0.3905
11.8200 3.9232 -0.4002
11.8400 3.9300 -0.4064
11.8600 3.9366 -0.3982
11.8800 3.9433 -0.4059
11.9000 3.9500 -0.4082
11.9200 3.9567 -0.4009
11.9400 3.9633 -0.4023
11.9600 3.9699 -0.4021
11.9800 3.9766 -0.4013
12.0000 3.9833 -0.4095
12.0200 3.9900 -0.4024
12.0400 3.9967 -0.3976
12.0600 4.0034 -0.4019
12.0800 4.0101 -0.4063
12.1000 4.0167 -0.4061
12.1200 4.0234 -0.4023
12.1400 4.0300 -0.4021
12.1600 4.0366 -0.4060
12.1800 4.0433 -0.3972
12.2000 4.0500 -0.4055
12.2200 4.0567 -0.4078
12.2400 4.0634 -0.3997
12.2600 4.0701 -0.4018
12.2800 4.0767 -0.4089
12.3000 4.0833 -0.3996
12.3200 4.0899 -0.4080
12.3400 4.0965 -0.4069
12.3600 4.1033 -0.3949
12.3800 4.1100 -0.4102
12.4000 4.1167 -0.4098
12.4200 4.1234 -0.3949
12.4400 4.1301 -0.4138
12.4600 4.1367 -0.4111
12.4800 4.1433 -0.3991
12.5000 4.1499 -0.4091
12.5200 4.1566 -0.4083
12.5400 4.1633 -0.4007
12.5600 4.1700 -0.4147
12.5800 4.1767 -0.4029
12.6000 4.1833 -0.4039
12.6200 4.1900 -0.4140
12.6400 4.1967 -0.4055
12.6600 4.2033 -0.4120
12.6800 4.2100 -0.4099
12.7000 4.2166 -0.4010
12.7200 4.2233 -0.4138
12.7400 4.2300 -0.4087
12.7600 4.2367 -0.4044
12.7800 4.2434 -0.4121
12.8000 4.2501 -0.4054
12.8200 4.2567 -0.4078
12.8400 4.2633 -0.4165
12.8600 4.2700 -0.4068
12.8800 4.2766 -0.4056
12.9000 4.2833 -0.4182
12.9200 4.2900 -0.4024
12.9400 4.2967 -0.4105
12.9600 4.3034 -0.4199
12.9800 4.3101 -0.3996
13.0000 4.3167 -0.4120
13.0200 4.3233 -0.4170
13.0400 4.3299 -0.4002
13.0600 4.3366 -0.4157
13.0800 4.3433 -0.4127
13.1000 4.3500 -0.4071
13.1200 4.3567 -0.4134
13.1400 4.3633 -0.4128
13.1600 4.3700 -0.4053
13.1800 4.3767 -0.4156
13.2000 4.3834 -0.4072
13.2200 4.3899 -0.4068
13.2400 4.3966 -0.4181
13.2600 4.4032 -0.4124
13.2800 4.4100 -0.4109
13.3000 4.4167 -0.4170
13.3200 4.4233 -0.4090
13.3400 4.4300 -0.4071
13.3600 4.4367 -0.4183
13.3800 4.4433 -0.4141
13.4000 4.4499 -0.4079
13.4200 4.4566 -0.4133
13.4400 4.4633 -0.4124
13.4600 4.4700 -0.4119
13.4800 4.4767 -0.4168
13.5000 4.4834 -0.4145
13.5200 4.4901 -0.4118
13.5400 4.4968 -0.4144
13.5600 4.5034 -0.4190
13.5800 4.5100 -0.4131
13.6000 4.5166 -0.4156
13.6200 4.5233 -0.4161
13.6400 4.5300 -0.4126
13.6600 4.5367 -0.4187
13.6800 4.5434 -0.4119
13.7000 4.5500 -0.4186
13.7200 4.5567 -0.4200
13.7400 4.5633 -0.4138
13.7600 4.5699 -0.4148
13.7800 4.5765 -0.4158
13.8000 4.5832 -0.4168
13.8200 4.5900 -0.4197
13.8400 4.5967 -0.4210
13.8600 4.6033 -0.4143
13.8800 4.6100 -0.4207
13.9000 4.6167 -0.4199
13.9200 4.6233 -0.4174
13.9400 4.6299 -0.4188
13.9600 4.6366 -0.4186
13.9800 4.6433 -0.4195
14.0000 4.6500 -0.4199
14.0200 4.6567 -0.4195
14.0400 4.6634 -0.4228
14.0600 4.6700 -0.4159
14.0800 4.6767 -0.4222
14.1000 4.6833 -0.4202
14.1200 4.6899 -0.4218
14.1400 4.6966 -0.4218
14.1600 4.7033 -0.4195
14.1800 4.7100 -0.4137
14.2000 4.7167 -0.4247
14.2200 4.7234 -0.4225
14.2400 4.7301 -0.4117
14.2600 4.7367 -0.4255
14.2800 4.7434 -0.4212
14.3000 4.7500 -0.4108
14.3200 4.7566 -0.4281
14.3400 4.7633 -0.4229
14.3600 4.7700 -0.4098
14.3800 4.7767 -0.4317
14.4000 4.7834 -0.4245
14.4200 4.7901 -0.4096
14.4400 4.7968 -0.4311
14.4600 4.8034 -0.4260
14.4800 4.8100 -0.4112
14.5000 4.8166 -0.4290
14.5200 4.8233 -0.4201
14.5400 4.8300 -0.4177
14.5600 4.8366 -0.4287
14.5800 4.8433 -0.4242
14.6000 4.8500 -0.4182
14.6200 4.8567 -0.4286
14.6400 4.8633 -0.4231
14.6600 4.8699 -0.4195
14.6800 4.8765 -0.4275
14.7000 4.8832 -0.4212
14.7200 4.8899 -0.4160
14.7400 4.8966 -0.4301
14.7600 4.9033 -0.4232
14.7800 4.9100 -0.4199
14.8000 4.9167 -0.4276
14.8200 4.9234 -0.4282
14.8400 4.9300 -0.4226
14.8600 4.9366 -0.4231
14.8800 4.9433 -0.4275
14.9000 4.9500 -0.4221
14.9200 4.9567 -0.4253
14.9400 4.9634 -0.4280
14.9600 4.9701 -0.4244
14.9800 4.9768 -0.4301
15.0000 4.9834 -0.4284
15.0200 4.9900 -0.4247
15.0400 4.9966 -0.4253
15.0600 5.0033 -0.4325
15.0800 5.0100 -0.4251
15.1000 5.0167 -0.4261
15.1200 5.0234 -0.4337
15.1400 5.0301 -0.4282
15.1600 5.0367 -0.4277
15.1800 5.0434 -0.4326
15.2000 5.0500 -0.4245
15.2200 5.0566 -0.4288
15.2400 5.0633 -0.4346
15.2600 5.0700 -0.4264
15.2800 5.0767 -0.4296
15.3000 5.0834 -0.4355
15.3200 5.0900 -0.4248
15.3400 5.0967 -0.4327
15.3600 5.1034 -0.4434
15.3800 5.1100 -0.4234
15.4000 5.1165 -0.4331
15.4200 5.1232 -0.4385
15.4400 5.1299 -0.4233
15.4600 5.1366 -0.4317
15.4800 5.1433 -0.4422
15.5000 5.1500 -0.4274
15.5200 5.1566 -0.4337
15.5400 5.1633 -0.4390
15.5600 5.1699 -0.4238
15.5800 5.1766 -0.4370
15.6000 5.1833 -0.4423
15.6200 5.1900 -0.4258
15.6400 5.1967 -0.4380
15.6600 5.2034 -0.4403
15.6800 5.2101 -0.4251
15.7000 5.2167 -0.4380
15.7200 5.2234 -0.4419
15.7400 5.2300 -0.4283
15.7600 5.2367 -0.4375
15.7800 5.2433 -0.4372
15.8000 5.2501 -0.4329
15.8200 5.2567 -0.4399
15.8400 5.2634 -0.4364
15.8600 5.2701 -0.4340
15.8800 5.2767 -0.4423
15.9000 5.2834 -0.4378
15.9200 5.2900 -0.4374
15.9400 5.2966 -0.4408
15.9600 5.3032 -0.4356
15.9800 5.3099 -0.4382
16.0000 5.3166 -0.4390
16.0200 5.3233 -0.4368
16.0400 5.3300 -0.4408
16.0600 5.3367 -0.4419
16.0800 5.3433 -0.4357
16.1000 5.3499 -0.4458
16.1200 5.3566 -0.4408
16.1400 5.3633 -0.4375
16.1600 5.3700 -0.4430
16.1800 5.3767 -0.4384
16.2000 5.3833 -0.4407
16.2200 5.3900 -0.4437
16.2400 5.3967 -0.4333
16.2600 5.4034 -0.4433
16.2800 5.4100 -0.4453
16.3000 5.4166 -0.4314
16.3200 5.4232 -0.4422
16.3400 5.4299 -0.4479
16.3600 5.4366 -0.4331
16.3800 5.4434 -0.4427
16.4000 5.4501 -0.4415
16.4200 5.4568 -0.4374
16.4400 5.4634 -0.4463
16.4600 5.4700 -0.4420
16.4800 5.4766 -0.4302
16.5000 5.4833 -0.4461
16.5200 5.4900 -0.4417
16.5400 5.4967 -0.4295
16.5600 5.5034 -0.4457
16.5800 5.5101 -0.4431
16.6000 5.5167 -0.4328
16.6200 5.5234 -0.4430
16.6400 5.5300 -0.4382
16.6600 5.5366 -0.4371
16.6800 5.5432 -0.4448
16.7000 5.5500 -0.4391
16.7200 5.5567 -0.4366
16.7400 5.5633 -0.4472
16.7600 5.5700 -0.4384
16.7800 5.5767 -0.4334
16.8000 5.5834 -0.4476
16.8200 5.5900 -0.4372
16.8400 5.5966 -0.4361
16.8600 5.6032 -0.4486
16.8800 5.6099 -0.4410
16.9000 5.6166 -0.4350
16.9200 5.6233 -0.4435
16.9400 5.6300 -0.4372
16.9600 5.6367 -0.4420
16.9800 5.6434 -0.4494
17.0000 5.6500 -0.4371
17.0200 5.6566 -0.4375
17.0400 5.6633 -0.4396
17.0600 5.6700 -0.4391
17.0800 5.6767 -0.4477
17.1000 5.6834 -0.4409
17.1200 5.6900 -0.4418
17.1400 5.6966 -0.4403
17.1600 5.7033 -0.4449
17.1800 5.7099 -0.4427
17.2000 5.7166 -0.4447
17.2200 5.7233 -0.4456
17.2400 5.7300 -0.4383
17.2600 5.7367 -0.4404
17.2800 5.7434 -0.4491
17.3000 5.7501 -0.4381
17.3200 5.7568 -0.4398
17.3400 5.7634 -0.4492
17.3600 5.7700 -0.4404
17.3800 5.7766 -0.4401
17.4000 5.7832 -0.4478
17.4200 5.7899 -0.4432
17.4400 5.7966 -0.4414
17.4600 5.8033 -0.4444
17.4800 5.8100 -0.4458
17.5000 5.8167 -0.4469
17.5200 5.8234 -0.4435
17.5400 5.8300 -0.4513
17.5600 5.8366 -0.4422
17.5800 5.8432 -0.4382
17.6000 5.8499 -0.4499
17.6200 5.8566 -0.4498
17.6400 5.8633 -0.4442
17.6600 5.8700 -0.4476
17.6800 5.8767 -0.4446
17.7000 5.8834 -0.4438
17.7200 5.8900 -0.4542
17.7400 5.8966 -0.4415
17.7600 5.9033 -0.4410
17.7800 5.9100 -0.4571
17.8000 5.9167 -0.4451
17.8200 5.9234 -0.4414
17.8400 5.9300 -0.4585
17.8600 5.9368 -0.4430
17.8800 5.9434 -0.4440
17.9000 5.9501 -0.4600
17.9200 5.9566 -0.4447
17.9400 5.9632 -0.4468
17.9600 5.9699 -0.4577
17.9800 5.9767 -0.4429
18.0000 5.9834 -0.4486
18.0200 5.9901 -0.4609
18.0400 5.9968 -0.4433
18.0600 6.0034 -0.4548
18.0800 6.0100 -0.4583
18.1000 6.0166 -0.4428
18.1200 6.0232 -0.4522
18.1400 6.0299 -0.4535
18.1600 6.0367 -0.4459
18.1800 6.0434 -0.4527
18.2000 6.0500 -0.4543
18.2200 6.0567 -0.4460
18.2400 6.0634 -0.4556
18.2600 6.0700 -0.4544
18.2800 6.0766 -0.4494
18.3000 6.0833 -0.4497
18.3200 6.0899 -0.4557
18.3400 6.0966 -0.4563
18.3600 6.1033 -0.4479
18.3800 6.1100 -0.4508
18.4000 6.1167 -0.4568
18.4200 6.1234 -0.4526
18.4400 6.1300 -0.4576
18.4600 6.1366 -0.4521
18.4800 6.1433 -0.4505
18.5000 6.1499 -0.4556
18.5200 6.1567 -0.4550
18.5400 6.1634 -0.4491
18.5600 6.1700 -0.4571
18.5800 6.1767 -0.4538
18.6000 6.1834 -0.4491
18.6200 6.1900 -0.4586
18.6400 6.1966 -0.4539
18.6600 6.2032 -0.4462
18.6800 6.2100 -0.4561
18.7000 6.2167 -0.4597
18.7200 6.2234 -0.4513
18.7400 6.2300 -0.4559
18.7600 6.2367 -0.4580
18.7800 6.2434 -0.4499
18.8000 6.2500 -0.4611
18.8200 6.2567 -0.4557
18.8400 6.2633 -0.4524
18.8600 6.2700 -0.4532
18.8800 6.2767 -0.4558
18.9000 6.2833 -0.4524
18.9200 6.2900 -0.4594
18.9400 6.2967 -0.4537
18.9600 6.3034 -0.4472
18.9800 6.3100 -0.4613
19.0000 6.3166 -0.4545
19.0200 6.3232 -0.4461
19.0400 6.3299 -0.4612
19.0600 6.3366 -0.4567
19.0800 6.3433 -0.4471
19.1000 6.3500 -0.4648
19.1200 6.3567 -0.4517
19.1400 6.3633 -0.4485
19.1600 6.3700 -0.4650
19.1800 6.3766 -0.4523
19.2000 6.3833 -0.4479
19.2200 6.3900 -0.4622
19.2400 6.3967 -0.4509
19.2600 6.4034 -0.4571
19.2800 6.4101 -0.4583
19.3000 6.4167 -0.4511
19.3200 6.4234 -0.4535
19.3400 6.4301 -0.4628
19.3600 6.4366 -0.4500
19.3800 6.4433 -0.4527
19.4000 6.4499 -0.4645
19.4200 6.4567 -0.4538
19.4400 6.4634 -0.4560
19.4600 6.4700 -0.4591
19.4800 6.4767 -0.4562
19.5000 6.4834 -0.4614
19.5200 6.4900 -0.4542
19.5400 6.4966 -0.4535
19.5600 6.5032 -0.4599
19.5800 6.5099 -0.4548
19.6000 6.5166 -0.4554
19.6200 6.5233 -0.4611
19.6400 6.5300 -0.4545
19.6600 6.5367 -0.4583
19.6800 6.5434 -0.4623
19.7000 6.5500 -0.4546
19.7200 6.5566 -0.4600
19.7400 6.5632 -0.4612
19.7600 6.5699 -0.4548
19.7800 6.5766 -0.4604
19.8000 6.5833 -0.4625
19.8200 6.5900 -0.4587
19.8400 6.5966 -0.4602
19.8600 6.6033 -0.4567
19.8800 6.6100 -0.4592
19.9000 6.6166 -0.4625
19.9200 6.6233 -0.4571
19.9400 6.6299 -0.4576
19.9600 6.6366 -0.4643
19.9800 6.6433 -0.4623
20.0000 6.6500 -0.4616
20.0200 6.6567 -0.4622
20.0400 6.6634 -0.4626
20.0600 6.6701 -0.4638
20.0800 6.6767 -0.4587
20.1000 6.6833 -0.4551
20.1200 6.6899 -0.4661
20.1400 6.6967 -0.4603
20.1600 6.7034 -0.4588
20.1800 6.7101 -0.4633
20.2000 6.7167 -0.4693
20.2200 6.7234 -0.4593
20.2400 6.7300 -0.4629
20.2600 6.7366 -0.4652
20.2800 6.7432 -0.4582
20.3000 6.7499 -0.4664
20.3200 6.7566 -0.4708
20.3400 6.7633 -0.4567
20.3600 6.7700 -0.4604
20.3800 6.7767 -0.4713
20.4000 6.7833 -0.4564
20.4200 6.7900 -0.4642
20.4400 6.7966 -0.4756
20.4600 6.8032 -0.4525
20.4800 6.8099 -0.4671
20.5000 6.8166 -0.4735
20.5200 6.8233 -0.4552
20.5400 6.8300 -0.4676
20.5600 6.8367 -0.4684
20.5800 6.8434 -0.4585
20.6000 6.8501 -0.4692
20.6200 6.8567 -0.4687
20.6400 6.8633 -0.4569
20.6600 6.8699 -0.4676
20.6800 6.8767 -0.4721
20.7000 6.8834 -0.4619
20.7200 6.8901 -0.4695
20.7400 6.8967 -0.4657
20.7600 6.9034 -0.4655
20.7800 6.9101 -0.4730
20.8000 6.9166 -0.4635
20.8200 6.9232 -0.4694
20.8400 6.9299 -0.4731
20.8600 6.9366 -0.4596
20.8800 6.9434 -0.4669
20.9000 6.9500 -0.4713
20.9200 6.9567 -0.4681
20.9400 6.9634 -0.4682
20.9600 6.9701 -0.4650
20.9800 6.9767 -0.4661
21.0000 6.9833 -0.4743
21.0200 6.9900 -0.4673
21.0400 6.9966 -0.4637
21.0600 7.0033 -0.4820
21.0800 7.0100 -0.4605
21.1000 7.0167 -0.4625
21.1200 7.0234 -0.4811
21.1400 7.0301 -0.4635
21.1600 7.0367 -0.4680
21.1800 7.0432 -0.4782
21.2000 7.0499 -0.4571
21.2200 7.0566 -0.4667
21.2400 7.0633 -0.4844
21.2600 7.0700 -0.4616
21.2800 7.0767 -0.4689
21.3000 7.0833 -0.4839
21.3200 7.0900 -0.4594
21.3400 7.0966 -0.4719
21.3600 7.1032 -0.4789
21.3800 7.1099 -0.4583
21.4000 7.1166 -0.4783
21.4200 7.1233 -0.4724
21.4400 7.1300 -0.4625
21.4600 7.1367 -0.4796
21.4800 7.1434 -0.4739
21.5000 7.1501 -0.4661
21.5200 7.1567 -0.4807
21.5400 7.1633 -0.4707
21.5600 7.1699 -0.4691
21.5800 7.1766 -0.4783
21.6000 7.1833 -0.4705
21.6200 7.1900 -0.4712
21.6400 7.1967 -0.4786
21.6600 7.2034 -0.4686
21.6800 7.2101 -0.4802
21.7000 7.2167 -0.4709
21.7200 7.2233 -0.4693
21.7400 7.2299 -0.4785
21.7600 7.2366 -0.4706
21.7800 7.2434 -0.4748
21.8000 7.2500 -0.4783
21.8200 7.2567 -0.4642
21.8400 7.2634 -0.4796
21.8600 7.2700 -0.4788
21.8800 7.2766 -0.4672
21.9000 7.2832 -0.4767
21.9200 7.2899 -0.4739
21.9400 7.2966 -0.4679
21.9600 7.3033 -0.4879
21.9800 7.3100 -0.4718
22.0000 7.3166 -0.4712
22.0200 7.3233 -0.4887
22.0400 7.3300 -0.4683
22.0600 7.3367 -0.4747
22.0800 7.3433 -0.4821
22.1000 7.3499 -0.4663
22.1200 7.3566 -0.4798
22.1400 7.3633 -0.4830
22.1600 7.3700 -0.4619
22.1800 7.3767 -0.4805
22.2000 7.3834 -0.4822
22.2200 7.3901 -0.4635
22.2400 7.3967 -0.4858
22.2600 7.4033 -0.4767
22.2800 7.4099 -0.4636
22.3000 7.4166 -0.4902
22.3200 7.4234 -0.4728
22.3400 7.4300 -0.4707
22.3600 7.4367 -0.4859
22.3800 7.4434 -0.4708
22.4000 7.4500 -0.4764
22.4200 7.4567 -0.4836
22.4400 7.4633 -0.4685
22.4600 7.4699 -0.4800
22.4800 7.4766 -0.4822
22.5000 7.4833 -0.4725
22.5200 7.4900 -0.4839
22.5400 7.4967 -0.4770
22.5600 7.5034 -0.4733
22.5800 7.5100 -0.4846
22.6000 7.5167 -0.4779
22.6200 7.5233 -0.4770
22.6400 7.5299 -0.4818
22.6600 7.5366 -0.4762
22.6800 7.5433 -0.4809
22.7000 7.5500 -0.4811
22.7200 7.5567 -0.4755
22.7400 7.5634 -0.4849
22.7600 7.5701 -0.4794
22.7800 7.5767 -0.4750
22.8000 7.5833 -0.4859
22.8200 7.5899 -0.4776
22.8400 7.5966 -0.4770
22.8600 7.6033 -0.4885
22.8800 7.6100 -0.4727
22.9000 7.6167 -0.4773
22.9200 7.6234 -0.4898
22.9400 7.6301 -0.4721
22.9600 7.6367 -0.4808
22.9800 7.6433 -0.4870
23.0000 7.6500 -0.4708
23.0200 7.6566 -0.4816
23.0400 7.6633 -0.4896
23.0600 7.6700 -0.4735
23.0800 7.6767 -0.4881
23.1000 7.6834 -0.4870
23.1200 7.6901 -0.4761
23.1400 7.6967 -0.4869
23.1600 7.7033 -0.4874
23.1800 7.7099 -0.4735
23.2000 7.7166 -0.4884
23.2200 7.7233 -0.4882
23.2400 7.7300 -0.4766
23.2600 7.7367 -0.4893
23.2800 7.7434 -0.4819
23.3000 7.7500 -0.4769
23.3200 7.7567 -0.4917
23.3400 7.7633 -0.4814
23.3600 7.7699 -0.4836
23.3800 7.7766 -0.4875
23.4000 7.7833 -0.4806
23.4200 7.7900 -0.4841
23.4400 7.7966 -0.4818
23.4600 7.8033 -0.4835
23.4800 7.8100 -0.4849
23.5000 7.8166 -0.4808
23.5200 7.8233 -0.4883
23.5400 7.8299 -0.4892
23.5600 7.8366 -0.4768
23.5800 7.8433 -0.4841
23.6000 7.8500 -0.4912
23.6200 7.8567 -0.4775
23.6400 7.8634 -0.4859
23.6600 7.8701 -0.4909
23.6800 7.8767 -0.4829
23.7000 7.8833 -0.4882
23.7200 7.8899 -0.4870
23.7400 7.8966 -0.4826
23.7600 7.9033 -0.4858
23.7800 7.9100 -0.4851
23.8000 7.9167 -0.4916
23.8200 7.9234 -0.4856
23.8400 7.9301 -0.4781
23.8600 7.9367 -0.4946
23.8800 7.9433 -0.4868
23.9000 7.9499 -0.4821
23.9200 7.9566 -0.4928
23.9400 7.9633 -0.4905
23.9600 7.9700 -0.4824
23.9800 7.9767 -0.4956
24.0000 7.9834 -0.4856
24.0200 7.9900 -0.4851
24.0400 7.9967 -0.4948
24.0600 8.0033 -0.4855
24.0800 8.0099 -0.4858
24.1000 8.0166 -0.4893
24.1200 8.0233 -0.4882
24.1400 8.0300 -0.4898
24.1600 8.0367 -0.4899
24.1800 8.0433 -0.4880
24.2000 8.0500 -0.4892
24.2200 8.0567 -0.4888
24.2400 8.0633 -0.4872
24.2600 8.0699 -0.4988
24.2800 8.0766 -0.4836
24.3000 8.0833 -0.4796
24.3200 8.0900 -0.5035
24.3400 8.0967 -0.4912
24.3600 8.1034 -0.4792
24.3800 8.1101 -0.5015
24.4000 8.1167 -0.4888
24.4200 8.1233 -0.4772
24.4400 8.1299 -0.5044
24.4600 8.1366 -0.4849
24.4800 8.1434 -0.4812
24.5000 8.1501 -0.5105
24.5200 8.1567 -0.4864
24.5400 8.1634 -0.4851
24.5600 8.1701 -0.5046
24.5800 8.1767 -0.4880
24.6000 8.1833 -0.4887
24.6200 8.1899 -0.5002
24.6400 8.1966 -0.4883
24.6600 8.2033 -0.4880
24.6800 8.2100 -0.4977
24.7000 8.2167 -0.4900
24.7200 8.2234 -0.4921
24.7400 8.2300 -0.4941
24.7600 8.2367 -0.4902
24.7800 8.2433 -0.4955
24.8000 8.2499 -0.4956
24.8200 8.2566 -0.4893
24.8400 8.2633 -0.4931
24.8600 8.2700 -0.4904
24.8800 8.2767 -0.4993
24.9000 8.2833 -0.4891
24.9200 8.2900 -0.4923
24.9400 8.2967 -0.4986
24.9600 8.3033 -0.4856
24.9800 8.3099 -0.4968
25.0000 8.3166 -0.4963
25.0200 8.3233 -0.4813
25.0400 8.3300 -0.4982
25.0600 8.3367 -0.4984
25.0800 8.3434 -0.4807
25.1000 8.3501 -0.5054
25.1200 8.3567 -0.4940
25.1400 8.3633 -0.4832
25.1600 8.3699 -0.5044
25.1800 8.3766 -0.4933
25.2000 8.3833 -0.4852
25.2200 8.3900 -0.5055
25.2400 8.3967 -0.4861
25.2600 8.4034 -0.4854
25.2800 8.4101 -0.5073
25.3000 8.4167 -0.4915
25.3200 8.4233 -0.4859
25.3400 8.4299 -0.5058
25.3600 8.4366 -0.4881
25.3800 8.4433 -0.4903
25.4000 8.4500 -0.5052
25.4200 8.4567 -0.4865
25.4400 8.4634 -0.4915
25.4600 8.4700 -0.5014
25.4800 8.4767 -0.4901
25.5000 8.4833 -0.4997
25.5200 8.4899 -0.4942
25.5400 8.4965 -0.4902
25.5600 8.5033 -0.4983
25.5800 8.5100 -0.4948
25.6000 8.5166 -0.4957
25.6200 8.5233 -0.4988
25.6400 8.5300 -0.4919
25.6600 8.5367 -0.4958
25.6800 8.5433 -0.4995
25.7000 8.5499 -0.4973
25.7200 8.5566 -0.4980
25.7400 8.5633 -0.4928
25.7600 8.5700 -0.4950
25.7800 8.5767 -0.5016
25.8000 8.5834 -0.4907
25.8200 8.5901 -0.4994
25.8400 8.5968 -0.5033
25.8600 8.6033 -0.4861
25.8800 8.6099 -0.4974
25.9000 8.6166 -0.5052
25.9200 8.6233 -0.4868
25.9400 8.6300 -0.5043
25.9600 8.6367 -0.5015
25.9800 8.6434 -0.4866
26.0000 8.6501 -0.5044
26.0200 8.6567 -0.5054
26.0400 8.6633 -0.4909
26.0600 8.6699 -0.5012
26.0800 8.6766 -0.5038
26.1000 8.6833 -0.4874
26.1200 8.6900 -0.5061
26.1400 8.6967 -0.5024
26.1600 8.7033 -0.4937
26.1800 8.7100 -0.5027
26.2000 8.7167 -0.4978
26.2200 8.7233 -0.4961
26.2400 8.7299 -0.5055
26.2600 8.7365 -0.4968
26.2800 8.7432 -0.4956
26.3000 8.7499 -0.5098
26.3200 8.7566 -0.4995
26.3400 8.7633 -0.4904
26.3600 8.7700 -0.5154
26.3800 8.7767 -0.4938
26.4000 8.7833 -0.4955
26.4200 8.7899 -0.5112
26.4400 8.7966 -0.4933
26.4600 8.8033 -0.4984
26.4800 8.8100 -0.5085
26.5000 8.8167 -0.4943
26.5200 8.8234 -0.5027
26.5400 8.8301 -0.5113
26.5600 8.8367 -0.4936
26.5800 8.8434 -0.4935
26.6000 8.8500 -0.5115
26.6200 8.8566 -0.5010
26.6400 8.8633 -0.4931
26.6600 8.8700 -0.5100
26.6800 8.8767 -0.4991
26.7000 8.8834 -0.4992
26.7200 8.8901 -0.5071
26.7400 8.8968 -0.5017
26.7600 8.9034 -0.5032
26.7800 8.9099 -0.5077
26.8000 8.9166 -0.4948
26.8200 8.9232 -0.4983
26.8400 8.9300 -0.5078
26.8600 8.9367 -0.5036
26.8800 8.9434 -0.5022
26.9000 8.9500 -0.4996
26.9200 8.9567 -0.5017
26.9400 8.9633 -0.5074
26.9600 8.9699 -0.5003
26.9800 8.9766 -0.5063
27.0000 8.9832 -0.5037
27.0200 8.9900 -0.5004
27.0400 8.9967 -0.5027
27.0600 9.0033 -0.5026
27.0800 9.0100 -0.5007
27.1000 9.0167 -0.5089
27.1200 9.0233 -0.5026
27.1400 9.0300 -0.5000
27.1600 9.0366 -0.5074
27.1800 9.0433 -0.5015
27.2000 9.0500 -0.5019
27.2200 9.0567 -0.5132
27.2400 9.0634 -0.4973
27.2600 9.0701 -0.5022
27.2800 9.0767 -0.5111
27.3000 9.0834 -0.5007
27.3200 9.0900 -0.5067
27.3400 9.0966 -0.5103
27.3600 9.1033 -0.4961
27.3800 9.1100 -0.5045
27.4000 9.1167 -0.5120
27.4200 9.1234 -0.4994
27.4400 9.1301 -0.5060
27.4600 9.1367 -0.5109
27.4800 9.1433 -0.4968
27.5000 9.1500 -0.5098
27.5200 9.1566 -0.5139
27.5400 9.1633 -0.4969
27.5600 9.1700 -0.5083
27.5800 9.1767 -0.5100
27.6000 9.1834 -0.5012
27.6200 9.1900 -0.5076
27.6400 9.1967 -0.5130
27.6600 9.2033 -0.5020
27.6800 9.2099 -0.5099
27.7000 9.2165 -0.5090
27.7200 9.2232 -0.5023
27.7400 9.2299 -0.5146
27.7600 9.2366 -0.5075
27.7800 9.2433 -0.5016
27.8000 9.2500 -0.5129
27.8200 9.2567 -0.5063
27.8400 9.2633 -0.5118
27.8600 9.2699 -0.5127
27.8800 9.2766 -0.5049
27.9000 9.2833 -0.5078
27.9200 9.2900 -0.5135
27.9400 9.2967 -0.5062
27.9600 9.3034 -0.5101
27.9800 9.3101 -0.5124
28.0000 9.3167 -0.5054
28.0200 9.3234 -0.5142
28.0400 9.3300 -0.5118
28.0600 9.3366 -0.5074
28.0800 9.3433 -0.5156
28.1000 9.3500 -0.5078
28.1200 9.3567 -0.5075
28.1400 9.3634 -0.5167
28.1600 9.3700 -0.5050
28.1800 9.3767 -0.5153
28.2000 9.3833 -0.5185
28.2200 9.3899 -0.5047
28.2400 9.3966 -0.5121
28.2600 9.4032 -0.5173
28.2800 9.4099 -0.5076
28.3000 9.4166 -0.5091
28.3200 9.4233 -0.5142
28.3400 9.4300 -0.5079
28.3600 9.4367 -0.5126
28.3800 9.4433 -0.5186
28.4000 9.4499 -0.5017
28.4200 9.4566 -0.5144
28.4400 9.4632 -0.5153
28.4600 9.4700 -0.5043
28.4800 9.4767 -0.5134
28.5000 9.4834 -0.5193
28.5200 9.4900 -0.5015
28.5400 9.4967 -0.5144
28.5600 9.5033 -0.5191
28.5800 9.5100 -0.5034
28.6000 9.5166 -0.5138
28.6200 9.5233 -0.5139
28.6400 9.5300 -0.5070
28.6600 9.5367 -0.5118
28.6800 9.5434 -0.5126
28.7000 9.5500 -0.5070
28.7200 9.5567 -0.5125
28.7400 9.5634 -0.5204
28.7600 9.5700 -0.5040
28.7800 9.5766 -0.5082
28.8000 9.5833 -0.5188
28.8200 9.5900 -0.5048
28.8400 9.5967 -0.5023
28.8600 9.6034 -0.5207
28.8800 9.6101 -0.5065
28.9000 9.6168 -0.5071
28.9200 9.6234 -0.5207
28.9400 9.6300 -0.5073
28.9600 9.6366 -0.5049
28.9800 9.6432 -0.5138
29.0000 9.6499 -0.5092
29.0200 9.6566 -0.5132
29.0400 9.6633 -0.5162
29.0600 9.6700 -0.5056
29.0800 9.6767 -0.5129
29.1000 9.6834 -0.5138
29.1200 9.6900 -0.5108
29.1400 9.6966 -0.5116
29.1600 9.7032 -0.5129
29.1800 9.7099 -0.5094
29.2000 9.7166 -0.5137
29.2200 9.7233 -0.5123
29.2400 9.7300 -0.5109
29.2600 9.7367 -0.5127
29.2800 9.7434 -0.5093
29.3000 9.7500 -0.5133
29.3200 9.7566 -0.5135
29.3400 9.7633 -0.5126
29.3600 9.7700 -0.5193
29.3800 9.7767 -0.5102
29.4000 9.7834 -0.5101
29.4200 9.7901 -0.5153
29.4400 9.7968 -0.5086
29.4600 9.8034 -0.5137
29.4800 9.8100 -0.5158
29.5000 9.8166 -0.5084
29.5200 9.8233 -0.5146
29.5400 9.8300 -0.5177
29.5600 9.8367 -0.5096
29.5800 9.8434 -0.5169
29.6000 9.8500 -0.5179
29.6200 9.8567 -0.5055
29.6400 9.8634 -0.5196
29.6600 9.8700 -0.5205
29.6800 9.8766 -0.5060
29.7000 9.8833 -0.5204
29.7200 9.8900 -0.5184
29.7400 9.8967 -0.5052
29.7600 9.9033 -0.5255
29.7800 9.9100 -0.5184
29.8000 9.9167 -0.5033
29.8200 9.9234 -0.5261
29.8400 9.9300 -0.5157
29.8600 9.9365 -0.5088
29.8800 9.9432 -0.5246
29.9000 9.9499 -0.5124
29.9200 9.9566 -0.5121
29.9400 9.9633 -0.5272
29.9600 9.9700 -0.5113
29.9800 9.9767 -0.5163
30.0000 9.9833 -0.5205
30.0200 9.9899 -0.5138
30.0400 9.9966 -0.5184
30.0600 10.0033 -0.5192
30.0800 10.0100 -0.5120
30.1000 10.0167 -0.5262
30.1200 10.0234 -0.5187
30.1400 10.0301 -0.5079
30.1600 10.0367 -0.5241
30.1800 10.0434 -0.5170
30.2000 10.0500 -0.5116
30.2200 10.0567 -0.5264
30.2400 10.0633 -0.5172
30.2600 10.0700 -0.5134
30.2800 10.0767 -0.5263
30.3000 10.0834 -0.5128
30.3200 10.0900 -0.5162
30.3400 10.0967 -0.5291
30.3600 10.1034 -0.5123
30.3800 10.1100 -0.5171
30.4000 10.1166 -0.5246
30.4200 10.1232 -0.5145
30.4400 10.1299 -0.5157
30.4600 10.1366 -0.5239
30.4800 10.1433 -0.5125
30.5000 10.1500 -0.5185
30.5200 10.1567 -0.5241
30.5400 10.1633 -0.5154
30.5600 10.1700 -0.5221
30.5800 10.1766 -0.5224
30.6000 10.1832 -0.5147
30.6200 10.1900 -0.5230
30.6400 10.1967 -0.5243
30.6600 10.2033 -0.5172
30.6800 10.2100 -0.5226
30.7000 10.2167 -0.5220
30.7200 10.2234 -0.5217
30.7400 10.2300 -0.5228
30.7600 10.2366 -0.5222
30.7800 10.2433 -0.5184
30.8000 10.2500 -0.5226
30.8200 10.2567 -0.5187
30.8400 10.2634 -0.5232
30.8600 10.2701 -0.5222
30.8800 10.2767 -0.5228
30.9000 10.2834 -0.5245
30.9200 10.2900 -0.5171
30.9400 10.2966 -0.5214
30.9600 10.3033 -0.5261
30.9800 10.3100 -0.5186
31.0000 10.3167 -0.5216
31.0200 10.3234 -0.5249
31.0400 10.3301 -0.5219
31.0600 10.3367 -0.5207
31.0800 10.3434 -0.5276
31.1000 10.3500 -0.5193
31.1200 10.3566 -0.5238
31.1400 10.3632 -0.5228
31.1600 10.3699 -0.5157
31.1800 10.3767 -0.5287
31.2000 10.3833 -0.5258
31.2200 10.3900 -0.5209
31.2400 10.3967 -0.5196
31.2600 10.4034 -0.5272
31.2800 10.4100 -0.5225
31.3000 10.4166 -0.5263
31.3200 10.4232 -0.5240
31.3400 10.4299 -0.5223
31.3600 10.4366 -0.5246
31.3800 10.4433 -0.5226
31.4000 10.4500 -0.5219
31.4200 10.4567 -0.5279
31.4400 10.4634 -0.5213
31.4600 10.4700 -0.5233
31.4800 10.4766 -0.5265
31.5000 10.4832 -0.5208
31.5200 10.4899 -0.5243
31.5400 10.4967 -0.5291
31.5600 10.5034 -0.5191
31.5800 10.5101 -0.5254
31.6000 10.5167 -0.5272
31.6200 10.5234 -0.5204
31.6400 10.5300 -0.5301
31.6600 10.5366 -0.5273
31.6800 10.5433 -0.5194
31.7000 10.5500 -0.5223
31.7200 10.5567 -0.5229
31.7400 10.5634 -0.5264
31.7600 10.5701 -0.5227
31.7800 10.5767 -0.5216
31.8000 10.5834 -0.5246
31.8200 10.5900 -0.5291
31.8400 10.5966 -0.5194
31.8600 10.6033 -0.5234
31.8800 10.6099 -0.5279
31.9000 10.6166 -0.5241
31.9200 10.6233 -0.5254
31.9400 10.6300 -0.5187
31.9600 10.6367 -0.5294
31.9800 10.6434 -0.5277
32.0000 10.6500 -0.5209
32.0200 10.6566 -0.5300
32.0400 10.6632 -0.5215
32.0600 10.6699 -0.5174
32.0800 10.6766 -0.5288
32.1000 10.6833 -0.5247
32.1200 10.6900 -0.5227
32.1400 10.6967 -0.5305
32.1600 10.7034 -0.5195
32.1800 10.7100 -0.5248
32.2000 10.7166 -0.5364
32.2200 10.7233 -0.5119
32.2400 10.7300 -0.5276
32.2600 10.7367 -0.5364
32.2800 10.7434 -0.5153
32.3000 10.7501 -0.5289
32.3200 10.7568 -0.5362
32.3400 10.7634 -0.5108
32.3600 10.7701 -0.5363
32.3800 10.7767 -0.5319
32.4000 10.7833 -0.5122
32.4200 10.7900 -0.5362
32.4400 10.7967 -0.5317
32.4600 10.8034 -0.5154
32.4800 10.8100 -0.5350
32.5000 10.8167 -0.5292
32.5200 10.8234 -0.5209
32.5400 10.8300 -0.5362
32.5600 10.8366 -0.5287
32.5800 10.8432 -0.5175
32.6000 10.8499 -0.5381
32.6200 10.8567 -0.5268
32.6400 10.8634 -0.5218
32.6600 10.8700 -0.5342
32.6800 10.8767 -0.5253
32.7000 10.8834 -0.5295
32.7200 10.8900 -0.5311
32.7400 10.8966 -0.5239
32.7600 10.9033 -0.5279
32.7800 10.9099 -0.5282
32.8000 10.9167 -0.5300
32.8200 10.9233 -0.5293
32.8400 10.9300 -0.5300
32.8600 10.9367 -0.5341
32.8800 10.9434 -0.5293
32.9000 10.9500 -0.5258
32.9200 10.9566 -0.5332
32.9400 10.9633 -0.5324
32.9600 10.9699 -0.5260
32.9800 10.9766 -0.5312
33.0000 10.9833 -0.5336
33.0200 10.9900 -0.5281
33.0400 10.9967 -0.5310
33.0600 11.0034 -0.5368
33.0800 11.0100 -0.5269
33.1000 11.0166 -0.5322
33.1200 11.0233 -0.5310
33.1400 11.0300 -0.5282
33.1600 11.0367 -0.5379
33.1800 11.0434 -0.5337
33.2000 11.0501 -0.5280
33.2200 11.0567 -0.5373
33.2400 11.0634 -0.5323
33.2600 11.0700 -0.5323
33.2800 11.0766 -0.5334
33.3000 11.0833 -0.5332
33.3200 11.0899 -0.5328
33.3400 11.0966 -0.5334
33.3600 11.1033 -0.5315
33.3800 11.1100 -0.5363
33.4000 11.1167 -0.5336
33.4200 11.1234 -0.5340
33.4400 11.1300 -0.5323
33.4600 11.1366 -0.5352
33.4800 11.1432 -0.5345
33.5000 11.1499 -0.5330
33.5200 11.1566 -0.5350
33.5400 11.1633 -0.5343
33.5600 11.1700 -0.5342
33.5800 11.1767 -0.5306
33.6000 11.1834 -0.5337
33.6200 11.1900 -0.5340
33.6400 11.1966 -0.5331
33.6600 11.2032 -0.5354
33.6800 11.2099 -0.5376
33.7000 11.2167 -0.5328
33.7200 11.2234 -0.5362
33.7400 11.2301 -0.5371
33.7600 11.2367 -0.5320
33.7800 11.2434 -0.5352
33.8000 11.2501 -0.5394
33.8200 11.2567 -0.5288
33.8400 11.2633 -0.5347
33.8600 11.2699 -0.5389
33.8800 11.2766 -0.5273
33.9000 11.2833 -0.5364
33.9200 11.2900 -0.5400
33.9400 11.2967 -0.5286
33.9600 11.3034 -0.5384
33.9800 11.3100 -0.5401
34.0000 11.3167 -0.5277
34.0200 11.3233 -0.5379
34.0400 11.3299 -0.5394
34.0600 11.3366 -0.5280
34.0800 11.3433 -0.5407
34.1000 11.3500 -0.5348
34.1200 11.3567 -0.5309
34.1400 11.3634 -0.5415
34.1600 11.3700 -0.5358
34.1800 11.3766 -0.5343
34.2000 11.3832 -0.5368
34.2200 11.3899 -0.5347
34.2400 11.3966 -0.5365
34.2600 11.4033 -0.5387
34.2800 11.4100 -0.5379
34.3000 11.4167 -0.5354
34.3200 11.4233 -0.5365
34.3400 11.4300 -0.5361
34.3600 11.4366 -0.5408
34.3800 11.4432 -0.5402
34.4000 11.4499 -0.5306
34.4200 11.4567 -0.5378
34.4400 11.4634 -0.5441
34.4600 11.4700 -0.5397
34.4800 11.4767 -0.5314
34.5000 11.4834 -0.5432
34.5200 11.4901 -0.5442
34.5400 11.4967 -0.5347
34.5600 11.5033 -0.5365
34.5800 11.5099 -0.5430
34.6000 11.5167 -0.5396
34.6200 11.5234 -0.5448
34.6400 11.5300 -0.5341
34.6600 11.5367 -0.5344
34.6800 11.5434 -0.5533
34.7000 11.5500 -0.5356
34.7200 11.5566 -0.5227
34.7400 11.5632 -0.5547
34.7600 11.5699 -0.5421
34.7800 11.5766 -0.5262
34.8000 11.5833 -0.5504
34.8200 11.5900 -0.5421
34.8400 11.5966 -0.5368
34.8600 11.6033 -0.5513
34.8800 11.6100 -0.5305
34.9000 11.6166 -0.5375
34.9200 11.6232 -0.5588
34.9400 11.6299 -0.5333
34.9600 11.6366 -0.5316
34.9800 11.6433 -0.5547
35.0000 11.6500 -0.5428
35.0200 11.6567 -0.5381
35.0400 11.6634 -0.5426
35.0600 11.6701 -0.5446
35.0800 11.6767 -0.5483
35.1000 11.6833 -0.5340
35.1200 11.6899 -0.5396
35.1400 11.6966 -0.5467
35.1600 11.7033 -0.5446
35.1800 11.7100 -0.5420
35.2000 11.7167 -0.5410
35.2200 11.7234 -0.5440
35.2400 11.7301 -0.5497
35.2600 11.7367 -0.5393
35.2800 11.7433 -0.5421
35.3000 11.7499 -0.5466
35.3200 11.7566 -0.5416
35.3400 11.7633 -0.5433
35.3600 11.7700 -0.5461
35.3800 11.7767 -0.5417
35.4000 11.7834 -0.5512
35.4200 11.7901 -0.5339
35.4400 11.7967 -0.5395
35.4600 11.8033 -0.5544
35.4800 11.8099 -0.5467
35.5000 11.8166 -0.5418
35.5200 11.8233 -0.5467
35.5400 11.8300 -0.5410
35.5600 11.8367 -0.5445
35.5800 11.8434 -0.5454
35.6000 11.8501 -0.5440
35.6200 11.8567 -0.5489
35.6400 11.8632 -0.5431
35.6600 11.8699 -0.5376
35.6800 11.8766 -0.5458
35.7000 11.8833 -0.5483
35.7200 11.8900 -0.5446
35.7400 11.8967 -0.5453
35.7600 11.9034 -0.5418
35.7800 11.9100 -0.5447
35.8000 11.9167 -0.5498
35.8200 11.9233 -0.5482
35.8400 11.9299 -0.5391
35.8600 11.9366 -0.5467
35.8800 11.9433 -0.5469
35.9000 11.9500 -0.5440
35.9200 11.9567 -0.5454
35.9400 11.9634 -0.5494
35.9600 11.9701 -0.5445
35.9800 11.9767 -0.5426
36.0000 11.9833 -0.5445
36.0200 11.9899 -0.5446
36.0400 11.9966 -0.5429
36.0600 12.0033 -0.5484
36.0800 12.0100 -0.5427
36.1000 12.0167 -0.5453
36.1200 12.0234 -0.5474
36.1400 12.0301 -0.5453
36.1600 12.0367 -0.5412
36.1800 12.0433 -0.5495
36.2000 12.0499 -0.5454
36.2200 12.0566 -0.5447
36.2400 12.0633 -0.5567
36.2600 12.0700 -0.5482
36.2800 12.0767 -0.5393
36.3000 12.0834 -0.5521
36.3200 12.0900 -0.5433
36.3400 12.0967 -0.5463
36.3600 12.1033 -0.5502
36.3800 12.1099 -0.5422
36.4000 12.1166 -0.5469
36.4200 12.1233 -0.5509
36.4400 12.1300 -0.5434
36.4600 12.1366 -0.5492
36.4800 12.1433 -0.5535
36.5000 12.1500 -0.5437
36.5200 12.1567 -0.5493
36.5400 12.1633 -0.5499
36.5600 12.1699 -0.5448
36.5800 12.1766 -0.5502
36.6000 12.1833 -0.5509
36.6200 12.1900 -0.5461
36.6400 12.1967 -0.5546
36.6600 12.2034 -0.5491
36.6800 12.2101 -0.5480
36.7000 12.2167 -0.5464
36.7200 12.2233 -0.5530
36.7400 12.2300 -0.5480
36.7600 12.2367 -0.5441
36.7800 12.2434 -0.5566
36.8000 12.2501 -0.5465
36.8200 12.2567 -0.5486
36.8400 12.2634 -0.5528
36.8600 12.2700 -0.5402
36.8800 12.2767 -0.5552
36.9000 12.2833 -0.5502
36.9200 12.2899 -0.5384
36.9400 12.2966 -0.5517
36.9600 12.3033 -0.5552
36.9800 12.3100 -0.5423
37.0000 12.3167 -0.5569
37.0200 12.3234 -0.5549
37.0400 12.3300 -0.5447
37.0600 12.3367 -0.5539
37.0800 12.3433 -0.5501
37.1000 12.3499 -0.5447
37.1200 12.3566 -0.5564
37.1400 12.3633 -0.5518
37.1600 12.3700 -0.5457
37.1800 12.3767 -0.5544
37.2000 12.3834 -0.5523
37.2200 12.3901 -0.5481
37.2400 12.3967 -0.5567
37.2600 12.4033 -0.5529
37.2800 12.4099 -0.5463
37.3000 12.4166 -0.5499
37.3200 12.4233 -0.5515
37.3400 12.4300 -0.5510
37.3600 12.4367 -0.5501
37.3800 12.4434 -0.5508
37.4000 12.4501 -0.5565
37.4200 12.4567 -0.5523
37.4400 12.4633 -0.5492
37.4600 12.4699 -0.5497
37.4800 12.4766 -0.5500
37.5000 12.4833 -0.5505
37.5200 12.4900 -0.5538
37.5400 12.4967 -0.5521
37.5600 12.5034 -0.5470
37.5800 12.5101 -0.5594
37.6000 12.5167 -0.5501
37.6200 12.5233 -0.5547
37.6400 12.5299 -0.5582
37.6600 12.5366 -0.5430
37.6800 12.5433 -0.5502
37.7000 12.5500 -0.5588
37.7200 12.5567 -0.5482
37.7400 12.5634 -0.5554
37.7600 12.5700 -0.5574
37.7800 12.5767 -0.5459
37.8000 12.5833 -0.5558
37.8200 12.5899 -0.5516
37.8400 12.5965 -0.5470
37.8600 12.6032 -0.5602
37.8800 12.6100 -0.5499
37.9000 12.6166 -0.5551
37.9200 12.6233 -0.5585
37.9400 12.6300 -0.5506
37.9600 12.6367 -0.5576
37.9800 12.6433 -0.5535
38.0000 12.6499 -0.5470
38.0200 12.6566 -0.5632
38.0400 12.6633 -0.5492
38.0600 12.6700 -0.5496
38.0800 12.6767 -0.5639
38.1000 12.6834 -0.5444
38.1200 12.6901 -0.5533
38.1400 12.6967 -0.5660
38.1600 12.7033 -0.5458
38.1800 12.7099 -0.5513
38.2000 12.7166 -0.5660
38.2200 12.7233 -0.5435
38.2400 12.7300 -0.5618
38.2600 12.7367 -0.5608
38.2800 12.7434 -0.5372
38.3000 12.7501 -0.5638
38.3200 12.7567 -0.5599
38.3400 12.7633 -0.5436
38.3600 12.7699 -0.5641
38.3800 12.7766 -0.5547
38.4000 12.7833 -0.5423
38.4200 12.7900 -0.5627
38.4400 12.7967 -0.5609
38.4600 12.8034 -0.5468
38.4800 12.8101 -0.5643
38.5000 12.8167 -0.5580
38.5200 12.8233 -0.5485
38.5400 12.8299 -0.5648
38.5600 12.8366 -0.5576
38.5800 12.8433 -0.5497
38.6000 12.8500 -0.5615
38.6200 12.8566 -0.5571
38.6400 12.8633 -0.5556
38.6600 12.8700 -0.5609
38.6800 12.8767 -0.5565
38.7000 12.8833 -0.5583
38.7200 12.8899 -0.5582
38.7400 12.8966 -0.5542
38.7600 12.9033 -0.5651
38.7800 12.9100 -0.5576
38.8000 12.9167 -0.5534
38.8200 12.9234 -0.5621
38.8400 12.9301 -0.5586
38.8600 12.9367 -0.5584
38.8800 12.9433 -0.5608
38.9000 12.9499 -0.5537
38.9200 12.9566 -0.5563
38.9400 12.9633 -0.5625
38.9600 12.9701 -0.5527
38.9800 12.9767 -0.5616
39.0000 12.9834 -0.5608
39.0200 12.9901 -0.5488
39.0400 12.9967 -0.5622
39.0600 13.0033 -0.5562
39.0800 13.0099 -0.5507
39.1000 13.0166 -0.5701
39.1200 13.0233 -0.5493
39.1400 13.0300 -0.5548
39.1600 13.0366 -0.5676
39.1800 13.0433 -0.5488
39.2000 13.0500 -0.5608
39.2200 13.0567 -0.5651
39.2400 13.0633 -0.5555
39.2600 13.0699 -0.5571
39.2800 13.0766 -0.5604
39.3000 13.0833 -0.5549
39.3200 13.0900 -0.5635
39.3400 13.0967 -0.5606
39.3600 13.1034 -0.5485
39.3800 13.1100 -0.5664
39.4000 13.1167 -0.5585
39.4200 13.1233 -0.5551
39.4400 13.1299 -0.5651
39.4600 13.1366 -0.5524
39.4800 13.1433 -0.5584
39.5000 13.1500 -0.5673
39.5200 13.1567 -0.5502
39.5400 13.1634 -0.5578
39.5600 13.1700 -0.5665
39.5800 13.1767 -0.5519
39.6000 13.1833 -0.5596
39.6200 13.1899 -0.5660
39.6400 13.1966 -0.5496
39.6600 13.2033 -0.5627
39.6800 13.2100 -0.5626
39.7000 13.2167 -0.5498
39.7200 13.2234 -0.5692
39.7400 13.2301 -0.5572
39.7600 13.2367 -0.5542
39.7800 13.2433 -0.5693
39.8000 13.2499 -0.5564
39.8200 13.2566 -0.5528
39.8400 13.2633 -0.5684
39.8600 13.2700 -0.5585
39.8800 13.2767 -0.5586
39.9000 13.2834 -0.5691
39.9200 13.2901 -0.5556
39.9400 13.2967 -0.5607
39.9600 13.3033 -0.5704
39.9800 13.3099 -0.5537
40.0000 13.3166 -0.5609
40.0200 13.3233 -0.5699
40.0400 13.3300 -0.5620
40.0600 13.3367 -0.5566
40.0800 13.3433 -0.5680
40.1000 13.3500 -0.5600
40.1200 13.3567 -0.5615
40.1400 13.3633 -0.5648
40.1600 13.3699 -0.5548
40.1800 13.3766 -0.5642
40.2000 13.3833 -0.5657
40.2200 13.3900 -0.5626
40.2400 13.3967 -0.5674
40.2600 13.4034 -0.5622
40.2800 13.4101 -0.5657
40.3000 13.4168 -0.5681
40.3200 13.4234 -0.5604
40.3400 13.4300 -0.5674
40.3600 13.4366 -0.5651
40.3800 13.4433 -0.5590
40.4000 13.4500 -0.5695
40.4200 13.4567 -0.5678
40.4400 13.4634 -0.5609
40.4600 13.4701 -0.5664
40.4800 13.4767 -0.5622
40.5000 13.4833 -0.5614
40.5200 13.4899 -0.5730
40.5400 13.4966 -0.5589
40.5600 13.5033 -0.5611
40.5800 13.5100 -0.5742
40.6000 13.5166 -0.5596
40.6200 13.5233 -0.5663
40.6400 13.5300 -0.5686
40.6600 13.5367 -0.5619
40.6800 13.5433 -0.5667
40.7000 13.5499 -0.5641
40.7200 13.5565 -0.5626
40.7400 13.5632 -0.5697
40.7600 13.5700 -0.5674
40.7800 13.5767 -0.5640
40.8000 13.5833 -0.5664
40.8200 13.5900 -0.5660
40.8400 13.5967 -0.5644
40.8600 13.6033 -0.5690
40.8800 13.6099 -0.5668
40.9000 13.6166 -0.5627
40.9200 13.6233 -0.5661
40.9400 13.6300 -0.5695
40.9600 13.6367 -0.5658
40.9800 13.6434 -0.5704
41.0000 13.6501 -0.5662
41.0200 13.6567 -0.5650
41.0400 13.6634 -0.5722
41.0600 13.6700 -0.5681
41.0800 13.6766 -0.5632
41.1000 13.6833 -0.5671
41.1200 13.6900 -0.5707
41.1400 13.6967 -0.5644
41.1600 13.7034 -0.5682
41.1800 13.7101 -0.5713
41.2000 13.7167 -0.5659
41.2200 13.7234 -0.5701
41.2400 13.7300 -0.5714
41.2600 13.7366 -0.5630
41.2800 13.7432 -0.5679
41.3000 13.7500 -0.5754
41.3200 13.7567 -0.5607
41.3400 13.7633 -0.5683
41.3600 13.7700 -0.5746
41.3800 13.7767 -0.5604
41.4000 13.7833 -0.5727
41.4200 13.7899 -0.5717
41.4400 13.7965 -0.5610
41.4600 13.8032 -0.5713
41.4800 13.8099 -0.5706
41.5000 13.8166 -0.5640
41.5200 13.8233 -0.5723
41.5400 13.8300 -0.5643
41.5600 13.8367 -0.5634
41.5800 13.8434 -0.5748
41.6000 13.8500 -0.5699
41.6200 13.8566 -0.5607
41.6400 13.8633 -0.5743
41.6600 13.8700 -0.5694
41.6800 13.8767 -0.5631
41.7000 13.8834 -0.5705
41.7200 13.8901 -0.5684
41.7400 13.8968 -0.5685
41.7600 13.9034 -0.5698
41.7800 13.9100 -0.5684
41.8000 13.9166 -0.5673
41.8200 13.9233 -0.5702
41.8400 13.9300 -0.5718
41.8600 13.9367 -0.5704
41.8800 13.9434 -0.5679
41.9000 13.9501 -0.5730
41.9200 13.9567 -0.5719
41.9400 13.9634 -0.5686
41.9600 13.9700 -0.5721
41.9800 13.9766 -0.5691
42.0000 13.9833 -0.5625
42.0200 13.9900 -0.5759
42.0400 13.9967 -0.5693
42.0600 14.0034 -0.5673
42.0800 14.0100 -0.5781
42.1000 14.0167 -0.5708
42.1200 14.0234 -0.5685
42.1400 14.0299 -0.5764
42.1600 14.0365 -0.5692
42.1800 14.0432 -0.5679
42.2000 14.0499 -0.5776
42.2200 14.0567 -0.5675
42.2400 14.0633 -0.5666
42.2600 14.0700 -0.5840
42.2800 14.0767 -0.5652
42.3000 14.0833 -0.5735
42.3200 14.0899 -0.5796
42.3400 14.0965 -0.5644
42.3600 14.1032 -0.5695
42.3800 14.1100 -0.5803
42.4000 14.1167 -0.5689
42.4200 14.1234 -0.5739
42.4400 14.1301 -0.5729
42.4600 14.1368 -0.5703
42.4800 14.1434 -0.5787
42.5000 14.1500 -0.5735
42.5200 14.1566 -0.5691
42.5400 14.1633 -0.5773
42.5600 14.1700 -0.5736
42.5800 14.1767 -0.5731
42.6000 14.1834 -0.5736
42.6200 14.1900 -0.5738
42.6400 14.1967 -0.5733
42.6600 14.2034 -0.5771
42.6800 14.2100 -0.5714
42.7000 14.2166 -0.5706
42.7200 14.2232 -0.5786
42.7400 14.2299 -0.5690
42.7600 14.2367 -0.5710
42.7800 14.2433 -0.5768
42.8000 14.2500 -0.5735
42.8200 14.2567 -0.5720
42.8400 14.2634 -0.5757
42.8600 14.2700 -0.5760
42.8800 14.2766 -0.5719
42.9000 14.2832 -0.5729
42.9200 14.2899 -0.5733
42.9400 14.2967 -0.5774
42.9600 14.3034 -0.5774
42.9800 14.3100 -0.5763
43.0000 14.3167 -0.5700
43.0200 14.3233 -0.5734
43.0400 14.3300 -0.5807
43.0600 14.3366 -0.5695
43.0800 14.3433 -0.5753
43.1000 14.3500 -0.5767
43.1200 14.3567 -0.5734
43.1400 14.3633 -0.5725
43.1600 14.3700 -0.5779
43.1800 14.3767 -0.5763
43.2000 14.3834 -0.5729
43.2200 14.3900 -0.5789
43.2400 14.3966 -0.5703
43.2600 14.4033 -0.5742
43.2800 14.4100 -0.5834
43.3000 14.4167 -0.5724
43.3200 14.4234 -0.5791
43.3400 14.4301 -0.5795
43.3600 14.4368 -0.5731
43.3800 14.4434 -0.5744
43.4000 14.4500 -0.5798
43.4200 14.4566 -0.5723
43.4400 14.4632 -0.5748
43.4600 14.4700 -0.5830
43.4800 14.4767 -0.5737
43.5000 14.4833 -0.5792
43.5200 14.4900 -0.5821
43.5400 14.4967 -0.5717
43.5600 14.5034 -0.5761
43.5800 14.5100 -0.5810
43.6000 14.5166 -0.5703
43.6200 14.5232 -0.5765
43.6400 14.5299 -0.5778
43.6600 14.5366 -0.5757
43.6800 14.5433 -0.5801
43.7000 14.5500 -0.5760
43.7200 14.5567 -0.5720
43.7400 14.5634 -0.5818
43.7600 14.5700 -0.5781
43.7800 14.5766 -0.5740
43.8000 14.5832 -0.5775
43.8200 14.5899 -0.5798
43.8400 14.5967 -0.5806
43.8600 14.6034 -0.5753
43.8800 14.6100 -0.5740
43.9000 14.6167 -0.5866
43.9200 14.6234 -0.5780
43.9400 14.6299 -0.5711
43.9600 14.6366 -0.5840
43.9800 14.6433 -0.5826
44.0000 14.6500 -0.5711
44.0200 14.6567 -0.5857
44.0400 14.6634 -0.5776
44.0600 14.6701 -0.5710
44.0800 14.6767 -0.5882
44.1000 14.6834 -0.5796
44.1200 14.6900 -0.5732
44.1400 14.6966 -0.5867
44.1600 14.7033 -0.5736
44.1800 14.7100 -0.5776
44.2000 14.7167 -0.5853
44.2200 14.7234 -0.5698
44.2400 14.7300 -0.5843
44.2600 14.7367 -0.5824
44.2800 14.7434 -0.5619
44.3000 14.7500 -0.5940
44.3200 14.7566 -0.5874
44.3400 14.7632 -0.5576
44.3600 14.7699 -0.5932
44.3800 14.7766 -0.5833
44.4000 14.7833 -0.5627
44.4200 14.7900 -0.5922
44.4400 14.7967 -0.5857
44.4600 14.8033 -0.5697
44.4800 14.8099 -0.5919
44.5000 14.8166 -0.5774
44.5200 14.8232 -0.5674
44.5400 14.8300 -0.5927
44.5600 14.8367 -0.5756
44.5800 14.8434 -0.5733
44.6000 14.8501 -0.5900
44.6200 14.8567 -0.5762
44.6400 14.8634 -0.5796
44.6600 14.8701 -0.5823
44.6800 14.8767 -0.5773
44.7000 14.8833 -0.5792
44.7200 14.8900 -0.5835
44.7400 14.8967 -0.5792
44.7600 14.9034 -0.5813
44.7800 14.9101 -0.5816
44.8000 14.9168 -0.5821
44.8200 14.9234 -0.5842
44.8400 14.9300 -0.5788
44.8600 14.9366 -0.5809
44.8800 14.9432 -0.5835
44.9000 14.9499 -0.5766
44.9200 14.9566 -0.5796
44.9400 14.9633 -0.5852
44.9600 14.9700 -0.5791
44.9800 14.9767 -0.5800
45.0000 14.9834 -0.5861
45.0200 14.9900 -0.5783
45.0400 14.9966 -0.5798
45.0600 15.0032 -0.5869
45.0800 15.0099 -0.5712
45.1000 15.0167 -0.5851
45.1200 15.0233 -0.5849
45.1400 15.0300 -0.5735
45.1600 15.0367 -0.5835
45.1800 15.0434 -0.5818
45.2000 15.0500 -0.5778
45.2200 15.0566 -0.5826
45.2400 15.0633 -0.5764
45.2600 15.0700 -0.5847
45.2800 15.0767 -0.5836
45.3000 15.0834 -0.5780
45.3200 15.0901 -0.5781
45.3400 15.0968 -0.5879
45.3600 15.1034 -0.5784
45.3800 15.1101 -0.5836
45.4000 15.1166 -0.5887
45.4200 15.1233 -0.5731
45.4400 15.1299 -0.5826
45.4600 15.1367 -0.5856
45.4800 15.1434 -0.5742
45.5000 15.1501 -0.5855
45.5200 15.1567 -0.5847
45.5400 15.1634 -0.5755
45.5600 15.1700 -0.5858
45.5800 15.1766 -0.5845
45.6000 15.1832 -0.5777
45.6200 15.1900 -0.5830
45.6400 15.1967 -0.5873
45.6600 15.2034 -0.5769
45.6800 15.2100 -0.5854
45.7000 15.2167 -0.5802
45.7200 15.2234 -0.5834
45.7400 15.2300 -0.5862
45.7600 15.2366 -0.5828
45.7800 15.2432 -0.5830
45.8000 15.2499 -0.5776
45.8200 15.2566 -0.5879
45.8400 15.2633 -0.5867
45.8600 15.2700 -0.5756
45.8800 15.2767 -0.5847
45.9000 15.2834 -0.5867
45.9200 15.2900 -0.5759
45.9400 15.2966 -0.5876
45.9600 15.3032 -0.5918
45.9800 15.3099 -0.5697
46.0000 15.3167 -0.5912
46.0200 15.3234 -0.5870
46.0400 15.3301 -0.5733
46.0600 15.3367 -0.5936
46.0800 15.3434 -0.5878
46.1000 15.3500 -0.5725
46.1200 15.3566 -0.5929
46.1400 15.3633 -0.5820
46.1600 15.3700 -0.5809
46.1800 15.3767 -0.5930
46.2000 15.3834 -0.5866
46.2200 15.3901 -0.5826
46.2400 15.3967 -0.5920
46.2600 15.4034 -0.5843
46.2800 15.4100 -0.5858
46.3000 15.4166 -0.5899
46.3200 15.4232 -0.5755
46.3400 15.4299 -0.5886
46.3600 15.4366 -0.5925
46.3800 15.4433 -0.5788
46.4000 15.4500 -0.5883
46.4200 15.4567 -0.5917
46.4400 15.4634 -0.5796
46.4600 15.4700 -0.5865
46.4800 15.4766 -0.5923
46.5000 15.4832 -0.5804
46.5200 15.4899 -0.5839
46.5400 15.4966 -0.5926
46.5600 15.5033 -0.5818
46.5800 15.5100 -0.5838
46.6000 15.5167 -0.5869
46.6200 15.5234 -0.5869
46.6400 15.5300 -0.5842
46.6600 15.5366 -0.5920
46.6800 15.5432 -0.5869
46.7000 15.5499 -0.5847
46.7200 15.5566 -0.5863
46.7400 15.5633 -0.5861
46.7600 15.5700 -0.5883
46.7800 15.5767 -0.5872
46.8000 15.5834 -0.5875
46.8200 15.5901 -0.5899
46.8400 15.5967 -0.5874
46.8600 15.6033 -0.5867
46.8800 15.6100 -0.5842
46.9000 15.6167 -0.5903
46.9200 15.6234 -0.5838
46.9400 15.6301 -0.5849
46.9600 15.6367 -0.5880
46.9800 15.6434 -0.5830
47.0000 15.6500 -0.5856
47.0200 15.6566 -0.5919
47.0400 15.6632 -0.5842
47.0600 15.6699 -0.5881
47.0800 15.6766 -0.5920
47.1000 15.6834 -0.5838
47.1200 15.6900 -0.5943
47.1400 15.6967 -0.5894
47.1600 15.7034 -0.5814
47.1800 15.7100 -0.5904
47.2000 15.7166 -0.5858
47.2200 15.7233 -0.5822
47.2400 15.7300 -0.5943
47.2600 15.7367 -0.5841
47.2800 15.7434 -0.5879
47.3000 15.7500 -0.5956
47.3200 15.7567 -0.5762
47.3400 15.7634 -0.5887
47.3600 15.7700 -0.5993
47.3800 15.7767 -0.5793
47.4000 15.7833 -0.5842
47.4200 15.7899 -0.5895
47.4400 15.7966 -0.5892
47.4600 15.8034 -0.5886
47.4800 15.8100 -0.5889
47.5000 15.8167 -0.5854
47.5200 15.8234 -0.5948
47.5400 15.8300 -0.5882
47.5600 15.8366 -0.5838
47.5800 15.8432 -0.5914
47.6000 15.8499 -0.5889
47.6200 15.8566 -0.5824
47.6400 15.8634 -0.5923
47.6600 15.8701 -0.5870
47.6800 15.8768 -0.5895
47.7000 15.8834 -0.5919
47.7200 15.8901 -0.5876
47.7400 15.8967 -0.5902
47.7600 15.9033 -0.5929
47.7800 15.9099 -0.5896
47.8000 15.9167 -0.5841
47.8200 15.9234 -0.5880
47.8400 15.9300 -0.5919
47.8600 15.9367 -0.5859
47.8800 15.9434 -0.5878
47.9000 15.9500 -0.5957
47.9200 15.9566 -0.5879
47.9400 15.9633 -0.5871
47.9600 15.9699 -0.5978
47.9800 15.9766 -0.5889
48.0000 15.9833 -0.5870
48.0200 15.9900 -0.5958
48.0400 15.9967 -0.5911
48.0600 16.0034 -0.5866
48.0800 16.0100 -0.5939
48.1000 16.0166 -0.5945
48.1200 16.0233 -0.5867
48.1400 16.0299 -0.5940
48.1600 16.0367 -0.5920
48.1800 16.0434 -0.5917
48.2000 16.0501 -0.5935
48.2200 16.0567 -0.5936
48.2400 16.0634 -0.5922
48.2600 16.0701 -0.5934
48.2800 16.0767 -0.5949
48.3000 16.0833 -0.5915
48.3200 16.0899 -0.5911
48.3400 16.0966 -0.5955
48.3600 16.1033 -0.5883
48.3800 16.1100 -0.6025
48.4000 16.1167 -0.5923
48.4200 16.1234 -0.5903
48.4400 16.1301 -0.6045
48.4600 16.1367 -0.5910
48.4800 16.1433 -0.5898
48.5000 16.1499 -0.6034
48.5200 16.1566 -0.5881
48.5400 16.1633 -0.5887
48.5600 16.1700 -0.6042
48.5800 16.1767 -0.5881
48.6000 16.1834 -0.5957
48.6200 16.1900 -0.6050
48.6400 16.1966 -0.5926
48.6600 16.2032 -0.5941
48.6800 16.2099 -0.6021
48.7000 16.2166 -0.5952
48.7200 16.2233 -0.5966
48.7400 16.2300 -0.6001
48.7600 16.2367 -0.5969
48.7800 16.2433 -0.5970
48.8000 16.2500 -0.6027
48.8200 16.2566 -0.5936
48.8400 16.2633 -0.5956
48.8600 16.2699 -0.6008
48.8800 16.2766 -0.5984
48.9000 16.2833 -0.5928
48.9200 16.2900 -0.6045
48.9400 16.2967 -0.5998
48.9600 16.3034 -0.5923
48.9800 16.3101 -0.6060
49.0000 16.3167 -0.6007
49.0200 16.3233 -0.5934
49.0400 16.3299 -0.6031
49.0600 16.3366 -0.5970
49.0800 16.3434 -0.5971
49.1000 16.3501 -0.6095
49.1200 16.3567 -0.5969
49.1400 16.3634 -0.5897
49.1600 16.3700 -0.6122
49.1800 16.3766 -0.5958
49.2000 16.3832 -0.5919
49.2200 16.3899 -0.6065
49.2400 16.3966 -0.5918
49.2600 16.4033 -0.5969
49.2800 16.4100 -0.6090
49.3000 16.4166 -0.5916
49.3200 16.4233 -0.5986
49.3400 16.4300 -0.6097
49.3600 16.4367 -0.5933
49.3800 16.4433 -0.5956
49.4000 16.4499 -0.6104
49.4200 16.4566 -0.5980
49.4400 16.4633 -0.5960
49.4600 16.4700 -0.6095
49.4800 16.4767 -0.5950
49.5000 16.4834 -0.5986
49.5200 16.4901 -0.6098
49.5400 16.4967 -0.5978
49.5600 16.5033 -0.5945
49.5800 16.5099 -0.6098
49.6000 16.5166 -0.5969
49.6200 16.5233 -0.6009
49.6400 16.5300 -0.6093
49.6600 16.5367 -0.5970
49.6800 16.5434 -0.5994
49.7000 16.5501 -0.6100
49.7200 16.5567 -0.5957
49.7400 16.5633 -0.5995
49.7600 16.5699 -0.6084
49.7800 16.5766 -0.5982
49.8000 16.5833 -0.5975
49.8200 16.5900 -0.6126
49.8400 16.5967 -0.5981
49.8600 16.6034 -0.5965
49.8800 16.6101 -0.6102
49.9000 16.6167 -0.6018
49.9200 16.6233 -0.5999
49.9400 16.6299 -0.6061
49.9600 16.6366 -0.6006
49.9800 16.6433 -0.6044
50.0000 16.6500 -0.6024
50.0200 16.6567 -0.6011
50.0400 16.6634 -0.6016
50.0600 16.6701 -0.6041
50.0800 16.6767 -0.6049
50.1000 16.6833 -0.6013
50.1200 16.6899 -0.6046
50.1400 16.6966 -0.6066
50.1600 16.7033 -0.6000
50.1800 16.7100 -0.6050
50.2000 16.7167 -0.6066
50.2200 16.7234 -0.5980
50.2400 16.7300 -0.6087
50.2600 16.7367 -0.6052
50.2800 16.7433 -0.5980
50.3000 16.7499 -0.6110
50.3200 16.7566 -0.6019
50.3400 16.7633 -0.5952
50.3600 16.7700 -0.6131
50.3800 16.7767 -0.6036
50.4000 16.7834 -0.6002
50.4200 16.7901 -0.6121
50.4400 16.7967 -0.6012
50.4600 16.8033 -0.5987
50.4800 16.8099 -0.6103
50.5000 16.8166 -0.5985
50.5200 16.8233 -0.6065
50.5400 16.8300 -0.6115
50.5600 16.8367 -0.5959
50.5800 16.8434 -0.6077
50.6000 16.8501 -0.6133
50.6200 16.8567 -0.5959
50.6400 16.8633 -0.6088
50.6600 16.8699 -0.6085
50.6800 16.8766 -0.6007
50.7000 16.8833 -0.6080
50.7200 16.8901 -0.6093
50.7400 16.8967 -0.6075
50.7600 16.9034 -0.6070
50.7800 16.9100 -0.6076
50.8000 16.9167 -0.6076
50.8200 16.9233 -0.6069
50.8400 16.9299 -0.6038
50.8600 16.9366 -0.6056
50.8800 16.9433 -0.6078
50.9000 16.9500 -0.6036
50.9200 16.9566 -0.6069
50.9400 16.9633 -0.6087
50.9600 16.9700 -0.6043
50.9800 16.9767 -0.6103
51.0000 16.9833 -0.6078
51.0200 16.9899 -0.6066
51.0400 16.9966 -0.6042
51.0600 17.0033 -0.6089
51.0800 17.0100 -0.6075
51.1000 17.0167 -0.6102
51.1200 17.0234 -0.6053
51.1400 17.0301 -0.6121
51.1600 17.0367 -0.6120
51.1800 17.0433 -0.6058
51.2000 17.0499 -0.6053
51.2200 17.0566 -0.6038
51.2400 17.0633 -0.6111
51.2600 17.0700 -0.6090
51.2800 17.0767 -0.6078
51.3000 17.0834 -0.6091
51.3200 17.0900 -0.6075
51.3400 17.0967 -0.6077
51.3600 17.1033 -0.6111
51.3800 17.1099 -0.6123
51.4000 17.1166 -0.6059
51.4200 17.1233 -0.6108
51.4400 17.1300 -0.6083
51.4600 17.1367 -0.6094
51.4800 17.1434 -0.6167
51.5000 17.1500 -0.6080
51.5200 17.1567 -0.6135
51.5400 17.1633 -0.6134
51.5600 17.1699 -0.6029
51.5800 17.1766 -0.6127
51.6000 17.1833 -0.6128
51.6200 17.1900 -0.6085
51.6400 17.1967 -0.6143
51.6600 17.2034 -0.6124
51.6800 17.2101 -0.6074
51.7000 17.2167 -0.6205
51.7200 17.2233 -0.6148
51.7400 17.2299 -0.6061
51.7600 17.2366 -0.6180
51.7800 17.2433 -0.6061
51.8000 17.2500 -0.6087
51.8200 17.2567 -0.6250
51.8400 17.2634 -0.6079
51.8600 17.2701 -0.6099
51.8800 17.2767 -0.6217
51.9000 17.2833 -0.6040
51.9200 17.2899 -0.6151
51.9400 17.2966 -0.6201
51.9600 17.3033 -0.6085
51.9800 17.3100 -0.6152
52.0000 17.3167 -0.6166
52.0200 17.3234 -0.6062
52.0400 17.3301 -0.6198
52.0600 17.3368 -0.6163
52.0800 17.3433 -0.6070
52.1000 17.3499 -0.6138
52.1200 17.3566 -0.6129
52.1400 17.3633 -0.6103
52.1600 17.3700 -0.6198
52.1800 17.3767 -0.6115
52.2000 17.3834 -0.6111
52.2200 17.3900 -0.6132
52.2400 17.3967 -0.6112
52.2600 17.4033 -0.6164
52.2800 17.4099 -0.6136
52.3000 17.4165 -0.6108
52.3200 17.4232 -0.6162
52.3400 17.4299 -0.6124
52.3600 17.4366 -0.6095
52.3800 17.4433 -0.6189
52.4000 17.4500 -0.6104
52.4200 17.4566 -0.6152
52.4400 17.4633 -0.6170
52.4600 17.4699 -0.6094
52.4800 17.4766 -0.6130
52.5000 17.4833 -0.6203
52.5200 17.4900 -0.6104
52.5400 17.4967 -0.6098
52.5600 17.5034 -0.6227
52.5800 17.5101 -0.6144
52.6000 17.5168 -0.6124
52.6200 17.5234 -0.6223
52.6400 17.5300 -0.6104
52.6600 17.5366 -0.6179
52.6800 17.5433 -0.6185
52.7000 17.5500 -0.6112
52.7200 17.5567 -0.6236
52.7400 17.5634 -0.6183
52.7600 17.5701 -0.6098
52.7800 17.5767 -0.6245
52.8000 17.5833 -0.6190
52.8200 17.5899 -0.6089
52.8400 17.5966 -0.6193
52.8600 17.6033 -0.6204
52.8800 17.6100 -0.6163
52.9000 17.6167 -0.6221
52.9200 17.6234 -0.6192
52.9400 17.6300 -0.6162
52.9600 17.6367 -0.6195
52.9800 17.6433 -0.6247
53.0000 17.6499 -0.6137
53.0200 17.6566 -0.6195
53.0400 17.6633 -0.6239
53.0600 17.6700 -0.6148
53.0800 17.6767 -0.6181
53.1000 17.6833 -0.6279
53.1200 17.6900 -0.6189
53.1400 17.6967 -0.6195
53.1600 17.7033 -0.6266
53.1800 17.7099 -0.6113
53.2000 17.7166 -0.6192
53.2200 17.7233 -0.6273
53.2400 17.7300 -0.6104
53.2600 17.7367 -0.6199
53.2800 17.7434 -0.6288
53.3000 17.7501 -0.6106
53.3200 17.7567 -0.6234
53.3400 17.7633 -0.6271
53.3600 17.7699 -0.6121
53.3800 17.7766 -0.6226
53.4000 17.7833 -0.6281
53.4200 17.7900 -0.6120
53.4400 17.7967 -0.6265
53.4600 17.8034 -0.6219
53.4800 17.8101 -0.6117
53.5000 17.8167 -0.6248
53.5200 17.8233 -0.6241
53.5400 17.8299 -0.6094
53.5600 17.8366 -0.6270
53.5800 17.8433 -0.6234
53.6000 17.8500 -0.6157
53.6200 17.8566 -0.6218
53.6400 17.8633 -0.6212
53.6600 17.8700 -0.6153
53.6800 17.8767 -0.6255
53.7000 17.8833 -0.6216
53.7200 17.8899 -0.6153
53.7400 17.8965 -0.6226
53.7600 17.9032 -0.6220
53.7800 17.9100 -0.6185
53.8000 17.9167 -0.6224
53.8200 17.9234 -0.6204
53.8400 17.9300 -0.6228
53.8600 17.9367 -0.6193
53.8800 17.9433 -0.6224
53.9000 17.9499 -0.6221
53.9200 17.9566 -0.6213
53.9400 17.9633 -0.6220
53.9600 17.9700 -0.6216
53.9800 17.9767 -0.6235
54.0000 17.9834 -0.6266
54.0200 17.9901 -0.6202
54.0400 17.9967 -0.6194
54.0600 18.0034 -0.6291
54.0800 18.0100 -0.6268
54.1000 18.0166 -0.6187
54.1200 18.0233 -0.6245
54.1400 18.0300 -0.6247
54.1600 18.0367 -0.6158
54.1800 18.0434 -0.6268
54.2000 18.0501 -0.6241
54.2200 18.0567 -0.6219
54.2400 18.0634 -0.6259
54.2600 18.0700 -0.6212
54.2800 18.0766 -0.6213
54.3000 18.0833 -0.6337
54.3200 18.0900 -0.6218
54.3400 18.0967 -0.6230
54.3600 18.1034 -0.6317
54.3800 18.1100 -0.6246
54.4000 18.1167 -0.6226
54.4200 18.1233 -0.6363
54.4400 18.1299 -0.6226
54.4600 18.1366 -0.6232
54.4800 18.1432 -0.6323
54.5000 18.1500 -0.6235
54.5200 18.1566 -0.6263
54.5400 18.1633 -0.6318
54.5600 18.1700 -0.6255
54.5800 18.1767 -0.6277
54.6000 18.1833 -0.6370
54.6200 18.1899 -0.6200
54.6400 18.1966 -0.6277
54.6600 18.2033 -0.6328
54.6800 18.2100 -0.6237
54.7000 18.2167 -0.6344
54.7200 18.2234 -0.6297
54.7400 18.2301 -0.6219
54.7600 18.2368 -0.6347
54.7800 18.2434 -0.6343
54.8000 18.2500 -0.6257
54.8200 18.2566 -0.6331
54.8400 18.2633 -0.6296
54.8600 18.2700 -0.6264
54.8800 18.2767 -0.6351
54.9000 18.2834 -0.6312
54.9200 18.2901 -0.6281
54.9400 18.2967 -0.6325
54.9600 18.3034 -0.6343
54.9800 18.3100 -0.6323
55.0000 18.3166 -0.6331
55.0200 18.3233 -0.6297
55.0400 18.3300 -0.6368
55.0600 18.3367 -0.6319
55.0800 18.3433 -0.6261
55.1000 18.3500 -0.6387
55.1200 18.3567 -0.6370
55.1400 18.3633 -0.6268
55.1600 18.3699 -0.6351
55.1800 18.3765 -0.6293
55.2000 18.3832 -0.6345
55.2200 18.3899 -0.6392
55.2400 18.3966 -0.6335
55.2600 18.4033 -0.6312
55.2800 18.4100 -0.6356
55.3000 18.4167 -0.6335
55.3200 18.4233 -0.6321
55.3400 18.4299 -0.6348
55.3600 18.4366 -0.6323
55.3800 18.4433 -0.6286
55.4000 18.4500 -0.6382
55.4200 18.4567 -0.6350
55.4400 18.4634 -0.6324
55.4600 18.4701 -0.6382
55.4800 18.4767 -0.6274
55.5000 18.4834 -0.6362
55.5200 18.4900 -0.6407
55.5400 18.4966 -0.6273
55.5600 18.5033 -0.6335
55.5800 18.5100 -0.6396
55.6000 18.5167 -0.6356
55.6200 18.5234 -0.6392
55.6400 18.5300 -0.6338
55.6600 18.5367 -0.6356
55.6800 18.5434 -0.6381
55.7000 18.5500 -0.6385
55.7200 18.5566 -0.6299
55.7400 18.5632 -0.6409
55.7600 18.5700 -0.6409
55.7800 18.5767 -0.6317
55.8000 18.5833 -0.6424
55.8200 18.5900 -0.6412
55.8400 18.5967 -0.6382
55.8600 18.6034 -0.6409
55.8800 18.6099 -0.6375
55.9000 18.6166 -0.6339
55.9200 18.6232 -0.6391
55.9400 18.6300 -0.6425
55.9600 18.6367 -0.6383
55.9800 18.6433 -0.6440
56.0000 18.6500 -0.6414
56.0200 18.6567 -0.6388
56.0400 18.6634 -0.6425
56.0600 18.6700 -0.6418
56.0800 18.6766 -0.6413
56.1000 18.6833 -0.6401
56.1200 18.6900 -0.6435
56.1400 18.6967 -0.6428
56.1600 18.7034 -0.6415
56.1800 18.7101 -0.6423
56.2000 18.7168 -0.6361
56.2200 18.7234 -0.6445
56.2400 18.7300 -0.6509
56.2600 18.7366 -0.6291
56.2800 18.7433 -0.6426
56.3000 18.7500 -0.6480
56.3200 18.7567 -0.6389
56.3400 18.7634 -0.6417
56.3600 18.7701 -0.6474
56.3800 18.7767 -0.6382
56.4000 18.7834 -0.6443
56.4200 18.7900 -0.6404
56.4400 18.7966 -0.6398
56.4600 18.8033 -0.6445
56.4800 18.8100 -0.6433
56.5000 18.8167 -0.6421
56.5200 18.8233 -0.6436
56.5400 18.8300 -0.6408
56.5600 18.8367 -0.6413
56.5800 18.8433 -0.6432
56.6000 18.8499 -0.6459
56.6200 18.8565 -0.6405
56.6400 18.8632 -0.6400
56.6600 18.8699 -0.6412
56.6800 18.8766 -0.6493
56.7000 18.8833 -0.6430
56.7200 18.8900 -0.6402
56.7400 18.8967 -0.6473
56.7600 18.9034 -0.6388
56.7800 18.9100 -0.6416
56.8000 18.9166 -0.6455
56.8200 18.9233 -0.6364
56.8400 18.9300 -0.6470
56.8600 18.9367 -0.6473
56.8800 18.9434 -0.6337
56.9000 18.9501 -0.6465
56.9200 18.9568 -0.6516
56.9400 18.9634 -0.6351
56.9600 18.9700 -0.6420
56.9800 18.9766 -0.6497
57.0000 18.9833 -0.6315
57.0200 18.9900 -0.6436
57.0400 18.9967 -0.6487
57.0600 19.0034 -0.6344
57.0800 19.0100 -0.6445
57.1000 19.0167 -0.6505
57.1200 19.0234 -0.6318
57.1400 19.0300 -0.6447
57.1600 19.0366 -0.6483
57.1800 19.0432 -0.6327
57.2000 19.0499 -0.6423
57.2200 19.0566 -0.6494
57.2400 19.0633 -0.6352
57.2600 19.0700 -0.6481
57.2800 19.0767 -0.6440
57.3000 19.0834 -0.6369
57.3200 19.0900 -0.6512
57.3400 19.0966 -0.6440
57.3600 19.1032 -0.6333
57.3800 19.1099 -0.6471
57.4000 19.1166 -0.6438
57.4200 19.1233 -0.6349
57.4400 19.1300 -0.6490
57.4600 19.1367 -0.6474
57.4800 19.1433 -0.6401
57.5000 19.1500 -0.6487
57.5200 19.1566 -0.6400
57.5400 19.1633 -0.6417
57.5600 19.1700 -0.6498
57.5800 19.1767 -0.6433
57.6000 19.1834 -0.6426
57.6200 19.1900 -0.6521
57.6400 19.1967 -0.6430
57.6600 19.2034 -0.6435
57.6800 19.2100 -0.6526
57.7000 19.2166 -0.6428
57.7200 19.2233 -0.6434
57.7400 19.2300 -0.6458
57.7600 19.2367 -0.6471
57.7800 19.2434 -0.6501
57.8000 19.2501 -0.6518
57.8200 19.2568 -0.6444
57.8400 19.2634 -0.6497
57.8600 19.2700 -0.6516
57.8800 19.2766 -0.6450
57.9000 19.2832 -0.6490
57.9200 19.2899 -0.6474
57.9400 19.2966 -0.6480
57.9600 19.3033 -0.6510
57.9800 19.3100 -0.6425
58.0000 19.3167 -0.6496
58.0200 19.3234 -0.6542
58.0400 19.3300 -0.6474
58.0600 19.3366 -0.6495
58.0800 19.3432 -0.6490
58.1000 19.3499 -0.6466
58.1200 19.3567 -0.6542
58.1400 19.3633 -0.6472
58.1600 19.3700 -0.6467
58.1800 19.3767 -0.6514
58.2000 19.3834 -0.6466
58.2200 19.3900 -0.6521
58.2400 19.3966 -0.6535
58.2600 19.4033 -0.6454
58.2800 19.4100 -0.6518
58.3000 19.4167 -0.6511
58.3200 19.4234 -0.6512
58.3400 19.4300 -0.6521
58.3600 19.4368 -0.6465
58.3800 19.4434 -0.6507
58.4000 19.4500 -0.6550
58.4200 19.4566 -0.6473
58.4400 19.4632 -0.6493
58.4600 19.4699 -0.6583
58.4800 19.4767 -0.6457
58.5000 19.4834 -0.6544
58.5200 19.4901 -0.6556
58.5400 19.4967 -0.6490
58.5600 19.5034 -0.6544
58.5800 19.5100 -0.6549
58.6000 19.5166 -0.6493
58.6200 19.5233 -0.6511
58.6400 19.5300 -0.6496
58.6600 19.5367 -0.6518
58.6800 19.5434 -0.6552
58.7000 19.5500 -0.6522
58.7200 19.5567 -0.6507
58.7400 19.5634 -0.6578
58.7600 19.5700 -0.6495
58.7800 19.5766 -0.6520
58.8000 19.5832 -0.6537
58.8200 19.5899 -0.6518
58.8400 19.5966 -0.6519
58.8600 19.6033 -0.6548
58.8800 19.6100 -0.6522
58.9000 19.6167 -0.6528
58.9200 19.6233 -0.6564
58.9400 19.6300 -0.6527
58.9600 19.6366 -0.6548
58.9800 19.6432 -0.6512
59.0000 19.6499 -0.6519
59.0200 19.6567 -0.6581
59.0400 19.6634 -0.6572
59.0600 19.6700 -0.6515
59.0800 19.6767 -0.6584
59.1000 19.6834 -0.6557
59.1200 19.6900 -0.6530
59.1400 19.6967 -0.6576
59.1600 19.7033 -0.6528
59.1800 19.7100 -0.6522
59.2000 19.7167 -0.6597
59.2200 19.7234 -0.6557
59.2400 19.7300 -0.6555
59.2600 19.7367 -0.6579
59.2800 19.7434 -0.6545
59.3000 19.7500 -0.6640
59.3010 19.7503 -0.6658
