Raw Data
Time Displacement Force
(s) (mm) (N)
0.0000 0.0000 -0.3531
0.0200 0.0000 -0.3541
0.0400 0.0008 -0.3071
0.0600 0.0040 -0.2342
0.0800 0.0095 -0.2521
0.1000 0.0153 -0.2399
0.1200 0.0211 -0.1929
0.1400 0.0277 -0.1909
0.1600 0.0349 -0.1680
0.1800 0.0424 -0.1244
0.2000 0.0496 -0.1061
0.2200 0.0565 -0.0763
0.2400 0.0632 -0.0350
0.2600 0.0698 -0.0122
0.2800 0.0765 0.0164
0.3000 0.0832 0.0482
0.3200 0.0899 0.0655
0.3400 0.0967 0.0924
0.3600 0.1033 0.0974
0.3800 0.1100 0.1051
0.4000 0.1166 0.1323
0.4200 0.1233 0.1502
0.4400 0.1300 0.1492
0.4600 0.1367 0.1649
0.4800 0.1434 0.1723
0.5000 0.1501 0.1742
0.5200 0.1567 0.1934
0.5400 0.1634 0.2172
0.5600 0.1700 0.2377
0.5800 0.1766 0.2690
0.6000 0.1833 0.3034
0.6200 0.1900 0.3395
0.6400 0.1967 0.3660
0.6600 0.2034 0.3670
0.6800 0.2100 0.3709
0.7000 0.2167 0.3672
0.7200 0.2234 0.3723
0.7400 0.2300 0.3725
0.7600 0.2366 0.3706
0.7800 0.2433 0.3745
0.8000 0.2500 0.3725
0.8200 0.2566 0.3725
0.8400 0.2633 0.3789
0.8600 0.2700 0.3731
0.8800 0.2767 0.3753
0.9000 0.2833 0.3853
0.9200 0.2899 0.3771
0.9400 0.2965 0.3782
0.9600 0.3032 0.3910
0.9800 0.3099 0.3748
1.0000 0.3166 0.3832
1.0200 0.3233 0.3987
1.0400 0.3300 0.3790
1.0600 0.3367 0.3831
1.0800 0.3433 0.3957
1.1000 0.3499 0.3836
1.1200 0.3566 0.3867
1.1400 0.3633 0.3972
1.1600 0.3700 0.3822
1.1800 0.3767 0.3897
1.2000 0.3834 0.3930
1.2200 0.3901 0.3857
1.2400 0.3967 0.3906
1.2600 0.4034 0.3927
1.2800 0.4100 0.3844
1.3000 0.4166 0.3948
1.3200 0.4233 0.3951
1.3400 0.4300 0.3840
1.3600 0.4367 0.3912
1.3800 0.4434 0.3967
1.4000 0.4501 0.3795
1.4200 0.4567 0.3877
1.4400 0.4634 0.3981
1.4600 0.4700 0.3818
1.4800 0.4766 0.3883
1.5000 0.4832 0.3934
1.5200 0.4899 0.3839
1.5400 0.4966 0.3851
1.5600 0.5033 0.3929
1.5800 0.5100 0.3809
1.6000 0.5167 0.3834
1.6200 0.5233 0.3903
1.6400 0.5299 0.3793
1.6600 0.5366 0.3830
1.6800 0.5433 0.3942
1.7000 0.5500 0.3778
1.7200 0.5567 0.3801
1.7400 0.5633 0.3881
1.7600 0.5700 0.3803
1.7800 0.5767 0.3767
1.8000 0.5833 0.3844
1.8200 0.5900 0.3743
1.8400 0.5966 0.3774
1.8600 0.6033 0.3849
1.8800 0.6100 0.3708
1.9000 0.6167 0.3729
1.9200 0.6233 0.3828
1.9400 0.6300 0.3722
1.9600 0.6367 0.3751
1.9800 0.6434 0.3826
2.0000 0.6500 0.3661
2.0200 0.6566 0.3747
2.0400 0.6633 0.3808
2.0600 0.6700 0.3674
2.0800 0.6767 0.3694
2.1000 0.6834 0.3783
2.1200 0.6901 0.3627
2.1400 0.6967 0.3673
2.1600 0.7033 0.3719
2.1800 0.7099 0.3646
2.2000 0.7166 0.3631
2.2200 0.7233 0.3708
2.2400 0.7300 0.3661
2.2600 0.7367 0.3612
2.2800 0.7433 0.3665
2.3000 0.7500 0.3643
2.3200 0.7567 0.3633
2.3400 0.7633 0.3655
2.3600 0.7700 0.3656
2.3800 0.7766 0.3640
2.4000 0.7832 0.3683
2.4200 0.7899 0.3602
2.4400 0.7966 0.3598
2.4600 0.8033 0.3698
2.4800 0.8100 0.3601
2.5000 0.8167 0.3531
2.5200 0.8234 0.3626
2.5400 0.8300 0.3591
2.5600 0.8366 0.3599
2.5800 0.8433 0.3639
2.6000 0.8500 0.3539
2.6200 0.8567 0.3570
2.6400 0.8634 0.3658
2.6600 0.8701 0.3582
2.6800 0.8767 0.3530
2.7000 0.8834 0.3591
2.7200 0.8900 0.3563
2.7400 0.8966 0.3594
2.7600 0.9033 0.3569
2.7800 0.9100 0.3525
2.8000 0.9167 0.3570
2.8200 0.9234 0.3568
2.8400 0.9301 0.3527
2.8600 0.9367 0.3561
2.8800 0.9434 0.3541
2.9000 0.9500 0.3527
2.9200 0.9566 0.3579
2.9400 0.9632 0.3553
2.9600 0.9699 0.3502
2.9800 0.9766 0.3568
3.0000 0.9833 0.3526
3.0200 0.9900 0.3509
3.0400 0.9967 0.3547
3.0600 1.0034 0.3466
3.0800 1.0099 0.3509
3.1000 1.0165 0.3523
3.1200 1.0232 0.3496
3.1400 1.0299 0.3523
3.1600 1.0366 0.3492
3.1800 1.0433 0.3418
3.2000 1.0500 0.3571
3.2200 1.0567 0.3483
3.2400 1.0633 0.3409
3.2600 1.0700 0.3602
3.2800 1.0766 0.3456
3.3000 1.0833 0.3394
3.3200 1.0900 0.3552
3.3400 1.0967 0.3435
3.3600 1.1034 0.3452
3.3800 1.1101 0.3569
3.4000 1.1168 0.3358
3.4200 1.1234 0.3399
3.4400 1.1300 0.3594
3.4600 1.1366 0.3409
3.4800 1.1433 0.3404
3.5000 1.1500 0.3581
3.5200 1.1567 0.3333
3.5400 1.1634 0.3404
3.5600 1.1701 0.3531
3.5800 1.1767 0.3332
3.6000 1.1834 0.3414
3.6200 1.1900 0.3487
3.6400 1.1966 0.3307
3.6600 1.2032 0.3477
3.6800 1.2100 0.3455
3.7000 1.2167 0.3315
3.7200 1.2234 0.3412
3.7400 1.2300 0.3441
3.7600 1.2367 0.3348
3.7800 1.2434 0.3420
3.8000 1.2500 0.3388
3.8200 1.2566 0.3359
3.8400 1.2632 0.3419
3.8600 1.2699 0.3345
3.8800 1.2766 0.3400
3.9000 1.2833 0.3368
3.9200 1.2900 0.3350
3.9400 1.2967 0.3390
3.9600 1.3034 0.3348
3.9800 1.3100 0.3328
4.0000 1.3166 0.3373
4.0200 1.3233 0.3343
4.0400 1.3299 0.3348
4.0600 1.3367 0.3378
4.0800 1.3434 0.3249
4.1000 1.3500 0.3346
4.1200 1.3567 0.3378
4.1400 1.3634 0.3226
4.1600 1.3700 0.3345
4.1800 1.3766 0.3390
4.2000 1.3832 0.3260
4.2200 1.3900 0.3359
4.2400 1.3967 0.3311
4.2600 1.4034 0.3282
4.2800 1.4101 0.3363
4.3000 1.4167 0.3305
4.3200 1.4234 0.3242
4.3400 1.4300 0.3347
4.3600 1.4366 0.3307
4.3800 1.4432 0.3247
4.4000 1.4499 0.3355
4.4200 1.4567 0.3261
4.4400 1.4633 0.3250
4.4600 1.4700 0.3389
4.4800 1.4767 0.3246
4.5000 1.4834 0.3235
4.5200 1.4900 0.3351
4.5400 1.4966 0.3247
4.5600 1.5032 0.3247
4.5800 1.5099 0.3377
4.6000 1.5166 0.3239
4.6200 1.5233 0.3204
4.6400 1.5300 0.3365
4.6600 1.5367 0.3240
4.6800 1.5434 0.3252
4.7000 1.5500 0.3276
4.7200 1.5566 0.3264
4.7400 1.5633 0.3218
4.7600 1.5700 0.3218
4.7800 1.5767 0.3310
4.8000 1.5834 0.3218
4.8200 1.5901 0.3171
4.8400 1.5967 0.3290
4.8600 1.6034 0.3239
4.8800 1.6100 0.3212
4.9000 1.6166 0.3297
4.9200 1.6232 0.3211
4.9400 1.6299 0.3126
4.9600 1.6366 0.3302
4.9800 1.6434 0.3221
5.0000 1.6500 0.3115
5.0200 1.6567 0.3326
5.0400 1.6634 0.3116
5.0600 1.6700 0.3146
5.0800 1.6766 0.3332
5.1000 1.6832 0.3156
5.1200 1.6899 0.3161
5.1400 1.6966 0.3264
5.1600 1.7033 0.3110
5.1800 1.7100 0.3185
5.2000 1.7167 0.3318
5.2200 1.7234 0.3089
5.2400 1.7300 0.3167
5.2600 1.7366 0.3295
5.2800 1.7432 0.3118
5.3000 1.7499 0.3204
5.3200 1.7567 0.3299
5.3400 1.7633 0.3083
5.3600 1.7700 0.3208
5.3800 1.7766 0.3207
5.4000 1.7833 0.3097
5.4200 1.7900 0.3232
5.4400 1.7966 0.3211
5.4600 1.8033 0.3047
5.4800 1.8099 0.3285
5.5000 1.8166 0.3199
5.5200 1.8233 0.3053
5.5400 1.8300 0.3277
5.5600 1.8367 0.3219
5.5800 1.8434 0.3072
5.6000 1.8501 0.3230
5.6200 1.8567 0.3165
5.6400 1.8633 0.3091
5.6600 1.8699 0.3258
5.6800 1.8767 0.3160
5.7000 1.8834 0.3093
5.7200 1.8900 0.3214
5.7400 1.8967 0.3129
5.7600 1.9034 0.3087
5.7800 1.9100 0.3176
5.8000 1.9166 0.3118
5.8200 1.9232 0.3101
5.8400 1.9299 0.3161
5.8600 1.9366 0.3156
5.8800 1.9433 0.3090
5.9000 1.9500 0.3155
5.9200 1.9566 0.3106
5.9400 1.9633 0.3063
5.9600 1.9700 0.3095
5.9800 1.9766 0.3143
6.0000 1.9832 0.3089
6.0200 1.9899 0.3101
6.0400 1.9966 0.3100
6.0600 2.0033 0.3033
6.0800 2.0100 0.3114
6.1000 2.0167 0.3093
6.1200 2.0234 0.3035
6.1400 2.0300 0.3086
6.1600 2.0366 0.3097
6.1800 2.0433 0.3031
6.2000 2.0499 0.3114
6.2200 2.0567 0.3079
6.2400 2.0634 0.2996
6.2600 2.0700 0.3096
6.2800 2.0767 0.3069
6.3000 2.0834 0.3005
6.3200 2.0900 0.3066
6.3400 2.0966 0.3082
6.3600 2.1032 0.3045
6.3800 2.1099 0.3020
6.4000 2.1167 0.3067
6.4200 2.1234 0.2980
6.4400 2.1300 0.3014
6.4600 2.1367 0.3017
6.4800 2.1434 0.3007
6.5000 2.1501 0.3013
6.5200 2.1567 0.2993
6.5400 2.1633 0.3016
6.5600 2.1699 0.3006
6.5800 2.1766 0.3027
6.6000 2.1833 0.3017
6.6200 2.1900 0.2976
6.6400 2.1967 0.2989
6.6600 2.2034 0.2988
6.6800 2.2100 0.2940
6.7000 2.2166 0.3032
6.7200 2.2232 0.3028
6.7400 2.2299 0.2901
6.7600 2.2366 0.2922
6.7800 2.2433 0.3057
6.8000 2.2500 0.2906
6.8200 2.2567 0.2940
6.8400 2.2634 0.3017
6.8600 2.2700 0.2904
6.8800 2.2766 0.2947
6.9000 2.2833 0.3018
6.9200 2.2899 0.2936
6.9400 2.2966 0.2942
6.9600 2.3033 0.2976
6.9800 2.3100 0.2890
7.0000 2.3167 0.2961
7.0200 2.3234 0.2999
7.0400 2.3300 0.2888
7.0600 2.3367 0.2957
7.0800 2.3433 0.3006
7.1000 2.3499 0.2823
7.1200 2.3566 0.2928
7.1400 2.3633 0.3050
7.1600 2.3700 0.2846
7.1800 2.3767 0.2865
7.2000 2.3834 0.3017
7.2200 2.3901 0.2845
7.2400 2.3966 0.2921
7.2600 2.4032 0.3008
7.2800 2.4099 0.2761
7.3000 2.4166 0.2974
7.3200 2.4234 0.2933
7.3400 2.4301 0.2795
7.3600 2.4367 0.2981
7.3800 2.4434 0.2941
7.4000 2.4500 0.2733
7.4200 2.4566 0.2966
7.4400 2.4632 0.2926
7.4600 2.4699 0.2829
7.4800 2.4766 0.2987
7.5000 2.4833 0.2867
7.5200 2.4900 0.2774
7.5400 2.4966 0.2965
7.5600 2.5033 0.2881
7.5800 2.5100 0.2808
7.6000 2.5167 0.2942
7.6200 2.5233 0.2912
7.6400 2.5300 0.2834
7.6600 2.5367 0.2914
7.6800 2.5433 0.2900
7.7000 2.5500 0.2854
7.7200 2.5567 0.2885
7.7400 2.5634 0.2828
7.7600 2.5701 0.2873
7.7800 2.5767 0.2839
7.8000 2.5833 0.2845
7.8200 2.5900 0.2882
7.8400 2.5967 0.2884
7.8600 2.6034 0.2844
7.8800 2.6100 0.2804
7.9000 2.6167 0.2871
7.9200 2.6234 0.2888
7.9400 2.6300 0.2794
7.9600 2.6366 0.2840
7.9800 2.6433 0.2888
8.0000 2.6499 0.2806
8.0200 2.6566 0.2843
8.0400 2.6633 0.2848
8.0600 2.6700 0.2805
8.0800 2.6767 0.2792
8.1000 2.6834 0.2879
8.1200 2.6900 0.2772
8.1400 2.6967 0.2759
8.1600 2.7032 0.2892
8.1800 2.7099 0.2798
8.2000 2.7166 0.2782
8.2200 2.7233 0.2888
8.2400 2.7300 0.2733
8.2600 2.7367 0.2770
8.2800 2.7434 0.2885
8.3000 2.7501 0.2732
8.3200 2.7567 0.2773
8.3400 2.7633 0.2916
8.3600 2.7699 0.2756
8.3800 2.7766 0.2730
8.4000 2.7833 0.2883
8.4200 2.7900 0.2735
8.4400 2.7967 0.2707
8.4600 2.8034 0.2826
8.4800 2.8101 0.2760
8.5000 2.8167 0.2730
8.5200 2.8233 0.2808
8.5400 2.8299 0.2717
8.5600 2.8366 0.2775
8.5800 2.8433 0.2829
8.6000 2.8500 0.2723
8.6200 2.8567 0.2691
8.6400 2.8634 0.2842
8.6600 2.8701 0.2722
8.6800 2.8767 0.2688
8.7000 2.8833 0.2836
8.7200 2.8899 0.2743
8.7400 2.8966 0.2677
8.7600 2.9033 0.2802
8.7800 2.9100 0.2743
8.8000 2.9167 0.2737
8.8200 2.9234 0.2776
8.8400 2.9300 0.2700
8.8600 2.9366 0.2674
8.8800 2.9432 0.2796
8.9000 2.9499 0.2713
8.9200 2.9566 0.2657
8.9400 2.9633 0.2733
8.9600 2.9700 0.2698
8.9800 2.9766 0.2688
9.0000 2.9833 0.2699
9.0200 2.9900 0.2704
9.0400 2.9967 0.2668
9.0600 3.0033 0.2690
9.0800 3.0099 0.2724
9.1000 3.0166 0.2720
9.1200 3.0233 0.2683
9.1400 3.0300 0.2710
9.1600 3.0367 0.2662
9.1800 3.0434 0.2659
9.2000 3.0501 0.2717
9.2200 3.0567 0.2646
9.2400 3.0633 0.2676
9.2600 3.0699 0.2721
9.2800 3.0766 0.2631
9.3000 3.0833 0.2689
9.3200 3.0900 0.2709
9.3400 3.0967 0.2645
9.3600 3.1034 0.2730
9.3800 3.1101 0.2671
9.4000 3.1167 0.2581
9.4200 3.1233 0.2698
9.4400 3.1299 0.2683
9.4600 3.1366 0.2633
9.4800 3.1433 0.2729
9.5000 3.1500 0.2602
9.5200 3.1567 0.2619
9.5400 3.1634 0.2793
9.5600 3.1700 0.2573
9.5800 3.1767 0.2608
9.6000 3.1833 0.2769
9.6200 3.1899 0.2547
9.6400 3.1966 0.2661
9.6600 3.2033 0.2715
9.6800 3.2100 0.2524
9.7000 3.2166 0.2732
9.7200 3.2233 0.2642
9.7400 3.2300 0.2549
9.7600 3.2366 0.2764
9.7800 3.2432 0.2620
9.8000 3.2499 0.2541
9.8200 3.2566 0.2779
9.8400 3.2633 0.2558
9.8600 3.2700 0.2587
9.8800 3.2767 0.2716
9.9000 3.2834 0.2531
9.9200 3.2901 0.2567
9.9400 3.2967 0.2687
9.9600 3.3033 0.2537
9.9800 3.3099 0.2776
10.0000 3.3166 0.2572
10.0200 3.3234 0.2425
10.0400 3.3301 0.2887
10.0600 3.3367 0.2506
10.0800 3.3434 0.2403
10.1000 3.3500 0.2814
10.1200 3.3567 0.2517
10.1400 3.3633 0.2527
10.1600 3.3699 0.2805
10.1800 3.3766 0.2417
10.2000 3.3833 0.2597
10.2200 3.3900 0.2758
10.2400 3.3966 0.2449
10.2600 3.4033 0.2618
10.2800 3.4100 0.2651
10.3000 3.4167 0.2399
10.3200 3.4233 0.2681
10.3400 3.4299 0.2634
10.3600 3.4366 0.2474
10.3800 3.4433 0.2647
10.4000 3.4500 0.2530
10.4200 3.4567 0.2525
10.4400 3.4633 0.2658
10.4600 3.4700 0.2495
10.4800 3.4767 0.2501
10.5000 3.4833 0.2601
10.5200 3.4899 0.2561
10.5400 3.4966 0.2609
10.5600 3.5033 0.2456
10.5800 3.5100 0.2502
10.6000 3.5167 0.2644
10.6200 3.5234 0.2449
10.6400 3.5301 0.2508
10.6600 3.5367 0.2673
10.6800 3.5433 0.2400
10.7000 3.5499 0.2501
10.7200 3.5566 0.2640
10.7400 3.5633 0.2387
10.7600 3.5700 0.2497
10.7800 3.5767 0.2585
10.8000 3.5834 0.2395
10.8200 3.5901 0.2528
10.8400 3.5967 0.2510
10.8600 3.6033 0.2386
10.8800 3.6099 0.2607
10.9000 3.6166 0.2480
10.9200 3.6233 0.2402
10.9400 3.6300 0.2586
10.9600 3.6367 0.2465
10.9800 3.6434 0.2362
11.0000 3.6500 0.2595
11.0200 3.6567 0.2428
11.0400 3.6633 0.2356
11.0600 3.6699 0.2597
11.0800 3.6766 0.2425
11.1000 3.6833 0.2378
11.1200 3.6900 0.2492
11.1400 3.6966 0.2389
11.1600 3.7033 0.2376
11.1800 3.7100 0.2537
11.2000 3.7166 0.2404
11.2200 3.7233 0.2352
11.2400 3.7299 0.2520
11.2600 3.7366 0.2434
11.2800 3.7433 0.2374
11.3000 3.7500 0.2508
11.3200 3.7567 0.2398
11.3400 3.7635 0.2368
11.3600 3.7701 0.2509
11.3800 3.7768 0.2403
11.4000 3.7833 0.2321
11.4200 3.7899 0.2508
11.4400 3.7966 0.2394
11.4600 3.8033 0.2339
11.4800 3.8101 0.2520
11.5000 3.8167 0.2381
11.5200 3.8234 0.2332
11.5400 3.8301 0.2461
11.5600 3.8367 0.2394
11.5800 3.8433 0.2330
11.6000 3.8499 0.2496
11.6200 3.8566 0.2342
11.6400 3.8633 0.2347
11.6600 3.8700 0.2477
11.6800 3.8766 0.2351
11.7000 3.8833 0.2343
11.7200 3.8900 0.2449
11.7400 3.8967 0.2342
11.7600 3.9033 0.2331
11.7800 3.9099 0.2415
11.8000 3.9165 0.2342
11.8200 3.9232 0.2365
11.8400 3.9299 0.2402
11.8600 3.9366 0.2291
11.8800 3.9433 0.2382
11.9000 3.9500 0.2425
11.9200 3.9567 0.2319
11.9400 3.9633 0.2419
11.9600 3.9699 0.2371
11.9800 3.9766 0.2352
12.0000 3.9833 0.2335
12.0200 3.9900 0.2366
12.0400 3.9967 0.2372
12.0600 4.0034 0.2373
12.0800 4.0101 0.2325
12.1000 4.0167 0.2344
12.1200 4.0234 0.2322
12.1400 4.0300 0.2325
12.1600 4.0366 0.2368
12.1800 4.0433 0.2328
12.2000 4.0500 0.2300
12.2200 4.0567 0.2353
12.2400 4.0634 0.2286
12.2600 4.0701 0.2346
12.2800 4.0767 0.2371
12.3000 4.0833 0.2279
12.3200 4.0899 0.2294
12.3400 4.0966 0.2409
12.3600 4.1033 0.2348
12.3800 4.1100 0.2258
12.4000 4.1167 0.2364
12.4200 4.1234 0.2293
12.4400 4.1301 0.2288
12.4600 4.1367 0.2373
12.4800 4.1433 0.2259
12.5000 4.1499 0.2282
12.5200 4.1566 0.2379
12.5400 4.1633 0.2224
12.5600 4.1700 0.2242
12.5800 4.1767 0.2371
12.6000 4.1833 0.2238
12.6200 4.1900 0.2245
12.6400 4.1967 0.2388
12.6600 4.2034 0.2211
12.6800 4.2100 0.2245
12.7000 4.2166 0.2362
12.7200 4.2233 0.2198
12.7400 4.2300 0.2286
12.7600 4.2367 0.2344
12.7800 4.2434 0.2152
12.8000 4.2501 0.2292
12.8200 4.2568 0.2337
12.8400 4.2633 0.2161
12.8600 4.2699 0.2288
12.8800 4.2766 0.2308
12.9000 4.2833 0.2199
12.9200 4.2900 0.2283
12.9400 4.2967 0.2328
12.9600 4.3034 0.2173
12.9800 4.3101 0.2259
13.0000 4.3167 0.2322
13.0200 4.3233 0.2157
13.0400 4.3300 0.2245
13.0600 4.3366 0.2309
13.0800 4.3433 0.2188
13.1000 4.3500 0.2180
13.1200 4.3567 0.2304
13.1400 4.3634 0.2159
13.1600 4.3700 0.2178
13.1800 4.3767 0.2301
13.2000 4.3833 0.2154
13.2200 4.3899 0.2184
13.2400 4.3965 0.2304
13.2600 4.4032 0.2182
13.2800 4.4099 0.2186
13.3000 4.4166 0.2223
13.3200 4.4233 0.2202
13.3400 4.4300 0.2148
13.3600 4.4367 0.2251
13.3800 4.4434 0.2170
13.4000 4.4499 0.2141
13.4200 4.4566 0.2300
13.4400 4.4633 0.2177
13.4600 4.4700 0.2134
13.4800 4.4767 0.2243
13.5000 4.4834 0.2182
13.5200 4.4901 0.2108
13.5400 4.4967 0.2252
13.5600 4.5034 0.2117
13.5800 4.5100 0.2128
13.6000 4.5166 0.2275
13.6200 4.5233 0.2054
13.6400 4.5300 0.2108
13.6600 4.5367 0.2262
13.6800 4.5433 0.2078
13.7000 4.5500 0.2152
13.7200 4.5567 0.2242
13.7400 4.5633 0.2098
13.7600 4.5699 0.2133
13.7800 4.5766 0.2214
13.8000 4.5832 0.2077
13.8200 4.5900 0.2104
13.8400 4.5967 0.2179
13.8600 4.6034 0.2095
13.8800 4.6100 0.2137
13.9000 4.6167 0.2177
13.9200 4.6234 0.2128
13.9400 4.6299 0.2105
13.9600 4.6366 0.2170
13.9800 4.6432 0.2118
14.0000 4.6500 0.2099
14.0200 4.6567 0.2110
14.0400 4.6634 0.2095
14.0600 4.6700 0.2089
14.0800 4.6767 0.2132
14.1000 4.6833 0.2092
14.1200 4.6899 0.2119
14.1400 4.6966 0.2152
14.1600 4.7033 0.2083
14.1800 4.7100 0.2102
14.2000 4.7167 0.2153
14.2200 4.7234 0.2054
14.2400 4.7301 0.2115
14.2600 4.7368 0.2194
14.2800 4.7434 0.2031
14.3000 4.7500 0.2078
14.3200 4.7566 0.2144
14.3400 4.7633 0.2058
14.3600 4.7700 0.2105
14.3800 4.7767 0.2099
14.4000 4.7834 0.2023
14.4200 4.7901 0.2068
14.4400 4.7968 0.2072
14.4600 4.8034 0.2060
14.4800 4.8099 0.2079
14.5000 4.8165 0.2094
14.5200 4.8232 0.2034
14.5400 4.8300 0.2026
14.5600 4.8366 0.2146
14.5800 4.8433 0.2070
14.6000 4.8500 0.1973
14.6200 4.8567 0.2046
14.6400 4.8633 0.2055
14.6600 4.8699 0.2069
14.6800 4.8766 0.2041
14.7000 4.8832 0.2062
14.7200 4.8900 0.2058
14.7400 4.8966 0.2021
14.7600 4.9033 0.2041
14.7800 4.9100 0.2058
14.8000 4.9167 0.2063
14.8200 4.9233 0.1996
14.8400 4.9300 0.1984
14.8600 4.9366 0.2029
14.8800 4.9433 0.2101
14.9000 4.9500 0.1977
14.9200 4.9567 0.1948
14.9400 4.9634 0.2094
14.9600 4.9701 0.2024
14.9800 4.9768 0.2004
15.0000 4.9834 0.2078
15.0200 4.9900 0.2024
15.0400 4.9966 0.1974
15.0600 5.0033 0.2083
15.0800 5.0100 0.2024
15.1000 5.0167 0.1952
15.1200 5.0234 0.2061
15.1400 5.0301 0.1977
15.1600 5.0367 0.1945
15.1800 5.0434 0.2106
15.2000 5.0500 0.1997
15.2200 5.0566 0.1953
15.2400 5.0633 0.2065
15.2600 5.0700 0.2011
15.2800 5.0766 0.1939
15.3000 5.0833 0.2085
15.3200 5.0900 0.2017
15.3400 5.0967 0.1883
15.3600 5.1034 0.2054
15.3800 5.1100 0.2006
15.4000 5.1166 0.1883
15.4200 5.1232 0.2048
15.4400 5.1299 0.2026
15.4600 5.1366 0.1900
15.4800 5.1433 0.2021
15.5000 5.1500 0.1959
15.5200 5.1567 0.1971
15.5400 5.1633 0.1997
15.5600 5.1699 0.1912
15.5800 5.1766 0.1959
15.6000 5.1833 0.2041
15.6200 5.1900 0.1899
15.6400 5.1967 0.1916
15.6600 5.2034 0.2052
15.6800 5.2101 0.1932
15.7000 5.2167 0.1912
15.7200 5.2234 0.2008
15.7400 5.2300 0.1944
15.7600 5.2367 0.1950
15.7800 5.2433 0.1987
15.8000 5.2500 0.1918
15.8200 5.2567 0.1923
15.8400 5.2634 0.1962
15.8600 5.2701 0.1909
15.8800 5.2768 0.1886
15.9000 5.2834 0.1951
15.9200 5.2900 0.1928
15.9400 5.2966 0.1918
15.9600 5.3032 0.1946
15.9800 5.3099 0.1927
16.0000 5.3166 0.1879
16.0200 5.3233 0.1952
16.0400 5.3300 0.1893
16.0600 5.3367 0.1904
16.0800 5.3433 0.1958
16.1000 5.3499 0.1886
16.1200 5.3565 0.1894
16.1400 5.3633 0.1972
16.1600 5.3700 0.1885
16.1800 5.3767 0.1858
16.2000 5.3834 0.1936
16.2200 5.3900 0.1886
16.2400 5.3967 0.1857
16.2600 5.4034 0.1900
16.2800 5.4100 0.1892
16.3000 5.4166 0.1899
16.3200 5.4233 0.1914
16.3400 5.4300 0.1836
16.3600 5.4367 0.1876
16.3800 5.4434 0.1904
16.4000 5.4501 0.1862
16.4200 5.4568 0.1859
16.4400 5.4634 0.1839
16.4600 5.4700 0.1868
16.4800 5.4766 0.1874
16.5000 5.4832 0.1863
16.5200 5.4899 0.1910
16.5400 5.4967 0.1784
16.5600 5.5034 0.1872
16.5800 5.5100 0.1876
16.6000 5.5167 0.1769
16.6200 5.5234 0.1873
16.6400 5.5300 0.1862
16.6600 5.5366 0.1807
16.6800 5.5432 0.1848
16.7000 5.5500 0.1867
16.7200 5.5567 0.1796
16.7400 5.5633 0.1867
16.7600 5.5700 0.1871
16.7800 5.5767 0.1800
16.8000 5.5834 0.1839
16.8200 5.5900 0.1847
16.8400 5.5966 0.1764
16.8600 5.6032 0.1830
16.8800 5.6099 0.1867
16.9000 5.6166 0.1766
16.9200 5.6233 0.1817
16.9400 5.6300 0.1857
16.9600 5.6367 0.1739
16.9800 5.6434 0.1795
17.0000 5.6500 0.1846
17.0200 5.6566 0.1763
17.0400 5.6633 0.1858
17.0600 5.6700 0.1816
17.0800 5.6767 0.1757
17.1000 5.6834 0.1817
17.1200 5.6901 0.1834
17.1400 5.6967 0.1776
17.1600 5.7034 0.1812
17.1800 5.7100 0.1810
17.2000 5.7166 0.1732
17.2200 5.7233 0.1718
17.2400 5.7300 0.1693
17.2600 5.7367 0.1636
17.2800 5.7434 0.1669
17.3000 5.7501 0.1693
17.3200 5.7567 0.1719
17.3400 5.7634 0.1724
17.3600 5.7700 0.1761
17.3800 5.7766 0.1686
17.4000 5.7832 0.1702
17.4200 5.7899 0.1772
17.4400 5.7966 0.1643
17.4600 5.8033 0.1711
17.4800 5.8100 0.1783
17.5000 5.8167 0.1712
17.5200 5.8234 0.1668
17.5400 5.8300 0.1772
17.5600 5.8365 0.1722
17.5800 5.8432 0.1700
17.6000 5.8499 0.1759
17.6200 5.8566 0.1675
17.6400 5.8633 0.1685
17.6600 5.8700 0.1760
17.6800 5.8766 0.1665
17.7000 5.8833 0.1725
17.7200 5.8900 0.1770
17.7400 5.8966 0.1688
17.7600 5.9033 0.1707
17.7800 5.9100 0.1769
17.8000 5.9167 0.1676
17.8200 5.9234 0.1683
17.8400 5.9301 0.1795
17.8600 5.9368 0.1675
17.8800 5.9434 0.1687
17.9000 5.9501 0.1729
17.9200 5.9567 0.1670
17.9400 5.9633 0.1679
17.9600 5.9700 0.1757
17.9800 5.9767 0.1641
18.0000 5.9834 0.1666
18.0200 5.9901 0.1740
18.0400 5.9968 0.1663
18.0600 6.0034 0.1643
18.0800 6.0100 0.1708
18.1000 6.0166 0.1662
18.1200 6.0232 0.1684
18.1400 6.0299 0.1711
18.1600 6.0367 0.1627
18.1800 6.0434 0.1688
18.2000 6.0500 0.1685
18.2200 6.0567 0.1670
18.2400 6.0634 0.1638
18.2600 6.0700 0.1695
18.2800 6.0766 0.1625
18.3000 6.0833 0.1622
18.3200 6.0899 0.1695
18.3400 6.0966 0.1640
18.3600 6.1033 0.1621
18.3800 6.1100 0.1665
18.4000 6.1167 0.1601
18.4200 6.1234 0.1587
18.4400 6.1300 0.1660
18.4600 6.1366 0.1653
18.4800 6.1432 0.1601
18.5000 6.1499 0.1698
18.5200 6.1566 0.1636
18.5400 6.1634 0.1562
18.5600 6.1701 0.1675
18.5800 6.1768 0.1606
18.6000 6.1834 0.1572
18.6200 6.1900 0.1637
18.6400 6.1966 0.1595
18.6600 6.2033 0.1571
18.6800 6.2100 0.1667
18.7000 6.2167 0.1564
18.7200 6.2234 0.1555
18.7400 6.2301 0.1647
18.7600 6.2367 0.1569
18.7800 6.2434 0.1557
18.8000 6.2500 0.1621
18.8200 6.2567 0.1563
18.8400 6.2633 0.1588
18.8600 6.2700 0.1626
18.8800 6.2766 0.1561
18.9000 6.2833 0.1531
18.9200 6.2900 0.1652
18.9400 6.2967 0.1603
18.9600 6.3034 0.1492
18.9800 6.3100 0.1642
19.0000 6.3166 0.1577
19.0200 6.3232 0.1509
19.0400 6.3299 0.1604
19.0600 6.3366 0.1574
19.0800 6.3433 0.1520
19.1000 6.3500 0.1612
19.1200 6.3567 0.1587
19.1400 6.3634 0.1500
19.1600 6.3700 0.1583
19.1800 6.3766 0.1604
19.2000 6.3833 0.1512
19.2200 6.3900 0.1576
19.2400 6.3967 0.1563
19.2600 6.4034 0.1498
19.2800 6.4100 0.1583
19.3000 6.4167 0.1556
19.3200 6.4234 0.1521
19.3400 6.4300 0.1541
19.3600 6.4366 0.1532
19.3800 6.4432 0.1498
19.4000 6.4499 0.1574
19.4200 6.4566 0.1537
19.4400 6.4633 0.1503
19.4600 6.4700 0.1555
19.4800 6.4767 0.1525
19.5000 6.4834 0.1484
19.5200 6.4901 0.1537
19.5400 6.4967 0.1485
19.5600 6.5033 0.1563
19.5800 6.5099 0.1490
19.6000 6.5166 0.1547
19.6200 6.5233 0.1570
19.6400 6.5300 0.1487
19.6600 6.5367 0.1519
19.6800 6.5434 0.1473
19.7000 6.5500 0.1484
19.7200 6.5566 0.1529
19.7400 6.5632 0.1513
19.7600 6.5699 0.1455
19.7800 6.5766 0.1520
19.8000 6.5833 0.1443
19.8200 6.5900 0.1431
19.8400 6.5966 0.1575
19.8600 6.6033 0.1446
19.8800 6.6100 0.1430
19.9000 6.6166 0.1559
19.9200 6.6233 0.1435
19.9400 6.6299 0.1442
19.9600 6.6366 0.1552
19.9800 6.6433 0.1416
20.0000 6.6500 0.1450
20.0200 6.6567 0.1555
20.0400 6.6634 0.1376
20.0600 6.6701 0.1469
20.0800 6.6767 0.1574
20.1000 6.6833 0.1380
20.1200 6.6900 0.1477
20.1400 6.6967 0.1515
20.1600 6.7034 0.1371
20.1800 6.7101 0.1471
20.2000 6.7168 0.1527
20.2200 6.7234 0.1368
20.2400 6.7300 0.1472
20.2600 6.7366 0.1480
20.2800 6.7432 0.1371
20.3000 6.7499 0.1487
20.3200 6.7566 0.1500
20.3400 6.7633 0.1379
20.3600 6.7700 0.1452
20.3800 6.7766 0.1492
20.4000 6.7833 0.1370
20.4200 6.7900 0.1453
20.4400 6.7966 0.1456
20.4600 6.8032 0.1413
20.4800 6.8099 0.1416
20.5000 6.8166 0.1409
20.5200 6.8233 0.1370
20.5400 6.8300 0.1468
20.5600 6.8367 0.1406
20.5800 6.8434 0.1390
20.6000 6.8501 0.1436
20.6200 6.8567 0.1409
20.6400 6.8633 0.1420
20.6600 6.8699 0.1448
20.6800 6.8766 0.1354
20.7000 6.8834 0.1438
20.7200 6.8901 0.1388
20.7400 6.8967 0.1421
20.7600 6.9034 0.1421
20.7800 6.9100 0.1367
20.8000 6.9166 0.1404
20.8200 6.9232 0.1379
20.8400 6.9299 0.1414
20.8600 6.9367 0.1387
20.8800 6.9434 0.1357
20.9000 6.9500 0.1343
20.9200 6.9567 0.1436
20.9400 6.9634 0.1391
20.9600 6.9701 0.1311
20.9800 6.9767 0.1414
21.0000 6.9833 0.1382
21.0200 6.9900 0.1321
21.0400 6.9966 0.1392
21.0600 7.0033 0.1364
21.0800 7.0100 0.1335
21.1000 7.0167 0.1421
21.1200 7.0234 0.1370
21.1400 7.0300 0.1308
21.1600 7.0366 0.1388
21.1800 7.0432 0.1373
21.2000 7.0499 0.1330
21.2200 7.0566 0.1381
21.2400 7.0633 0.1369
21.2600 7.0700 0.1293
21.2800 7.0767 0.1335
21.3000 7.0833 0.1376
21.3200 7.0900 0.1304
21.3400 7.0966 0.1376
21.3600 7.1033 0.1370
21.3800 7.1099 0.1322
21.4000 7.1166 0.1366
21.4200 7.1233 0.1301
21.4400 7.1300 0.1268
21.4600 7.1367 0.1412
21.4800 7.1434 0.1344
21.5000 7.1501 0.1271
21.5200 7.1567 0.1361
21.5400 7.1633 0.1305
21.5600 7.1699 0.1288
21.5800 7.1766 0.1379
21.6000 7.1833 0.1336
21.6200 7.1900 0.1272
21.6400 7.1967 0.1321
21.6600 7.2034 0.1332
21.6800 7.2101 0.1302
21.7000 7.2167 0.1307
21.7200 7.2233 0.1363
21.7400 7.2299 0.1265
21.7600 7.2366 0.1327
21.7800 7.2433 0.1328
21.8000 7.2500 0.1233
21.8200 7.2567 0.1270
21.8400 7.2633 0.1364
21.8600 7.2700 0.1216
21.8800 7.2766 0.1248
21.9000 7.2832 0.1383
21.9200 7.2899 0.1256
21.9400 7.2966 0.1288
21.9600 7.3033 0.1361
21.9800 7.3100 0.1217
22.0000 7.3166 0.1280
22.0200 7.3233 0.1395
22.0400 7.3300 0.1174
22.0600 7.3367 0.1224
22.0800 7.3433 0.1396
22.1000 7.3499 0.1225
22.1200 7.3566 0.1241
22.1400 7.3633 0.1334
22.1600 7.3700 0.1201
22.1800 7.3767 0.1254
22.2000 7.3834 0.1287
22.2200 7.3901 0.1183
22.2400 7.3967 0.1242
22.2600 7.4033 0.1311
22.2800 7.4099 0.1144
22.3000 7.4166 0.1278
22.3200 7.4234 0.1312
22.3400 7.4301 0.1138
22.3600 7.4367 0.1253
22.3800 7.4434 0.1276
22.4000 7.4500 0.1181
22.4200 7.4567 0.1251
22.4400 7.4633 0.1282
22.4600 7.4699 0.1163
22.4800 7.4766 0.1249
22.5000 7.4833 0.1246
22.5200 7.4900 0.1193
22.5400 7.4967 0.1235
22.5600 7.5034 0.1235
22.5800 7.5100 0.1150
22.6000 7.5167 0.1184
22.6200 7.5232 0.1249
22.6400 7.5299 0.1185
22.6600 7.5366 0.1212
22.6800 7.5433 0.1239
22.7000 7.5500 0.1175
22.7200 7.5567 0.1163
22.7400 7.5634 0.1250
22.7600 7.5700 0.1162
22.7800 7.5767 0.1165
22.8000 7.5832 0.1249
22.8200 7.5899 0.1155
22.8400 7.5966 0.1130
22.8600 7.6033 0.1246
22.8800 7.6100 0.1135
22.9000 7.6167 0.1141
22.9200 7.6234 0.1253
22.9400 7.6301 0.1111
22.9600 7.6367 0.1111
22.9800 7.6433 0.1224
23.0000 7.6500 0.1132
23.0200 7.6566 0.1130
23.0400 7.6633 0.1240
23.0600 7.6700 0.1108
23.0800 7.6767 0.1144
23.1000 7.6834 0.1273
23.1200 7.6901 0.1092
23.1400 7.6967 0.1043
23.1600 7.7033 0.1246
23.1800 7.7099 0.1104
23.2000 7.7166 0.1086
23.2200 7.7233 0.1214
23.2400 7.7300 0.1121
23.2600 7.7367 0.1039
23.2800 7.7434 0.1202
23.3000 7.7500 0.1118
23.3200 7.7567 0.1071
23.3400 7.7632 0.1184
23.3600 7.7699 0.1091
23.3800 7.7766 0.1087
23.4000 7.7833 0.1173
23.4200 7.7900 0.1060
23.4400 7.7966 0.1128
23.4600 7.8033 0.1136
23.4800 7.8100 0.1075
23.5000 7.8167 0.1075
23.5200 7.8233 0.1144
23.5400 7.8299 0.1117
23.5600 7.8366 0.1078
23.5800 7.8433 0.1141
23.6000 7.8500 0.1089
23.6200 7.8567 0.1109
23.6400 7.8634 0.1125
23.6600 7.8701 0.1078
23.6800 7.8767 0.1080
23.7000 7.8833 0.1097
23.7200 7.8899 0.1113
23.7400 7.8966 0.1066
23.7600 7.9033 0.1118
23.7800 7.9101 0.1097
23.8000 7.9167 0.1035
23.8200 7.9234 0.1133
23.8400 7.9301 0.1076
23.8600 7.9367 0.1028
23.8800 7.9433 0.1109
23.9000 7.9499 0.1102
23.9200 7.9566 0.1051
23.9400 7.9633 0.1120
23.9600 7.9700 0.1077
23.9800 7.9767 0.1041
24.0000 7.9834 0.1154
24.0200 7.9901 0.1034
24.0400 7.9967 0.1023
24.0600 8.0033 0.1125
24.0800 8.0099 0.1060
24.1000 8.0166 0.0969
24.1200 8.0233 0.1125
24.1400 8.0300 0.1018
24.1600 8.0367 0.1029
24.1800 8.0433 0.1137
24.2000 8.0500 0.1022
24.2200 8.0566 0.0992
24.2400 8.0633 0.1114
24.2600 8.0699 0.1005
24.2800 8.0766 0.1023
24.3000 8.0833 0.1119
24.3200 8.0900 0.0952
24.3400 8.0967 0.1030
24.3600 8.1034 0.1044
24.3800 8.1101 0.0993
24.4000 8.1167 0.1005
24.4200 8.1233 0.1029
24.4400 8.1299 0.1061
24.4600 8.1366 0.1028
24.4800 8.1434 0.0977
24.5000 8.1501 0.1036
24.5200 8.1568 0.1031
24.5400 8.1634 0.1001
24.5600 8.1701 0.1027
24.5800 8.1767 0.1062
24.6000 8.1833 0.0982
24.6200 8.1899 0.1025
24.6400 8.1966 0.1015
24.6600 8.2033 0.0971
24.6800 8.2100 0.1037
24.7000 8.2167 0.1003
24.7200 8.2233 0.0975
24.7400 8.2300 0.1012
24.7600 8.2367 0.0992
24.7800 8.2433 0.0995
24.8000 8.2499 0.0997
24.8200 8.2565 0.0976
24.8400 8.2633 0.1055
24.8600 8.2700 0.0960
24.8800 8.2767 0.0982
24.9000 8.2833 0.1020
24.9200 8.2900 0.0981
24.9400 8.2967 0.0912
24.9600 8.3033 0.1021
24.9800 8.3099 0.0995
25.0000 8.3166 0.0972
25.0200 8.3233 0.1005
25.0400 8.3300 0.0935
25.0600 8.3367 0.1052
25.0800 8.3434 0.0955
25.1000 8.3501 0.0912
25.1200 8.3567 0.1025
25.1400 8.3633 0.0960
25.1600 8.3699 0.0948
25.1800 8.3766 0.1034
25.2000 8.3833 0.0922
25.2200 8.3900 0.0925
25.2400 8.3967 0.1028
25.2600 8.4034 0.0891
25.2800 8.4101 0.0947
25.3000 8.4167 0.1053
25.3200 8.4233 0.0835
25.3400 8.4299 0.0971
25.3600 8.4366 0.1044
25.3800 8.4433 0.0875
25.4000 8.4500 0.0971
25.4200 8.4567 0.1009
25.4400 8.4634 0.0890
25.4600 8.4700 0.0948
25.4800 8.4767 0.0964
25.5000 8.4833 0.0892
25.5200 8.4899 0.1000
25.5400 8.4965 0.0926
25.5600 8.5032 0.0823
25.5800 8.5099 0.0946
25.6000 8.5166 0.0938
25.6200 8.5233 0.0863
25.6400 8.5300 0.1003
25.6600 8.5367 0.0859
25.6800 8.5433 0.0846
25.7000 8.5499 0.1022
25.7200 8.5566 0.0889
25.7400 8.5633 0.0837
25.7600 8.5700 0.1017
25.7800 8.5767 0.0895
25.8000 8.5834 0.0880
25.8200 8.5901 0.0986
25.8400 8.5968 0.0864
25.8600 8.6033 0.0879
25.8800 8.6100 0.0963
25.9000 8.6166 0.0853
25.9200 8.6233 0.0891
25.9400 8.6301 0.0960
25.9600 8.6367 0.0861
25.9800 8.6434 0.0856
26.0000 8.6501 0.0866
26.0200 8.6567 0.0906
26.0400 8.6633 0.0859
26.0600 8.6699 0.0891
26.0800 8.6766 0.0891
26.1000 8.6833 0.0855
26.1200 8.6900 0.0861
26.1400 8.6967 0.0875
26.1600 8.7033 0.0908
26.1800 8.7100 0.0858
26.2000 8.7167 0.0860
26.2200 8.7233 0.0805
26.2400 8.7299 0.0916
26.2600 8.7365 0.0906
26.2800 8.7432 0.0801
26.3000 8.7499 0.0882
26.3200 8.7566 0.0870
26.3400 8.7633 0.0799
26.3600 8.7700 0.0880
26.3800 8.7767 0.0813
26.4000 8.7833 0.0850
26.4200 8.7899 0.0841
26.4400 8.7966 0.0839
26.4600 8.8033 0.0817
26.4800 8.8100 0.0878
26.5000 8.8167 0.0832
26.5200 8.8234 0.0773
26.5400 8.8301 0.0852
26.5600 8.8367 0.0864
26.5800 8.8434 0.0807
26.6000 8.8500 0.0839
26.6200 8.8567 0.0856
26.6400 8.8633 0.0804
26.6600 8.8700 0.0857
26.6800 8.8767 0.0850
26.7000 8.8834 0.0744
26.7200 8.8901 0.0843
26.7400 8.8968 0.0853
26.7600 8.9034 0.0720
26.7800 8.9100 0.0896
26.8000 8.9166 0.0821
26.8200 8.9233 0.0757
26.8400 8.9300 0.0860
26.8600 8.9367 0.0773
26.8800 8.9434 0.0773
26.9000 8.9500 0.0864
26.9200 8.9567 0.0754
26.9400 8.9633 0.0753
26.9600 8.9699 0.0870
26.9800 8.9766 0.0777
27.0000 8.9832 0.0774
27.0200 8.9900 0.0834
27.0400 8.9966 0.0761
27.0600 9.0033 0.0778
27.0800 9.0100 0.0802
27.1000 9.0167 0.0760
27.1200 9.0233 0.0815
27.1400 9.0299 0.0771
27.1600 9.0366 0.0781
27.1800 9.0433 0.0786
27.2000 9.0500 0.0764
27.2200 9.0567 0.0761
27.2400 9.0634 0.0772
27.2600 9.0701 0.0756
27.2800 9.0768 0.0769
27.3000 9.0834 0.0752
27.3200 9.0900 0.0767
27.3400 9.0966 0.0800
27.3600 9.1033 0.0757
27.3800 9.1100 0.0762
27.4000 9.1167 0.0789
27.4200 9.1234 0.0740
27.4400 9.1301 0.0785
27.4600 9.1367 0.0759
27.4800 9.1434 0.0694
27.5000 9.1500 0.0770
27.5200 9.1566 0.0765
27.5400 9.1633 0.0771
27.5600 9.1700 0.0713
27.5800 9.1767 0.0752
27.6000 9.1834 0.0738
27.6200 9.1900 0.0746
27.6400 9.1967 0.0719
27.6600 9.2033 0.0726
27.6800 9.2099 0.0762
27.7000 9.2165 0.0712
27.7200 9.2232 0.0732
27.7400 9.2299 0.0758
27.7600 9.2366 0.0721
27.7800 9.2433 0.0714
27.8000 9.2500 0.0733
27.8200 9.2567 0.0707
27.8400 9.2634 0.0706
27.8600 9.2699 0.0724
27.8800 9.2766 0.0702
27.9000 9.2833 0.0718
27.9200 9.2900 0.0739
27.9400 9.2967 0.0665
27.9600 9.3034 0.0732
27.9800 9.3101 0.0677
28.0000 9.3167 0.0693
28.0200 9.3234 0.0716
28.0400 9.3300 0.0711
28.0600 9.3366 0.0705
28.0800 9.3433 0.0638
28.1000 9.3500 0.0678
28.1200 9.3567 0.0703
28.1400 9.3633 0.0670
28.1600 9.3700 0.0669
28.1800 9.3767 0.0693
28.2000 9.3834 0.0651
28.2200 9.3900 0.0651
28.2400 9.3966 0.0718
28.2600 9.4032 0.0595
28.2800 9.4100 0.0626
28.3000 9.4167 0.0745
28.3200 9.4233 0.0614
28.3400 9.4300 0.0618
28.3600 9.4367 0.0660
28.3800 9.4434 0.0599
28.4000 9.4499 0.0677
28.4200 9.4566 0.0669
28.4400 9.4632 0.0583
28.4600 9.4700 0.0677
28.4800 9.4767 0.0632
28.5000 9.4834 0.0626
28.5200 9.4900 0.0669
28.5400 9.4967 0.0632
28.5600 9.5033 0.0584
28.5800 9.5100 0.0649
28.6000 9.5166 0.0663
28.6200 9.5233 0.0572
28.6400 9.5300 0.0671
28.6600 9.5367 0.0561
28.6800 9.5434 0.0575
28.7000 9.5500 0.0675
28.7200 9.5567 0.0562
28.7400 9.5634 0.0586
28.7600 9.5700 0.0710
28.7800 9.5766 0.0526
28.8000 9.5833 0.0633
28.8200 9.5900 0.0678
28.8400 9.5967 0.0502
28.8600 9.6034 0.0621
28.8800 9.6101 0.0672
28.9000 9.6168 0.0492
28.9200 9.6234 0.0617
28.9400 9.6300 0.0638
28.9600 9.6366 0.0495
28.9800 9.6432 0.0689
29.0000 9.6499 0.0666
29.0200 9.6566 0.0494
29.0400 9.6633 0.0640
29.0600 9.6700 0.0640
29.0800 9.6767 0.0460
29.1000 9.6833 0.0674
29.1200 9.6899 0.0591
29.1400 9.6966 0.0518
29.1600 9.7032 0.0671
29.1800 9.7100 0.0563
29.2000 9.7167 0.0492
29.2200 9.7233 0.0702
29.2400 9.7300 0.0526
29.2600 9.7367 0.0520
29.2800 9.7434 0.0655
29.3000 9.7500 0.0523
29.3200 9.7566 0.0553
29.3400 9.7633 0.0671
29.3600 9.7700 0.0533
29.3800 9.7767 0.0468
29.4000 9.7834 0.0691
29.4200 9.7901 0.0488
29.4400 9.7968 0.0520
29.4600 9.8034 0.0654
29.4800 9.8100 0.0445
29.5000 9.8166 0.0598
29.5200 9.8232 0.0642
29.5400 9.8300 0.0457
29.5600 9.8367 0.0515
29.5800 9.8434 0.0637
29.6000 9.8500 0.0478
29.6200 9.8567 0.0568
29.6400 9.8634 0.0615
29.6600 9.8700 0.0445
29.6800 9.8766 0.0592
29.7000 9.8833 0.0609
29.7200 9.8900 0.0485
29.7400 9.8967 0.0572
29.7600 9.9033 0.0550
29.7800 9.9100 0.0491
29.8000 9.9167 0.0546
29.8200 9.9234 0.0568
29.8400 9.9300 0.0466
29.8600 9.9365 0.0544
29.8800 9.9432 0.0568
29.9000 9.9499 0.0479
29.9200 9.9566 0.0498
29.9400 9.9633 0.0544
29.9600 9.9700 0.0509
29.9800 9.9767 0.0487
30.0000 9.9833 0.0489
30.0200 9.9899 0.0518
30.0400 9.9966 0.0492
30.0600 10.0033 0.0572
30.0800 10.0100 0.0449
30.1000 10.0167 0.0431
30.1200 10.0234 0.0615
30.1400 10.0300 0.0446
30.1600 10.0367 0.0431
30.1800 10.0434 0.0553
30.2000 10.0500 0.0461
30.2200 10.0566 0.0421
30.2400 10.0633 0.0557
30.2600 10.0700 0.0426
30.2800 10.0767 0.0469
30.3000 10.0834 0.0551
30.3200 10.0901 0.0391
30.3400 10.0967 0.0449
30.3600 10.1034 0.0575
30.3800 10.1100 0.0363
30.4000 10.1166 0.0484
30.4200 10.1232 0.0505
30.4400 10.1299 0.0416
30.4600 10.1367 0.0462
30.4800 10.1433 0.0456
30.5000 10.1500 0.0433
30.5200 10.1567 0.0475
30.5400 10.1633 0.0442
30.5600 10.1699 0.0394
30.5800 10.1766 0.0481
30.6000 10.1832 0.0447
30.6200 10.1900 0.0405
30.6400 10.1967 0.0435
30.6600 10.2034 0.0429
30.6800 10.2100 0.0424
30.7000 10.2167 0.0428
30.7200 10.2234 0.0411
30.7400 10.2300 0.0434
30.7600 10.2366 0.0420
30.7800 10.2433 0.0441
30.8000 10.2500 0.0383
30.8200 10.2567 0.0436
30.8400 10.2634 0.0430
30.8600 10.2700 0.0376
30.8800 10.2767 0.0416
30.9000 10.2834 0.0414
30.9200 10.2900 0.0401
30.9400 10.2966 0.0388
30.9600 10.3032 0.0450
30.9800 10.3100 0.0404
31.0000 10.3167 0.0404
31.0200 10.3234 0.0461
31.0400 10.3301 0.0370
31.0600 10.3367 0.0397
31.0800 10.3434 0.0447
31.1000 10.3500 0.0363
31.1200 10.3566 0.0402
31.1400 10.3632 0.0420
31.1600 10.3699 0.0386
31.1800 10.3767 0.0363
31.2000 10.3833 0.0385
31.2200 10.3900 0.0360
31.2400 10.3967 0.0400
31.2600 10.4034 0.0347
31.2800 10.4100 0.0335
31.3000 10.4166 0.0403
31.3200 10.4232 0.0361
31.3400 10.4299 0.0414
31.3600 10.4366 0.0387
31.3800 10.4433 0.0312
31.4000 10.4500 0.0396
31.4200 10.4567 0.0398
31.4400 10.4634 0.0284
31.4600 10.4700 0.0400
31.4800 10.4766 0.0348
31.5000 10.4832 0.0320
31.5200 10.4899 0.0393
31.5400 10.4967 0.0380
31.5600 10.5034 0.0312
31.5800 10.5101 0.0412
31.6000 10.5168 0.0345
31.6200 10.5234 0.0319
31.6400 10.5300 0.0432
31.6600 10.5366 0.0324
31.6800 10.5433 0.0321
31.7000 10.5500 0.0435
31.7200 10.5567 0.0335
31.7400 10.5634 0.0288
31.7600 10.5701 0.0378
31.7800 10.5767 0.0334
31.8000 10.5834 0.0326
31.8200 10.5900 0.0347
31.8400 10.5966 0.0352
31.8600 10.6033 0.0329
31.8800 10.6099 0.0342
31.9000 10.6166 0.0315
31.9200 10.6233 0.0367
31.9400 10.6300 0.0326
31.9600 10.6367 0.0317
31.9800 10.6434 0.0315
32.0000 10.6500 0.0324
32.0200 10.6566 0.0303
32.0400 10.6632 0.0332
32.0600 10.6699 0.0312
32.0800 10.6766 0.0291
32.1000 10.6833 0.0340
32.1200 10.6900 0.0330
32.1400 10.6967 0.0314
32.1600 10.7033 0.0305
32.1800 10.7100 0.0331
32.2000 10.7166 0.0299
32.2200 10.7233 0.0321
32.2400 10.7300 0.0314
32.2600 10.7367 0.0277
32.2800 10.7434 0.0297
32.3000 10.7501 0.0312
32.3200 10.7568 0.0292
32.3400 10.7634 0.0289
32.3600 10.7701 0.0275
32.3800 10.7767 0.0298
32.4000 10.7833 0.0311
32.4200 10.7900 0.0291
32.4400 10.7967 0.0317
32.4600 10.8034 0.0272
32.4800 10.8100 0.0262
32.5000 10.8167 0.0327
32.5200 10.8234 0.0238
32.5400 10.8300 0.0249
32.5600 10.8366 0.0332
32.5800 10.8432 0.0261
32.6000 10.8499 0.0279
32.6200 10.8566 0.0302
32.6400 10.8633 0.0247
32.6600 10.8700 0.0271
32.6800 10.8767 0.0296
32.7000 10.8834 0.0195
32.7200 10.8900 0.0294
32.7400 10.8966 0.0262
32.7600 10.9032 0.0230
32.7800 10.9099 0.0287
32.8000 10.9166 0.0268
32.8200 10.9233 0.0263
32.8400 10.9300 0.0273
32.8600 10.9367 0.0265
32.8800 10.9434 0.0218
32.9000 10.9500 0.0274
32.9200 10.9566 0.0257
32.9400 10.9632 0.0225
32.9600 10.9699 0.0237
32.9800 10.9766 0.0263
33.0000 10.9833 0.0210
33.0200 10.9900 0.0252
33.0400 10.9967 0.0240
33.0600 11.0034 0.0183
33.0800 11.0100 0.0197
33.1000 11.0166 0.0275
33.1200 11.0233 0.0176
33.1400 11.0299 0.0249
33.1600 11.0367 0.0225
33.1800 11.0434 0.0115
33.2000 11.0501 0.0213
33.2200 11.0567 0.0282
33.2400 11.0634 0.0114
33.2600 11.0700 0.0222
33.2800 11.0766 0.0280
33.3000 11.0833 0.0085
33.3200 11.0899 0.0240
33.3400 11.0966 0.0235
33.3600 11.1033 0.0114
33.3800 11.1100 0.0221
33.4000 11.1167 0.0236
33.4200 11.1234 0.0064
33.4400 11.1300 0.0178
33.4600 11.1366 0.0200
33.4800 11.1432 0.0059
33.5000 11.1499 0.0214
33.5200 11.1566 0.0212
33.5400 11.1633 0.0073
33.5600 11.1700 0.0168
33.5800 11.1767 0.0220
33.6000 11.1834 0.0079
33.6200 11.1900 0.0186
33.6400 11.1966 0.0139
33.6600 11.2033 0.0114
33.6800 11.2099 0.0195
33.7000 11.2167 0.0077
33.7200 11.2234 0.0129
33.7400 11.2301 0.0200
33.7600 11.2368 0.0068
33.7800 11.2434 0.0100
33.8000 11.2501 0.0122
33.8200 11.2566 0.0133
33.8400 11.2632 0.0116
33.8600 11.2699 0.0111
33.8800 11.2766 0.0155
33.9000 11.2833 0.0096
33.9200 11.2900 0.0050
33.9400 11.2967 0.0147
33.9600 11.3034 0.0083
33.9800 11.3101 0.0027
34.0000 11.3167 0.0171
34.0200 11.3232 0.0097
34.0400 11.3299 0.0059
34.0600 11.3366 0.0142
34.0800 11.3433 0.0053
34.1000 11.3500 0.0123
34.1200 11.3567 0.0121
34.1400 11.3634 -0.0026
34.1600 11.3701 0.0090
34.1800 11.3766 0.0119
34.2000 11.3832 0.0057
34.2200 11.3899 0.0103
34.2400 11.3966 0.0108
34.2600 11.4033 0.0024
34.2800 11.4100 0.0107
34.3000 11.4166 0.0064
34.3200 11.4233 -0.0002
34.3400 11.4300 0.0133
34.3600 11.4366 0.0055
34.3800 11.4432 0.0012
34.4000 11.4499 0.0155
34.4200 11.4566 0.0009
34.4400 11.4634 0.0033
34.4600 11.4700 0.0161
34.4800 11.4767 0.0021
34.5000 11.4834 -0.0025
34.5200 11.4901 0.0125
34.5400 11.4967 0.0047
34.5600 11.5033 -0.0019
34.5800 11.5099 0.0193
34.6000 11.5167 -0.0002
34.6200 11.5234 0.0008
34.6400 11.5301 0.0171
34.6600 11.5367 -0.0004
34.6800 11.5434 0.0023
34.7000 11.5500 0.0116
34.7200 11.5566 -0.0002
34.7400 11.5632 0.0042
34.7600 11.5699 0.0114
34.7800 11.5766 0.0014
34.8000 11.5833 0.0082
34.8200 11.5900 0.0101
34.8400 11.5966 0.0008
34.8600 11.6033 0.0085
34.8800 11.6100 0.0077
34.9000 11.6166 -0.0018
34.9200 11.6232 0.0099
34.9400 11.6299 0.0063
34.9600 11.6366 0.0009
34.9800 11.6433 0.0071
35.0000 11.6500 0.0018
35.0200 11.6567 -0.0018
35.0400 11.6634 0.0072
35.0600 11.6701 0.0019
35.0800 11.6767 0.0019
35.1000 11.6833 0.0057
35.1200 11.6899 0.0015
35.1400 11.6966 0.0034
35.1600 11.7034 0.0025
35.1800 11.7100 0.0016
35.2000 11.7167 -0.0001
35.2200 11.7234 0.0057
35.2400 11.7300 0.0011
35.2600 11.7367 -0.0034
35.2800 11.7433 0.0058
35.3000 11.7499 0.0050
35.3200 11.7566 -0.0059
35.3400 11.7634 0.0024
35.3600 11.7700 -0.0010
35.3800 11.7767 0.0004
35.4000 11.7834 -0.0014
35.4200 11.7901 0.0022
35.4400 11.7967 -0.0003
35.4600 11.8033 0.0005
35.4800 11.8100 0.0056
35.5000 11.8166 0.0002
35.5200 11.8233 -0.0033
35.5400 11.8300 0.0030
35.5600 11.8367 -0.0009
35.5800 11.8434 -0.0029
35.6000 11.8500 0.0060
35.6200 11.8566 -0.0094
35.6400 11.8632 0.0004
35.6600 11.8699 0.0054
35.6800 11.8766 -0.0101
35.7000 11.8833 -0.0021
35.7200 11.8900 0.0034
35.7400 11.8967 -0.0058
35.7600 11.9033 0.0000
35.7800 11.9100 0.0017
35.8000 11.9167 -0.0059
35.8200 11.9233 0.0005
35.8400 11.9299 -0.0016
35.8600 11.9366 -0.0094
35.8800 11.9433 0.0016
35.9000 11.9500 -0.0048
35.9200 11.9567 -0.0052
35.9400 11.9634 0.0028
35.9600 11.9701 -0.0123
35.9800 11.9767 -0.0063
36.0000 11.9833 -0.0006
36.0200 11.9899 -0.0079
36.0400 11.9966 -0.0027
36.0600 12.0033 -0.0024
36.0800 12.0100 -0.0130
36.1000 12.0167 -0.0047
36.1200 12.0234 0.0001
36.1400 12.0301 -0.0123
36.1600 12.0367 -0.0042
36.1800 12.0433 -0.0052
36.2000 12.0499 -0.0131
36.2200 12.0566 -0.0022
36.2400 12.0633 -0.0079
36.2600 12.0700 -0.0122
36.2800 12.0767 -0.0039
36.3000 12.0834 -0.0099
36.3200 12.0900 -0.0147
36.3400 12.0967 -0.0042
36.3600 12.1033 -0.0086
36.3800 12.1099 -0.0132
36.4000 12.1166 -0.0066
36.4200 12.1233 -0.0104
36.4400 12.1299 -0.0108
36.4600 12.1366 -0.0074
36.4800 12.1433 -0.0103
36.5000 12.1500 -0.0166
36.5200 12.1567 -0.0075
36.5400 12.1633 -0.0126
36.5600 12.1699 -0.0108
36.5800 12.1766 -0.0105
36.6000 12.1833 -0.0143
36.6200 12.1900 -0.0109
36.6400 12.1967 -0.0129
36.6600 12.2034 -0.0148
36.6800 12.2101 -0.0151
36.7000 12.2167 -0.0163
36.7200 12.2233 -0.0137
36.7400 12.2299 -0.0150
36.7600 12.2366 -0.0127
36.7800 12.2434 -0.0119
36.8000 12.2501 -0.0180
36.8200 12.2567 -0.0164
36.8400 12.2634 -0.0129
36.8600 12.2700 -0.0137
36.8800 12.2767 -0.0206
36.9000 12.2833 -0.0142
36.9200 12.2899 -0.0177
36.9400 12.2966 -0.0193
36.9600 12.3033 -0.0140
36.9800 12.3100 -0.0171
37.0000 12.3167 -0.0175
37.0200 12.3234 -0.0169
37.0400 12.3300 -0.0166
37.0600 12.3367 -0.0219
37.0800 12.3433 -0.0198
37.1000 12.3499 -0.0174
37.1200 12.3566 -0.0190
37.1400 12.3633 -0.0203
37.1600 12.3700 -0.0191
37.1800 12.3767 -0.0188
37.2000 12.3834 -0.0156
37.2200 12.3900 -0.0214
37.2400 12.3967 -0.0210
37.2600 12.4033 -0.0183
37.2800 12.4099 -0.0234
37.3000 12.4166 -0.0230
37.3200 12.4233 -0.0125
37.3400 12.4300 -0.0229
37.3600 12.4367 -0.0233
37.3800 12.4434 -0.0143
37.4000 12.4501 -0.0235
37.4200 12.4567 -0.0230
37.4400 12.4633 -0.0159
37.4600 12.4700 -0.0274
37.4800 12.4766 -0.0230
37.5000 12.4833 -0.0170
37.5200 12.4900 -0.0256
37.5400 12.4967 -0.0227
37.5600 12.5034 -0.0219
37.5800 12.5101 -0.0223
37.6000 12.5167 -0.0236
37.6200 12.5233 -0.0175
37.6400 12.5299 -0.0245
37.6600 12.5366 -0.0218
37.6800 12.5433 -0.0167
37.7000 12.5500 -0.0311
37.7200 12.5567 -0.0254
37.7400 12.5634 -0.0172
37.7600 12.5700 -0.0271
37.7800 12.5767 -0.0239
37.8000 12.5832 -0.0209
37.8200 12.5899 -0.0275
37.8400 12.5965 -0.0229
37.8600 12.6033 -0.0210
37.8800 12.6100 -0.0270
37.9000 12.6166 -0.0276
37.9200 12.6233 -0.0225
37.9400 12.6300 -0.0294
37.9600 12.6367 -0.0244
37.9800 12.6433 -0.0253
38.0000 12.6499 -0.0253
38.0200 12.6566 -0.0290
38.0400 12.6633 -0.0273
38.0600 12.6700 -0.0258
38.0800 12.6767 -0.0254
38.1000 12.6834 -0.0315
38.1200 12.6901 -0.0257
38.1400 12.6968 -0.0277
38.1600 12.7034 -0.0300
38.1800 12.7099 -0.0257
38.2000 12.7166 -0.0260
38.2200 12.7233 -0.0265
38.2400 12.7300 -0.0271
38.2600 12.7367 -0.0313
38.2800 12.7434 -0.0293
38.3000 12.7501 -0.0250
38.3200 12.7567 -0.0336
38.3400 12.7633 -0.0284
38.3600 12.7699 -0.0264
38.3800 12.7766 -0.0299
38.4000 12.7833 -0.0283
38.4200 12.7900 -0.0290
38.4400 12.7967 -0.0371
38.4600 12.8034 -0.0283
38.4800 12.8100 -0.0313
38.5000 12.8167 -0.0381
38.5200 12.8233 -0.0272
38.5400 12.8299 -0.0307
38.5600 12.8366 -0.0395
38.5800 12.8433 -0.0270
38.6000 12.8500 -0.0333
38.6200 12.8566 -0.0352
38.6400 12.8633 -0.0271
38.6600 12.8700 -0.0383
38.6800 12.8766 -0.0354
38.7000 12.8833 -0.0306
38.7200 12.8899 -0.0340
38.7400 12.8966 -0.0335
38.7600 12.9033 -0.0296
38.7800 12.9100 -0.0396
38.8000 12.9167 -0.0373
38.8200 12.9234 -0.0314
38.8400 12.9301 -0.0350
38.8600 12.9367 -0.0379
38.8800 12.9433 -0.0316
38.9000 12.9499 -0.0392
38.9200 12.9566 -0.0372
38.9400 12.9634 -0.0342
38.9600 12.9701 -0.0399
38.9800 12.9768 -0.0369
39.0000 12.9834 -0.0413
39.0200 12.9901 -0.0400
39.0400 12.9967 -0.0382
39.0600 13.0033 -0.0370
39.0800 13.0100 -0.0405
39.1000 13.0166 -0.0376
39.1200 13.0233 -0.0381
39.1400 13.0300 -0.0437
39.1600 13.0366 -0.0367
39.1800 13.0433 -0.0378
39.2000 13.0500 -0.0450
39.2200 13.0567 -0.0349
39.2400 13.0633 -0.0459
39.2600 13.0699 -0.0401
39.2800 13.0766 -0.0392
39.3000 13.0833 -0.0446
39.3200 13.0900 -0.0410
39.3400 13.0967 -0.0391
39.3600 13.1034 -0.0455
39.3800 13.1100 -0.0436
39.4000 13.1167 -0.0358
39.4200 13.1233 -0.0457
39.4400 13.1299 -0.0421
39.4600 13.1366 -0.0372
39.4800 13.1433 -0.0433
39.5000 13.1500 -0.0449
39.5200 13.1567 -0.0381
39.5400 13.1634 -0.0438
39.5600 13.1700 -0.0456
39.5800 13.1767 -0.0427
39.6000 13.1833 -0.0457
39.6200 13.1899 -0.0460
39.6400 13.1966 -0.0422
39.6600 13.2033 -0.0443
39.6800 13.2100 -0.0464
39.7000 13.2167 -0.0425
39.7200 13.2234 -0.0462
39.7400 13.2301 -0.0496
39.7600 13.2367 -0.0396
39.7800 13.2433 -0.0432
39.8000 13.2499 -0.0494
39.8200 13.2566 -0.0427
39.8400 13.2633 -0.0443
39.8600 13.2700 -0.0470
39.8800 13.2767 -0.0459
39.9000 13.2834 -0.0444
39.9200 13.2901 -0.0436
39.9400 13.2967 -0.0464
39.9600 13.3033 -0.0507
39.9800 13.3099 -0.0451
40.0000 13.3165 -0.0434
40.0200 13.3232 -0.0472
40.0400 13.3300 -0.0462
40.0600 13.3366 -0.0488
40.0800 13.3433 -0.0487
40.1000 13.3500 -0.0432
40.1200 13.3567 -0.0496
40.1400 13.3633 -0.0524
40.1600 13.3699 -0.0402
40.1800 13.3766 -0.0530
40.2000 13.3833 -0.0518
40.2200 13.3900 -0.0441
40.2400 13.3967 -0.0514
40.2600 13.4034 -0.0492
40.2800 13.4101 -0.0451
40.3000 13.4168 -0.0516
40.3200 13.4234 -0.0456
40.3400 13.4300 -0.0460
40.3600 13.4366 -0.0538
40.3800 13.4433 -0.0472
40.4000 13.4500 -0.0471
40.4200 13.4567 -0.0577
40.4400 13.4634 -0.0470
40.4600 13.4700 -0.0493
40.4800 13.4767 -0.0545
40.5000 13.4833 -0.0475
40.5200 13.4899 -0.0504
40.5400 13.4966 -0.0519
40.5600 13.5033 -0.0464
40.5800 13.5100 -0.0521
40.6000 13.5167 -0.0566
40.6200 13.5233 -0.0442
40.6400 13.5300 -0.0542
40.6600 13.5367 -0.0533
40.6800 13.5433 -0.0466
40.7000 13.5499 -0.0536
40.7200 13.5565 -0.0480
40.7400 13.5632 -0.0493
40.7600 13.5700 -0.0603
40.7800 13.5766 -0.0458
40.8000 13.5833 -0.0510
40.8200 13.5900 -0.0591
40.8400 13.5967 -0.0480
40.8600 13.6033 -0.0522
40.8800 13.6099 -0.0557
40.9000 13.6166 -0.0458
40.9200 13.6233 -0.0588
40.9400 13.6300 -0.0555
40.9600 13.6367 -0.0450
40.9800 13.6434 -0.0606
41.0000 13.6501 -0.0546
41.0200 13.6567 -0.0471
41.0400 13.6634 -0.0589
41.0600 13.6700 -0.0531
41.0800 13.6766 -0.0502
41.1000 13.6833 -0.0612
41.1200 13.6900 -0.0496
41.1400 13.6967 -0.0558
41.1600 13.7034 -0.0629
41.1800 13.7101 -0.0458
41.2000 13.7167 -0.0581
41.2200 13.7234 -0.0654
41.2400 13.7299 -0.0444
41.2600 13.7365 -0.0586
41.2800 13.7432 -0.0605
41.3000 13.7499 -0.0480
41.3200 13.7567 -0.0607
41.3400 13.7634 -0.0613
41.3600 13.7701 -0.0486
41.3800 13.7767 -0.0605
41.4000 13.7833 -0.0584
41.4200 13.7899 -0.0534
41.4400 13.7965 -0.0597
41.4600 13.8032 -0.0559
41.4800 13.8100 -0.0556
41.5000 13.8167 -0.0613
41.5200 13.8233 -0.0570
41.5400 13.8300 -0.0554
41.5600 13.8367 -0.0624
41.5800 13.8434 -0.0557
41.6000 13.8500 -0.0594
41.6200 13.8566 -0.0585
41.6400 13.8633 -0.0573
41.6600 13.8700 -0.0651
41.6800 13.8767 -0.0595
41.7000 13.8833 -0.0598
41.7200 13.8901 -0.0652
41.7400 13.8968 -0.0600
41.7600 13.9034 -0.0587
41.7800 13.9100 -0.0630
41.8000 13.9166 -0.0577
41.8200 13.9233 -0.0596
41.8400 13.9300 -0.0631
41.8600 13.9367 -0.0603
41.8800 13.9434 -0.0593
41.9000 13.9501 -0.0676
41.9200 13.9567 -0.0648
41.9400 13.9634 -0.0634
41.9600 13.9700 -0.0641
41.9800 13.9766 -0.0627
42.0000 13.9833 -0.0614
42.0200 13.9900 -0.0694
42.0400 13.9967 -0.0606
42.0600 14.0033 -0.0658
42.0800 14.0100 -0.0653
42.1000 14.0167 -0.0587
42.1200 14.0233 -0.0660
42.1400 14.0300 -0.0692
42.1600 14.0366 -0.0622
42.1800 14.0432 -0.0655
42.2000 14.0499 -0.0683
42.2200 14.0566 -0.0620
42.2400 14.0633 -0.0710
42.2600 14.0700 -0.0634
42.2800 14.0767 -0.0643
42.3000 14.0834 -0.0679
42.3200 14.0900 -0.0679
42.3400 14.0966 -0.0572
42.3600 14.1033 -0.0728
42.3800 14.1100 -0.0703
42.4000 14.1167 -0.0605
42.4200 14.1234 -0.0740
42.4400 14.1301 -0.0683
42.4600 14.1368 -0.0598
42.4800 14.1434 -0.0783
42.5000 14.1500 -0.0643
42.5200 14.1566 -0.0626
42.5400 14.1633 -0.0769
42.5600 14.1700 -0.0668
42.5800 14.1767 -0.0667
42.6000 14.1834 -0.0709
42.6200 14.1900 -0.0666
42.6400 14.1967 -0.0648
42.6600 14.2034 -0.0757
42.6800 14.2100 -0.0656
42.7000 14.2166 -0.0666
42.7200 14.2232 -0.0755
42.7400 14.2299 -0.0667
42.7600 14.2367 -0.0675
42.7800 14.2434 -0.0755
42.8000 14.2500 -0.0662
42.8200 14.2567 -0.0700
42.8400 14.2634 -0.0755
42.8600 14.2699 -0.0677
42.8800 14.2765 -0.0670
42.9000 14.2832 -0.0760
42.9200 14.2899 -0.0675
42.9400 14.2967 -0.0671
42.9600 14.3034 -0.0778
42.9800 14.3100 -0.0673
43.0000 14.3167 -0.0678
43.0200 14.3233 -0.0772
43.0400 14.3300 -0.0672
43.0600 14.3366 -0.0675
43.0800 14.3433 -0.0793
43.1000 14.3500 -0.0682
43.1200 14.3567 -0.0729
43.1400 14.3634 -0.0793
43.1600 14.3701 -0.0685
43.1800 14.3767 -0.0751
43.2000 14.3834 -0.0819
43.2200 14.3900 -0.0704
43.2400 14.3966 -0.0753
43.2600 14.4033 -0.0746
43.2800 14.4100 -0.0707
43.3000 14.4167 -0.0782
43.3200 14.4234 -0.0747
43.3400 14.4301 -0.0707
43.3600 14.4368 -0.0786
43.3800 14.4434 -0.0766
43.4000 14.4500 -0.0678
43.4200 14.4566 -0.0815
43.4400 14.4632 -0.0730
43.4600 14.4699 -0.0689
43.4800 14.4766 -0.0806
43.5000 14.4833 -0.0809
43.5200 14.4900 -0.0753
43.5400 14.4967 -0.0769
43.5600 14.5033 -0.0799
43.5800 14.5099 -0.0774
43.6000 14.5166 -0.0787
43.6200 14.5232 -0.0778
43.6400 14.5299 -0.0740
43.6600 14.5366 -0.0850
43.6800 14.5433 -0.0805
43.7000 14.5499 -0.0730
43.7200 14.5567 -0.0866
43.7400 14.5634 -0.0786
43.7600 14.5700 -0.0731
43.7800 14.5766 -0.0850
43.8000 14.5833 -0.0793
43.8200 14.5900 -0.0731
43.8400 14.5967 -0.0857
43.8600 14.6034 -0.0798
43.8800 14.6100 -0.0811
43.9000 14.6167 -0.0854
43.9200 14.6234 -0.0826
43.9400 14.6300 -0.0811
43.9600 14.6366 -0.0855
43.9800 14.6433 -0.0796
44.0000 14.6500 -0.0813
44.0200 14.6567 -0.0841
44.0400 14.6634 -0.0813
44.0600 14.6701 -0.0852
44.0800 14.6767 -0.0801
44.1000 14.6834 -0.0870
44.1200 14.6900 -0.0852
44.1400 14.6966 -0.0804
44.1600 14.7033 -0.0862
44.1800 14.7100 -0.0821
44.2000 14.7167 -0.0860
44.2200 14.7233 -0.0896
44.2400 14.7300 -0.0789
44.2600 14.7367 -0.0820
44.2800 14.7434 -0.0920
44.3000 14.7500 -0.0858
44.3200 14.7566 -0.0831
44.3400 14.7632 -0.0885
44.3600 14.7699 -0.0813
44.3800 14.7766 -0.0850
44.4000 14.7833 -0.0892
44.4200 14.7900 -0.0845
44.4400 14.7966 -0.0912
44.4600 14.8033 -0.0882
44.4800 14.8099 -0.0829
44.5000 14.8165 -0.0910
44.5200 14.8232 -0.0889
44.5400 14.8299 -0.0863
44.5600 14.8367 -0.0908
44.5800 14.8434 -0.0875
44.6000 14.8501 -0.0900
44.6200 14.8568 -0.0884
44.6400 14.8634 -0.0853
44.6600 14.8701 -0.0903
44.6800 14.8767 -0.0927
44.7000 14.8833 -0.0769
44.7200 14.8900 -0.0919
44.7400 14.8967 -0.0940
44.7600 14.9034 -0.0775
44.7800 14.9101 -0.0975
44.8000 14.9168 -0.0955
44.8200 14.9234 -0.0817
44.8400 14.9300 -0.0968
44.8600 14.9366 -0.0915
44.8800 14.9432 -0.0793
44.9000 14.9499 -0.0999
44.9200 14.9566 -0.0894
44.9400 14.9633 -0.0802
44.9600 14.9700 -0.1036
44.9800 14.9767 -0.0903
45.0000 14.9834 -0.0840
45.0200 14.9900 -0.1043
45.0400 14.9966 -0.0826
45.0600 15.0032 -0.0865
45.0800 15.0099 -0.0984
45.1000 15.0167 -0.0879
45.1200 15.0233 -0.0906
45.1400 15.0300 -0.0939
45.1600 15.0367 -0.0904
45.1800 15.0434 -0.0908
45.2000 15.0500 -0.0943
45.2200 15.0567 -0.0908
45.2400 15.0633 -0.0938
45.2600 15.0700 -0.0911
45.2800 15.0767 -0.0927
45.3000 15.0833 -0.0922
45.3200 15.0900 -0.0910
45.3400 15.0967 -0.0964
45.3600 15.1034 -0.0926
45.3800 15.1101 -0.0936
45.4000 15.1167 -0.1018
45.4200 15.1233 -0.0876
45.4400 15.1300 -0.0943
45.4600 15.1367 -0.1011
45.4800 15.1434 -0.0906
45.5000 15.1501 -0.0930
45.5200 15.1567 -0.1029
45.5400 15.1634 -0.0900
45.5600 15.1700 -0.0950
45.5800 15.1766 -0.1009
45.6000 15.1832 -0.0881
45.6200 15.1900 -0.1003
45.6400 15.1967 -0.0984
45.6600 15.2034 -0.0915
45.6800 15.2100 -0.1007
45.7000 15.2167 -0.0987
45.7200 15.2234 -0.0897
45.7400 15.2300 -0.1022
45.7600 15.2366 -0.0976
45.7800 15.2433 -0.0904
45.8000 15.2499 -0.1018
45.8200 15.2566 -0.1012
45.8400 15.2633 -0.0880
45.8600 15.2700 -0.1050
45.8800 15.2767 -0.1001
45.9000 15.2834 -0.0901
45.9200 15.2900 -0.1075
45.9400 15.2966 -0.0984
45.9600 15.3032 -0.0888
45.9800 15.3099 -0.1063
46.0000 15.3167 -0.1026
46.0200 15.3234 -0.0921
46.0400 15.3301 -0.1070
46.0600 15.3367 -0.1020
46.0800 15.3434 -0.0951
46.1000 15.3500 -0.1035
46.1200 15.3566 -0.1018
46.1400 15.3633 -0.0927
46.1600 15.3700 -0.1039
46.1800 15.3767 -0.1078
46.2000 15.3834 -0.1009
46.2200 15.3901 -0.1027
46.2400 15.3967 -0.1071
46.2600 15.4034 -0.1003
46.2800 15.4100 -0.1073
46.3000 15.4166 -0.1057
46.3200 15.4232 -0.0970
46.3400 15.4299 -0.1065
46.3600 15.4366 -0.1115
46.3800 15.4433 -0.0958
46.4000 15.4500 -0.1080
46.4200 15.4567 -0.1110
46.4400 15.4634 -0.0986
46.4600 15.4700 -0.1154
46.4800 15.4766 -0.1090
46.5000 15.4832 -0.0979
46.5200 15.4899 -0.1135
46.5400 15.4966 -0.1069
46.5600 15.5033 -0.0997
46.5800 15.5100 -0.1190
46.6000 15.5166 -0.1061
46.6200 15.5233 -0.0994
46.6400 15.5300 -0.1178
46.6600 15.5366 -0.1061
46.6800 15.5433 -0.1051
46.7000 15.5499 -0.1143
46.7200 15.5566 -0.1104
46.7400 15.5633 -0.1099
46.7600 15.5700 -0.1117
46.7800 15.5767 -0.1085
46.8000 15.5834 -0.1120
46.8200 15.5901 -0.1107
46.8400 15.5967 -0.1096
46.8600 15.6033 -0.1119
46.8800 15.6099 -0.1086
46.9000 15.6166 -0.1096
46.9200 15.6234 -0.1141
46.9400 15.6300 -0.1074
46.9600 15.6367 -0.1115
46.9800 15.6434 -0.1131
47.0000 15.6500 -0.1117
47.0200 15.6566 -0.1106
47.0400 15.6633 -0.1157
47.0600 15.6699 -0.1113
47.0800 15.6766 -0.1134
47.1000 15.6834 -0.1146
47.1200 15.6900 -0.1111
47.1400 15.6967 -0.1177
47.1600 15.7034 -0.1163
47.1800 15.7100 -0.1097
47.2000 15.7166 -0.1156
47.2200 15.7233 -0.1172
47.2400 15.7299 -0.1105
47.2600 15.7366 -0.1186
47.2800 15.7433 -0.1194
47.3000 15.7500 -0.1104
47.3200 15.7566 -0.1155
47.3400 15.7634 -0.1175
47.3600 15.7700 -0.1146
47.3800 15.7767 -0.1243
47.4000 15.7833 -0.1090
47.4200 15.7899 -0.1130
47.4400 15.7966 -0.1261
47.4600 15.8033 -0.1118
47.4800 15.8100 -0.1163
47.5000 15.8167 -0.1236
47.5200 15.8234 -0.1116
47.5400 15.8301 -0.1260
47.5600 15.8366 -0.1190
47.5800 15.8432 -0.1108
47.6000 15.8499 -0.1289
47.6200 15.8566 -0.1131
47.6400 15.8634 -0.1182
47.6600 15.8701 -0.1275
47.6800 15.8767 -0.1150
47.7000 15.8834 -0.1163
47.7200 15.8900 -0.1307
47.7400 15.8966 -0.1138
47.7600 15.9033 -0.1205
47.7800 15.9099 -0.1249
47.8000 15.9167 -0.1122
47.8200 15.9234 -0.1276
47.8400 15.9300 -0.1243
47.8600 15.9367 -0.1113
47.8800 15.9434 -0.1294
47.9000 15.9500 -0.1305
47.9200 15.9566 -0.1158
47.9400 15.9632 -0.1314
47.9600 15.9699 -0.1209
47.9800 15.9766 -0.1141
48.0000 15.9833 -0.1323
48.0200 15.9900 -0.1188
48.0400 15.9967 -0.1142
48.0600 16.0034 -0.1363
48.0800 16.0100 -0.1164
48.1000 16.0167 -0.1178
48.1200 16.0233 -0.1389
48.1400 16.0299 -0.1205
48.1600 16.0367 -0.1191
48.1800 16.0434 -0.1360
48.2000 16.0501 -0.1183
48.2200 16.0567 -0.1235
48.2400 16.0634 -0.1350
48.2600 16.0701 -0.1158
48.2800 16.0767 -0.1247
48.3000 16.0832 -0.1338
48.3200 16.0899 -0.1144
48.3400 16.0966 -0.1257
48.3600 16.1033 -0.1350
48.3800 16.1100 -0.1159
48.4000 16.1167 -0.1295
48.4200 16.1234 -0.1338
48.4400 16.1301 -0.1202
48.4600 16.1367 -0.1310
48.4800 16.1432 -0.1285
48.5000 16.1499 -0.1200
48.5200 16.1566 -0.1299
48.5400 16.1633 -0.1287
48.5600 16.1700 -0.1237
48.5800 16.1767 -0.1268
48.6000 16.1834 -0.1298
48.6200 16.1901 -0.1281
48.6400 16.1967 -0.1275
48.6600 16.2032 -0.1251
48.6800 16.2099 -0.1238
48.7000 16.2166 -0.1260
48.7200 16.2233 -0.1315
48.7400 16.2300 -0.1302
48.7600 16.2367 -0.1250
48.7800 16.2433 -0.1323
48.8000 16.2500 -0.1260
48.8200 16.2567 -0.1263
48.8400 16.2633 -0.1329
48.8600 16.2699 -0.1262
48.8800 16.2766 -0.1285
48.9000 16.2833 -0.1345
48.9200 16.2900 -0.1229
48.9400 16.2967 -0.1276
48.9600 16.3034 -0.1359
48.9800 16.3101 -0.1258
49.0000 16.3167 -0.1287
49.0200 16.3233 -0.1325
49.0400 16.3299 -0.1235
49.0600 16.3366 -0.1303
49.0800 16.3433 -0.1323
49.1000 16.3501 -0.1253
49.1200 16.3567 -0.1341
49.1400 16.3634 -0.1339
49.1600 16.3700 -0.1262
49.1800 16.3766 -0.1318
49.2000 16.3832 -0.1346
49.2200 16.3899 -0.1273
49.2400 16.3966 -0.1290
49.2600 16.4033 -0.1359
49.2800 16.4100 -0.1290
49.3000 16.4166 -0.1247
49.3200 16.4233 -0.1402
49.3400 16.4300 -0.1322
49.3600 16.4366 -0.1316
49.3800 16.4432 -0.1318
49.4000 16.4499 -0.1286
49.4200 16.4566 -0.1291
49.4400 16.4633 -0.1337
49.4600 16.4700 -0.1291
49.4800 16.4767 -0.1298
49.5000 16.4834 -0.1419
49.5200 16.4901 -0.1288
49.5400 16.4967 -0.1334
49.5600 16.5033 -0.1412
49.5800 16.5099 -0.1283
49.6000 16.5166 -0.1297
49.6200 16.5233 -0.1433
49.6400 16.5300 -0.1319
49.6600 16.5367 -0.1334
49.6800 16.5434 -0.1443
49.7000 16.5501 -0.1329
49.7200 16.5567 -0.1321
49.7400 16.5633 -0.1448
49.7600 16.5699 -0.1337
49.7800 16.5766 -0.1339
49.8000 16.5834 -0.1461
49.8200 16.5900 -0.1337
49.8400 16.5967 -0.1367
49.8600 16.6034 -0.1478
49.8800 16.6101 -0.1360
49.9000 16.6167 -0.1402
49.9200 16.6233 -0.1502
49.9400 16.6300 -0.1331
49.9600 16.6366 -0.1377
49.9800 16.6433 -0.1511
50.0000 16.6500 -0.1362
50.0200 16.6567 -0.1359
50.0400 16.6634 -0.1478
50.0600 16.6701 -0.1337
50.0800 16.6767 -0.1469
50.1000 16.6833 -0.1441
50.1200 16.6899 -0.1342
50.1400 16.6966 -0.1451
50.1600 16.7033 -0.1475
50.1800 16.7100 -0.1379
50.2000 16.7167 -0.1415
50.2200 16.7234 -0.1480
50.2400 16.7300 -0.1378
50.2600 16.7367 -0.1428
50.2800 16.7433 -0.1480
50.3000 16.7499 -0.1372
50.3200 16.7566 -0.1422
50.3400 16.7633 -0.1490
50.3600 16.7700 -0.1405
50.3800 16.7767 -0.1434
50.4000 16.7834 -0.1494
50.4200 16.7901 -0.1435
50.4400 16.7967 -0.1450
50.4600 16.8033 -0.1541
50.4800 16.8100 -0.1425
50.5000 16.8166 -0.1442
50.5200 16.8233 -0.1519
50.5400 16.8300 -0.1480
50.5600 16.8367 -0.1393
50.5800 16.8434 -0.1511
50.6000 16.8501 -0.1490
50.6200 16.8567 -0.1429
50.6400 16.8633 -0.1522
50.6600 16.8699 -0.1403
50.6800 16.8766 -0.1470
50.7000 16.8833 -0.1548
50.7200 16.8900 -0.1464
50.7400 16.8967 -0.1458
50.7600 16.9034 -0.1565
50.7800 16.9101 -0.1452
50.8000 16.9167 -0.1460
50.8200 16.9233 -0.1579
50.8400 16.9299 -0.1483
50.8600 16.9366 -0.1428
50.8800 16.9433 -0.1587
50.9000 16.9500 -0.1405
50.9200 16.9566 -0.1470
50.9400 16.9633 -0.1604
50.9600 16.9700 -0.1417
50.9800 16.9766 -0.1525
51.0000 16.9833 -0.1604
51.0200 16.9899 -0.1443
51.0400 16.9966 -0.1539
51.0600 17.0033 -0.1590
51.0800 17.0100 -0.1451
51.1000 17.0167 -0.1563
51.1200 17.0234 -0.1532
51.1400 17.0301 -0.1528
51.1600 17.0367 -0.1575
51.1800 17.0433 -0.1512
51.2000 17.0499 -0.1466
51.2200 17.0566 -0.1591
51.2400 17.0633 -0.1565
51.2600 17.0700 -0.1538
51.2800 17.0767 -0.1586
51.3000 17.0834 -0.1564
51.3200 17.0900 -0.1533
51.3400 17.0967 -0.1575
51.3600 17.1033 -0.1534
51.3800 17.1099 -0.1557
51.4000 17.1166 -0.1603
51.4200 17.1233 -0.1553
51.4400 17.1300 -0.1604
51.4600 17.1367 -0.1591
51.4800 17.1433 -0.1569
51.5000 17.1500 -0.1603
51.5200 17.1567 -0.1565
51.5400 17.1633 -0.1604
51.5600 17.1699 -0.1592
51.5800 17.1766 -0.1552
51.6000 17.1833 -0.1607
51.6200 17.1900 -0.1610
51.6400 17.1967 -0.1580
51.6600 17.2034 -0.1615
51.6800 17.2101 -0.1652
51.7000 17.2167 -0.1612
51.7200 17.2233 -0.1623
51.7400 17.2299 -0.1608
51.7600 17.2366 -0.1618
51.7800 17.2433 -0.1660
51.8000 17.2500 -0.1606
51.8200 17.2567 -0.1635
51.8400 17.2634 -0.1643
51.8600 17.2701 -0.1627
51.8800 17.2767 -0.1656
51.9000 17.2833 -0.1648
51.9200 17.2900 -0.1580
51.9400 17.2966 -0.1699
51.9600 17.3033 -0.1641
51.9800 17.3100 -0.1612
52.0000 17.3167 -0.1723
52.0200 17.3233 -0.1611
52.0400 17.3300 -0.1646
52.0600 17.3367 -0.1692
52.0800 17.3433 -0.1586
52.1000 17.3499 -0.1644
52.1200 17.3566 -0.1683
52.1400 17.3633 -0.1567
52.1600 17.3700 -0.1679
52.1800 17.3767 -0.1670
52.2000 17.3834 -0.1579
52.2200 17.3901 -0.1719
52.2400 17.3967 -0.1665
52.2600 17.4033 -0.1602
52.2800 17.4099 -0.1710
52.3000 17.4166 -0.1625
52.3200 17.4233 -0.1635
52.3400 17.4300 -0.1748
52.3600 17.4366 -0.1675
52.3800 17.4433 -0.1640
52.4000 17.4500 -0.1775
52.4200 17.4567 -0.1667
52.4400 17.4633 -0.1624
52.4600 17.4699 -0.1723
52.4800 17.4766 -0.1670
52.5000 17.4833 -0.1677
52.5200 17.4900 -0.1734
52.5400 17.4967 -0.1674
52.5600 17.5034 -0.1684
52.5800 17.5101 -0.1685
52.6000 17.5167 -0.1726
52.6200 17.5233 -0.1757
52.6400 17.5299 -0.1649
52.6600 17.5366 -0.1728
52.6800 17.5433 -0.1720
52.7000 17.5500 -0.1679
52.7200 17.5567 -0.1721
52.7400 17.5634 -0.1736
52.7600 17.5701 -0.1670
52.7800 17.5767 -0.1758
52.8000 17.5833 -0.1723
52.8200 17.5899 -0.1662
52.8400 17.5966 -0.1793
52.8600 17.6033 -0.1714
52.8800 17.6100 -0.1696
52.9000 17.6167 -0.1826
52.9200 17.6234 -0.1702
52.9400 17.6300 -0.1696
52.9600 17.6367 -0.1813
52.9800 17.6433 -0.1690
53.0000 17.6499 -0.1736
53.0200 17.6566 -0.1807
53.0400 17.6633 -0.1684
53.0600 17.6700 -0.1767
53.0800 17.6767 -0.1835
53.1000 17.6833 -0.1668
53.1200 17.6900 -0.1813
53.1400 17.6967 -0.1820
53.1600 17.7033 -0.1713
53.1800 17.7099 -0.1782
53.2000 17.7166 -0.1852
53.2200 17.7233 -0.1720
53.2400 17.7300 -0.1836
53.2600 17.7367 -0.1812
53.2800 17.7434 -0.1715
53.3000 17.7501 -0.1868
53.3200 17.7567 -0.1809
53.3400 17.7633 -0.1741
53.3600 17.7699 -0.1886
53.3800 17.7766 -0.1794
53.4000 17.7833 -0.1745
53.4200 17.7901 -0.1891
53.4400 17.7968 -0.1837
53.4600 17.8034 -0.1749
53.4800 17.8101 -0.1856
53.5000 17.8167 -0.1811
53.5200 17.8233 -0.1772
53.5400 17.8299 -0.1877
53.5600 17.8366 -0.1817
53.5800 17.8433 -0.1828
53.6000 17.8500 -0.1854
53.6200 17.8566 -0.1838
53.6400 17.8633 -0.1820
53.6600 17.8700 -0.1821
53.6800 17.8767 -0.1899
53.7000 17.8833 -0.1865
53.7200 17.8899 -0.1784
53.7400 17.8966 -0.1866
53.7600 17.9032 -0.1840
53.7800 17.9100 -0.1790
53.8000 17.9167 -0.1904
53.8200 17.9233 -0.1848
53.8400 17.9300 -0.1810
53.8600 17.9367 -0.1890
53.8800 17.9433 -0.1863
53.9000 17.9499 -0.1799
53.9200 17.9566 -0.1900
53.9400 17.9633 -0.1843
53.9600 17.9700 -0.1867
53.9800 17.9767 -0.1902
54.0000 17.9834 -0.1861
54.0200 17.9901 -0.1889
54.0400 17.9967 -0.1917
54.0600 18.0034 -0.1861
54.0800 18.0100 -0.1866
54.1000 18.0166 -0.1932
54.1200 18.0233 -0.1811
54.1400 18.0300 -0.1883
54.1600 18.0367 -0.1971
54.1800 18.0434 -0.1840
54.2000 18.0501 -0.1921
54.2200 18.0568 -0.1972
54.2400 18.0634 -0.1834
54.2600 18.0700 -0.1883
54.2800 18.0766 -0.1935
54.3000 18.0833 -0.1865
54.3200 18.0900 -0.1916
54.3400 18.0967 -0.1974
54.3600 18.1034 -0.1780
54.3800 18.1101 -0.1971
54.4000 18.1167 -0.1952
54.4200 18.1233 -0.1860
54.4400 18.1299 -0.1959
54.4600 18.1365 -0.1912
54.4800 18.1432 -0.1889
54.5000 18.1500 -0.1956
54.5200 18.1566 -0.1916
54.5400 18.1633 -0.1871
54.5600 18.1700 -0.1972
54.5800 18.1767 -0.1939
54.6000 18.1833 -0.1869
54.6200 18.1899 -0.1979
54.6400 18.1966 -0.1944
54.6600 18.2033 -0.1863
54.6800 18.2100 -0.1981
54.7000 18.2167 -0.1927
54.7200 18.2234 -0.1974
54.7400 18.2301 -0.1962
54.7600 18.2368 -0.1909
54.7800 18.2434 -0.1963
54.8000 18.2500 -0.1953
54.8200 18.2566 -0.1929
54.8400 18.2633 -0.1983
54.8600 18.2700 -0.1960
54.8800 18.2767 -0.1956
54.9000 18.2834 -0.2036
54.9200 18.2901 -0.1918
54.9400 18.2967 -0.1996
54.9600 18.3034 -0.2031
54.9800 18.3100 -0.1903
55.0000 18.3166 -0.1981
55.0200 18.3233 -0.2001
55.0400 18.3300 -0.1953
55.0600 18.3367 -0.2034
55.0800 18.3433 -0.1938
55.1000 18.3500 -0.1976
55.1200 18.3567 -0.2048
55.1400 18.3633 -0.1995
55.1600 18.3699 -0.2025
55.1800 18.3765 -0.2053
55.2000 18.3832 -0.1954
55.2200 18.3899 -0.2017
55.2400 18.3966 -0.2057
55.2600 18.4033 -0.1978
55.2800 18.4100 -0.2043
55.3000 18.4167 -0.2025
55.3200 18.4233 -0.2016
55.3400 18.4299 -0.2055
55.3600 18.4366 -0.2008
55.3800 18.4433 -0.2002
55.4000 18.4500 -0.2091
55.4200 18.4567 -0.2021
55.4400 18.4634 -0.2009
55.4600 18.4701 -0.2112
55.4800 18.4767 -0.2022
55.5000 18.4834 -0.2062
55.5200 18.4900 -0.2127
55.5400 18.4967 -0.1954
55.5600 18.5033 -0.2151
55.5800 18.5100 -0.2109
55.6000 18.5167 -0.2015
55.6200 18.5233 -0.2143
55.6400 18.5300 -0.2093
55.6600 18.5367 -0.2078
55.6800 18.5434 -0.2177
55.7000 18.5500 -0.2094
55.7200 18.5566 -0.2037
55.7400 18.5633 -0.2190
55.7600 18.5700 -0.2065
55.7800 18.5767 -0.2060
55.8000 18.5833 -0.2213
55.8200 18.5900 -0.2072
55.8400 18.5967 -0.2096
55.8600 18.6033 -0.2231
55.8800 18.6099 -0.2047
55.9000 18.6166 -0.2108
55.9200 18.6232 -0.2205
55.9400 18.6299 -0.2095
55.9600 18.6367 -0.2166
55.9800 18.6433 -0.2207
56.0000 18.6500 -0.2078
56.0200 18.6567 -0.2201
56.0400 18.6634 -0.2204
56.0600 18.6700 -0.2110
56.0800 18.6766 -0.2202
56.1000 18.6833 -0.2191
56.1200 18.6900 -0.2065
56.1400 18.6967 -0.2281
56.1600 18.7034 -0.2217
56.1800 18.7101 -0.2057
56.2000 18.7168 -0.2281
56.2200 18.7234 -0.2210
56.2400 18.7300 -0.2118
56.2600 18.7366 -0.2205
56.2800 18.7433 -0.2204
56.3000 18.7500 -0.2135
56.3200 18.7567 -0.2215
56.3400 18.7634 -0.2246
56.3600 18.7701 -0.2209
56.3800 18.7767 -0.2219
56.4000 18.7834 -0.2223
56.4200 18.7900 -0.2192
56.4400 18.7966 -0.2216
56.4600 18.8033 -0.2257
56.4800 18.8100 -0.2181
56.5000 18.8167 -0.2203
56.5200 18.8233 -0.2259
56.5400 18.8300 -0.2162
56.5600 18.8367 -0.2203
56.5800 18.8433 -0.2316
56.6000 18.8499 -0.2158
56.6200 18.8565 -0.2253
56.6400 18.8632 -0.2243
56.6600 18.8699 -0.2166
56.6800 18.8766 -0.2267
56.7000 18.8833 -0.2288
56.7200 18.8900 -0.2170
56.7400 18.8967 -0.2259
56.7600 18.9033 -0.2314
56.7800 18.9100 -0.2172
56.8000 18.9166 -0.2264
56.8200 18.9232 -0.2305
56.8400 18.9300 -0.2175
56.8600 18.9367 -0.2290
56.8800 18.9434 -0.2274
56.9000 18.9501 -0.2203
56.9200 18.9567 -0.2302
56.9400 18.9634 -0.2298
56.9600 18.9700 -0.2222
56.9800 18.9766 -0.2234
57.0000 18.9833 -0.2316
57.0200 18.9900 -0.2269
57.0400 18.9967 -0.2282
57.0600 19.0034 -0.2290
57.0800 19.0100 -0.2262
57.1000 19.0167 -0.2320
57.1200 19.0234 -0.2306
57.1400 19.0300 -0.2243
57.1600 19.0366 -0.2272
57.1800 19.0432 -0.2322
57.2000 19.0499 -0.2251
57.2200 19.0566 -0.2287
57.2400 19.0633 -0.2319
57.2600 19.0700 -0.2273
57.2800 19.0767 -0.2250
57.3000 19.0834 -0.2330
57.3200 19.0900 -0.2336
57.3400 19.0966 -0.2308
57.3600 19.1032 -0.2267
57.3800 19.1099 -0.2316
57.4000 19.1167 -0.2279
57.4200 19.1233 -0.2335
57.4400 19.1300 -0.2323
57.4600 19.1367 -0.2250
57.4800 19.1433 -0.2376
57.5000 19.1500 -0.2327
57.5200 19.1566 -0.2280
57.5400 19.1633 -0.2395
57.5600 19.1700 -0.2299
57.5800 19.1767 -0.2272
57.6000 19.1834 -0.2402
57.6200 19.1900 -0.2332
57.6400 19.1967 -0.2303
57.6600 19.2034 -0.2409
57.6800 19.2100 -0.2321
57.7000 19.2166 -0.2299
57.7200 19.2233 -0.2376
57.7400 19.2300 -0.2314
57.7600 19.2367 -0.2352
57.7800 19.2434 -0.2397
57.8000 19.2501 -0.2341
57.8200 19.2568 -0.2345
57.8400 19.2634 -0.2420
57.8600 19.2700 -0.2382
57.8800 19.2766 -0.2344
57.9000 19.2832 -0.2386
57.9200 19.2899 -0.2362
57.9400 19.2966 -0.2351
57.9600 19.3033 -0.2456
57.9800 19.3100 -0.2394
58.0000 19.3167 -0.2382
58.0200 19.3233 -0.2430
58.0400 19.3300 -0.2393
58.0600 19.3366 -0.2356
58.0800 19.3432 -0.2402
58.1000 19.3499 -0.2422
58.1200 19.3566 -0.2410
58.1400 19.3633 -0.2451
58.1600 19.3700 -0.2393
58.1800 19.3767 -0.2376
58.2000 19.3834 -0.2491
58.2200 19.3900 -0.2477
58.2400 19.3966 -0.2355
58.2600 19.4033 -0.2461
58.2800 19.4100 -0.2445
58.3000 19.4167 -0.2374
58.3200 19.4234 -0.2482
58.3400 19.4300 -0.2474
58.3600 19.4368 -0.2377
58.3800 19.4434 -0.2457
58.4000 19.4500 -0.2501
58.4200 19.4566 -0.2396
58.4400 19.4632 -0.2456
58.4600 19.4699 -0.2480
58.4800 19.4766 -0.2397
58.5000 19.4833 -0.2502
58.5200 19.4900 -0.2504
58.5400 19.4967 -0.2366
58.5600 19.5034 -0.2537
58.5800 19.5100 -0.2505
58.6000 19.5166 -0.2414
58.6200 19.5233 -0.2470
58.6400 19.5300 -0.2506
58.6600 19.5367 -0.2462
58.6800 19.5434 -0.2469
58.7000 19.5500 -0.2482
58.7200 19.5567 -0.2448
58.7400 19.5634 -0.2507
58.7600 19.5700 -0.2517
58.7800 19.5766 -0.2415
58.8000 19.5832 -0.2494
58.8200 19.5899 -0.2519
58.8400 19.5966 -0.2446
58.8600 19.6033 -0.2542
58.8800 19.6100 -0.2520
58.9000 19.6167 -0.2471
58.9200 19.6233 -0.2487
58.9400 19.6300 -0.2588
58.9600 19.6366 -0.2489
58.9800 19.6432 -0.2479
59.0000 19.6499 -0.2582
59.0200 19.6567 -0.2504
59.0400 19.6634 -0.2541
59.0600 19.6700 -0.2615
59.0800 19.6767 -0.2510
59.1000 19.6834 -0.2562
59.1200 19.6900 -0.2608
59.1400 19.6967 -0.2546
59.1600 19.7033 -0.2606
59.1800 19.7100 -0.2599
59.2000 19.7167 -0.2537
59.2200 19.7234 -0.2610
59.2400 19.7300 -0.2630
59.2600 19.7367 -0.2549
59.2800 19.7434 -0.2649
59.3000 19.7500 -0.2751
59.3010 19.7503 -0.2764
