Raw Data
Time Displacement Force
(s) (mm) (N)
0.0000 0.0000 -0.0822
0.0200 0.0000 -0.0852
0.0400 0.0008 -0.0371
0.0600 0.0039 0.0230
0.0800 0.0094 0.0142
0.1000 0.0152 0.0461
0.1200 0.0210 0.1237
0.1400 0.0277 0.1318
0.1600 0.0350 0.1493
0.1800 0.0425 0.1752
0.2000 0.0496 0.1531
0.2200 0.0565 0.1505
0.2400 0.0632 0.1718
0.2600 0.0699 0.1533
0.2800 0.0765 0.1606
0.3000 0.0832 0.1729
0.3200 0.0899 0.1514
0.3400 0.0967 0.1615
0.3600 0.1033 0.1723
0.3800 0.1100 0.1546
0.4000 0.1166 0.1612
0.4200 0.1233 0.1762
0.4400 0.1300 0.1605
0.4600 0.1367 0.1617
0.4800 0.1434 0.1787
0.5000 0.1501 0.1600
0.5200 0.1568 0.1653
0.5400 0.1634 0.1739
0.5600 0.1700 0.1683
0.5800 0.1766 0.1748
0.6000 0.1833 0.1786
0.6200 0.1900 0.1710
0.6400 0.1967 0.1740
0.6600 0.2034 0.1847
0.6800 0.2101 0.1752
0.7000 0.2167 0.1790
0.7200 0.2233 0.1836
0.7400 0.2300 0.1797
0.7600 0.2366 0.1817
0.7800 0.2433 0.1880
0.8000 0.2500 0.1827
0.8200 0.2567 0.1878
0.8400 0.2633 0.1889
0.8600 0.2700 0.1867
0.8800 0.2767 0.1881
0.9000 0.2833 0.1930
0.9200 0.2899 0.1910
0.9400 0.2965 0.1916
0.9600 0.3032 0.1937
0.9800 0.3099 0.1935
1.0000 0.3166 0.1920
1.0200 0.3233 0.1968
1.0400 0.3300 0.1954
1.0600 0.3367 0.1945
1.0800 0.3433 0.1922
1.1000 0.3499 0.1940
1.1200 0.3566 0.1939
1.1400 0.3633 0.1973
1.1600 0.3700 0.1917
1.1800 0.3767 0.1845
1.2000 0.3834 0.1957
1.2200 0.3901 0.1827
1.2400 0.3967 0.1838
1.2600 0.4034 0.1897
1.2800 0.4100 0.1864
1.3000 0.4166 0.1864
1.3200 0.4233 0.1863
1.3400 0.4300 0.1809
1.3600 0.4367 0.1829
1.3800 0.4434 0.1810
1.4000 0.4501 0.1767
1.4200 0.4567 0.1798
1.4400 0.4634 0.1788
1.4600 0.4700 0.1700
1.4800 0.4766 0.1771
1.5000 0.4832 0.1735
1.5200 0.4900 0.1694
1.5400 0.4967 0.1692
1.5600 0.5033 0.1691
1.5800 0.5100 0.1639
1.6000 0.5167 0.1611
1.6200 0.5233 0.1629
1.6400 0.5299 0.1642
1.6600 0.5366 0.1610
1.6800 0.5433 0.1596
1.7000 0.5500 0.1530
1.7200 0.5567 0.1499
1.7400 0.5634 0.1584
1.7600 0.5700 0.1562
1.7800 0.5767 0.1411
1.8000 0.5834 0.1534
1.8200 0.5900 0.1476
1.8400 0.5966 0.1394
1.8600 0.6033 0.1533
1.8800 0.6100 0.1410
1.9000 0.6167 0.1321
1.9200 0.6234 0.1479
1.9400 0.6301 0.1355
1.9600 0.6368 0.1312
1.9800 0.6434 0.1426
2.0000 0.6500 0.1246
2.0200 0.6566 0.1307
2.0400 0.6633 0.1382
2.0600 0.6700 0.1209
2.0800 0.6767 0.1250
2.1000 0.6834 0.1344
2.1200 0.6901 0.1182
2.1400 0.6967 0.1255
2.1600 0.7034 0.1230
2.1800 0.7100 0.1171
2.2000 0.7166 0.1227
2.2200 0.7233 0.1199
2.2400 0.7300 0.1132
2.2600 0.7367 0.1221
2.2800 0.7433 0.1149
2.3000 0.7500 0.1113
2.3200 0.7567 0.1170
2.3400 0.7634 0.1110
2.3600 0.7700 0.1063
2.3800 0.7766 0.1082
2.4000 0.7832 0.1066
2.4200 0.7899 0.1092
2.4400 0.7966 0.1026
2.4600 0.8033 0.1026
2.4800 0.8100 0.1089
2.5000 0.8167 0.1036
2.5200 0.8234 0.0988
2.5400 0.8300 0.1028
2.5600 0.8366 0.1009
2.5800 0.8433 0.1041
2.6000 0.8500 0.1003
2.6200 0.8567 0.0993
2.6400 0.8634 0.0985
2.6600 0.8701 0.0945
2.6800 0.8767 0.1002
2.7000 0.8834 0.0986
2.7200 0.8900 0.0959
2.7400 0.8966 0.0992
2.7600 0.9033 0.0980
2.7800 0.9100 0.0920
2.8000 0.9167 0.0975
2.8200 0.9234 0.0929
2.8400 0.9301 0.0903
2.8600 0.9367 0.0987
2.8800 0.9434 0.0885
2.9000 0.9500 0.0902
2.9200 0.9566 0.0992
2.9400 0.9633 0.0850
2.9600 0.9700 0.0908
2.9800 0.9767 0.0968
3.0000 0.9833 0.0855
3.0200 0.9900 0.0886
3.0400 0.9967 0.0932
3.0600 1.0034 0.0807
3.0800 1.0100 0.0909
3.1000 1.0165 0.0905
3.1200 1.0232 0.0810
3.1400 1.0299 0.0923
3.1600 1.0367 0.0825
3.1800 1.0433 0.0760
3.2000 1.0500 0.0872
3.2200 1.0567 0.0888
3.2400 1.0634 0.0750
3.2600 1.0700 0.0820
3.2800 1.0766 0.0866
3.3000 1.0833 0.0750
3.3200 1.0900 0.0791
3.3400 1.0967 0.0733
3.3600 1.1034 0.0739
3.3800 1.1101 0.0798
3.4000 1.1168 0.0711
3.4200 1.1234 0.0728
3.4400 1.1301 0.0734
3.4600 1.1366 0.0690
3.4800 1.1433 0.0686
3.5000 1.1500 0.0721
3.5200 1.1567 0.0637
3.5400 1.1634 0.0679
3.5600 1.1701 0.0652
3.5800 1.1767 0.0599
3.6000 1.1834 0.0652
3.6200 1.1900 0.0647
3.6400 1.1966 0.0579
3.6600 1.2032 0.0630
3.6800 1.2100 0.0580
3.7000 1.2167 0.0582
3.7200 1.2234 0.0557
3.7400 1.2300 0.0567
3.7600 1.2367 0.0561
3.7800 1.2434 0.0555
3.8000 1.2500 0.0508
3.8200 1.2566 0.0548
3.8400 1.2633 0.0547
3.8600 1.2700 0.0464
3.8800 1.2767 0.0512
3.9000 1.2833 0.0520
3.9200 1.2900 0.0460
3.9400 1.2967 0.0493
3.9600 1.3034 0.0442
3.9800 1.3100 0.0451
4.0000 1.3166 0.0485
4.0200 1.3233 0.0401
4.0400 1.3299 0.0450
4.0600 1.3367 0.0442
4.0800 1.3434 0.0407
4.1000 1.3500 0.0373
4.1200 1.3567 0.0419
4.1400 1.3634 0.0349
4.1600 1.3700 0.0396
4.1800 1.3766 0.0402
4.2000 1.3833 0.0298
4.2200 1.3900 0.0401
4.2400 1.3967 0.0375
4.2600 1.4034 0.0246
4.2800 1.4101 0.0358
4.3000 1.4167 0.0348
4.3200 1.4234 0.0226
4.3400 1.4300 0.0306
4.3600 1.4366 0.0305
4.3800 1.4433 0.0228
4.4000 1.4500 0.0351
4.4200 1.4567 0.0270
4.4400 1.4633 0.0207
4.4600 1.4700 0.0319
4.4800 1.4767 0.0208
4.5000 1.4834 0.0218
4.5200 1.4900 0.0266
4.5400 1.4966 0.0194
4.5600 1.5032 0.0199
4.5800 1.5099 0.0263
4.6000 1.5167 0.0200
4.6200 1.5234 0.0155
4.6400 1.5300 0.0214
4.6600 1.5367 0.0165
4.6800 1.5434 0.0164
4.7000 1.5500 0.0149
4.7200 1.5566 0.0145
4.7400 1.5633 0.0183
4.7600 1.5700 0.0090
4.7800 1.5767 0.0194
4.8000 1.5834 0.0094
4.8200 1.5901 0.0021
4.8400 1.5968 0.0212
4.8600 1.6034 0.0119
4.8800 1.6100 -0.0009
4.9000 1.6166 0.0170
4.9200 1.6233 0.0043
4.9400 1.6300 -0.0042
4.9600 1.6367 0.0147
4.9800 1.6434 0.0071
5.0000 1.6501 -0.0117
5.0200 1.6567 0.0143
5.0400 1.6634 0.0005
5.0600 1.6700 -0.0076
5.0800 1.6766 0.0103
5.1000 1.6832 0.0003
5.1200 1.6899 -0.0122
5.1400 1.6966 0.0047
5.1600 1.7033 0.0028
5.1800 1.7100 -0.0091
5.2000 1.7167 -0.0034
5.2200 1.7234 0.0086
5.2400 1.7300 -0.0073
5.2600 1.7366 -0.0186
5.2800 1.7432 0.0055
5.3000 1.7499 -0.0004
5.3200 1.7566 -0.0235
5.3400 1.7633 -0.0044
5.3600 1.7700 -0.0008
5.3800 1.7767 -0.0241
5.4000 1.7833 -0.0088
5.4200 1.7900 -0.0054
5.4400 1.7966 -0.0241
5.4600 1.8033 -0.0162
5.4800 1.8100 0.0069
5.5000 1.8167 -0.0398
5.5200 1.8234 -0.0209
5.5400 1.8301 0.0093
5.5600 1.8368 -0.0407
5.5800 1.8434 -0.0269
5.6000 1.8501 0.0040
5.6200 1.8567 -0.0373
5.6400 1.8633 -0.0182
5.6600 1.8699 -0.0082
5.6800 1.8767 -0.0376
5.7000 1.8834 -0.0233
5.7200 1.8901 -0.0182
5.7400 1.8967 -0.0402
5.7600 1.9034 -0.0177
5.7800 1.9100 -0.0228
5.8000 1.9166 -0.0390
5.8200 1.9232 -0.0217
5.8400 1.9299 -0.0308
5.8600 1.9366 -0.0346
5.8800 1.9433 -0.0206
5.9000 1.9500 -0.0334
5.9200 1.9567 -0.0362
5.9400 1.9633 -0.0258
5.9600 1.9700 -0.0415
5.9800 1.9766 -0.0326
6.0000 1.9832 -0.0273
6.0200 1.9899 -0.0450
6.0400 1.9966 -0.0389
6.0600 2.0033 -0.0322
6.0800 2.0100 -0.0519
6.1000 2.0167 -0.0346
6.1200 2.0234 -0.0374
6.1400 2.0300 -0.0499
6.1600 2.0366 -0.0345
6.1800 2.0433 -0.0411
6.2000 2.0500 -0.0488
6.2200 2.0567 -0.0387
6.2400 2.0634 -0.0455
6.2600 2.0701 -0.0477
6.2800 2.0767 -0.0456
6.3000 2.0834 -0.0477
6.3200 2.0900 -0.0501
6.3400 2.0966 -0.0470
6.3600 2.1033 -0.0496
6.3800 2.1099 -0.0487
6.4000 2.1167 -0.0543
6.4200 2.1234 -0.0512
6.4400 2.1301 -0.0531
6.4600 2.1367 -0.0578
6.4800 2.1434 -0.0497
6.5000 2.1501 -0.0566
6.5200 2.1567 -0.0627
6.5400 2.1633 -0.0521
6.5600 2.1699 -0.0573
6.5800 2.1766 -0.0627
6.6000 2.1834 -0.0521
6.6200 2.1900 -0.0597
6.6400 2.1967 -0.0694
6.6600 2.2034 -0.0553
6.6800 2.2101 -0.0610
6.7000 2.2166 -0.0693
6.7200 2.2232 -0.0516
6.7400 2.2299 -0.0634
6.7600 2.2366 -0.0695
6.7800 2.2433 -0.0557
6.8000 2.2500 -0.0701
6.8200 2.2567 -0.0693
6.8400 2.2634 -0.0597
6.8600 2.2700 -0.0754
6.8800 2.2766 -0.0674
6.9000 2.2833 -0.0598
6.9200 2.2899 -0.0741
6.9400 2.2967 -0.0679
6.9600 2.3034 -0.0629
6.9800 2.3100 -0.0799
7.0000 2.3167 -0.0660
7.0200 2.3234 -0.0718
7.0400 2.3301 -0.0780
7.0600 2.3367 -0.0671
7.0800 2.3433 -0.0761
7.1000 2.3499 -0.0776
7.1200 2.3566 -0.0680
7.1400 2.3633 -0.0794
7.1600 2.3700 -0.0779
7.1800 2.3767 -0.0701
7.2000 2.3834 -0.0862
7.2200 2.3901 -0.0751
7.2400 2.3967 -0.0744
7.2600 2.4033 -0.0894
7.2800 2.4099 -0.0769
7.3000 2.4166 -0.0799
7.3200 2.4234 -0.0857
7.3400 2.4300 -0.0723
7.3600 2.4367 -0.0835
7.3800 2.4434 -0.0866
7.4000 2.4500 -0.0763
7.4200 2.4566 -0.0902
7.4400 2.4633 -0.0832
7.4600 2.4699 -0.0775
7.4800 2.4766 -0.0962
7.5000 2.4833 -0.0761
7.5200 2.4900 -0.0830
7.5400 2.4966 -0.1018
7.5600 2.5034 -0.0769
7.5800 2.5100 -0.0831
7.6000 2.5167 -0.1066
7.6200 2.5233 -0.0741
7.6400 2.5299 -0.0833
7.6600 2.5366 -0.1049
7.6800 2.5434 -0.0774
7.7000 2.5500 -0.0893
7.7200 2.5567 -0.0969
7.7400 2.5634 -0.0848
7.7600 2.5701 -0.0983
7.7800 2.5767 -0.0964
7.8000 2.5833 -0.0886
7.8200 2.5900 -0.1002
7.8400 2.5967 -0.0890
7.8600 2.6034 -0.0940
7.8800 2.6101 -0.1055
7.9000 2.6167 -0.0929
7.9200 2.6234 -0.0991
7.9400 2.6300 -0.1090
7.9600 2.6367 -0.0921
7.9800 2.6433 -0.1015
8.0000 2.6500 -0.1036
8.0200 2.6567 -0.0975
8.0400 2.6634 -0.1035
8.0600 2.6700 -0.1052
8.0800 2.6767 -0.1017
8.1000 2.6834 -0.1117
8.1200 2.6900 -0.1093
8.1400 2.6967 -0.1044
8.1600 2.7032 -0.1137
8.1800 2.7099 -0.1113
8.2000 2.7166 -0.1096
8.2200 2.7233 -0.1144
8.2400 2.7300 -0.1077
8.2600 2.7367 -0.1137
8.2800 2.7434 -0.1176
8.3000 2.7501 -0.1159
8.3200 2.7567 -0.1177
8.3400 2.7633 -0.1166
8.3600 2.7699 -0.1171
8.3800 2.7766 -0.1222
8.4000 2.7833 -0.1207
8.4200 2.7900 -0.1218
8.4400 2.7967 -0.1210
8.4600 2.8034 -0.1239
8.4800 2.8101 -0.1248
8.5000 2.8167 -0.1215
8.5200 2.8233 -0.1270
8.5400 2.8299 -0.1247
8.5600 2.8366 -0.1244
8.5800 2.8434 -0.1302
8.6000 2.8501 -0.1281
8.6200 2.8567 -0.1253
8.6400 2.8634 -0.1325
8.6600 2.8701 -0.1255
8.6800 2.8767 -0.1285
8.7000 2.8833 -0.1332
8.7200 2.8899 -0.1294
8.7400 2.8966 -0.1290
8.7600 2.9033 -0.1335
8.7800 2.9100 -0.1288
8.8000 2.9167 -0.1384
8.8200 2.9234 -0.1272
8.8400 2.9300 -0.1354
8.8600 2.9367 -0.1440
8.8800 2.9432 -0.1279
8.9000 2.9499 -0.1392
8.9200 2.9566 -0.1428
8.9400 2.9633 -0.1275
8.9600 2.9700 -0.1421
8.9800 2.9766 -0.1444
9.0000 2.9833 -0.1328
9.0200 2.9900 -0.1435
9.0400 2.9967 -0.1433
9.0600 3.0033 -0.1322
9.0800 3.0099 -0.1478
9.1000 3.0166 -0.1443
9.1200 3.0234 -0.1335
9.1400 3.0301 -0.1495
9.1600 3.0367 -0.1461
9.1800 3.0434 -0.1394
9.2000 3.0501 -0.1485
9.2200 3.0567 -0.1477
9.2400 3.0633 -0.1404
9.2600 3.0699 -0.1469
9.2800 3.0766 -0.1444
9.3000 3.0834 -0.1464
9.3200 3.0901 -0.1516
9.3400 3.0968 -0.1492
9.3600 3.1034 -0.1405
9.3800 3.1101 -0.1567
9.4000 3.1167 -0.1519
9.4200 3.1233 -0.1452
9.4400 3.1299 -0.1481
9.4600 3.1366 -0.1551
9.4800 3.1433 -0.1484
9.5000 3.1500 -0.1512
9.5200 3.1567 -0.1556
9.5400 3.1634 -0.1556
9.5600 3.1701 -0.1483
9.5800 3.1767 -0.1562
9.6000 3.1833 -0.1533
9.6200 3.1899 -0.1521
9.6400 3.1966 -0.1581
9.6600 3.2033 -0.1501
9.6800 3.2100 -0.1565
9.7000 3.2167 -0.1608
9.7200 3.2234 -0.1524
9.7400 3.2300 -0.1569
9.7600 3.2367 -0.1650
9.7800 3.2433 -0.1584
9.8000 3.2499 -0.1602
9.8200 3.2566 -0.1625
9.8400 3.2633 -0.1570
9.8600 3.2701 -0.1616
9.8800 3.2767 -0.1686
9.9000 3.2834 -0.1574
9.9200 3.2901 -0.1686
9.9400 3.2967 -0.1655
9.9600 3.3033 -0.1550
9.9800 3.3099 -0.1655
10.0000 3.3166 -0.1752
10.0200 3.3234 -0.1601
10.0400 3.3301 -0.1693
10.0600 3.3367 -0.1711
10.0800 3.3434 -0.1594
10.1000 3.3501 -0.1721
10.1200 3.3567 -0.1719
10.1400 3.3633 -0.1666
10.1600 3.3699 -0.1717
10.1800 3.3766 -0.1702
10.2000 3.3833 -0.1716
10.2200 3.3900 -0.1716
10.2400 3.3967 -0.1775
10.2600 3.4033 -0.1725
10.2800 3.4100 -0.1723
10.3000 3.4167 -0.1781
10.3200 3.4233 -0.1771
10.3400 3.4299 -0.1769
10.3600 3.4366 -0.1751
10.3800 3.4433 -0.1788
10.4000 3.4500 -0.1768
10.4200 3.4567 -0.1824
10.4400 3.4633 -0.1769
10.4600 3.4700 -0.1807
10.4800 3.4767 -0.1866
10.5000 3.4833 -0.1797
10.5200 3.4900 -0.1793
10.5400 3.4966 -0.1862
10.5600 3.5034 -0.1822
10.5800 3.5100 -0.1815
10.6000 3.5167 -0.1895
10.6200 3.5234 -0.1845
10.6400 3.5301 -0.1832
10.6600 3.5367 -0.1940
10.6800 3.5433 -0.1843
10.7000 3.5499 -0.1858
10.7200 3.5566 -0.1934
10.7400 3.5633 -0.1835
10.7600 3.5700 -0.1877
10.7800 3.5767 -0.1931
10.8000 3.5834 -0.1833
10.8200 3.5901 -0.1944
10.8400 3.5967 -0.1942
10.8600 3.6033 -0.1853
10.8800 3.6099 -0.1939
10.9000 3.6166 -0.1947
10.9200 3.6233 -0.1877
10.9400 3.6300 -0.1992
10.9600 3.6367 -0.1977
10.9800 3.6434 -0.1886
11.0000 3.6501 -0.1992
11.0200 3.6567 -0.1936
11.0400 3.6633 -0.1937
11.0600 3.6699 -0.2001
11.0800 3.6766 -0.1945
11.1000 3.6833 -0.1942
11.1200 3.6900 -0.2028
11.1400 3.6966 -0.1944
11.1600 3.7033 -0.1982
11.1800 3.7100 -0.2033
11.2000 3.7166 -0.2004
11.2200 3.7233 -0.1989
11.2400 3.7299 -0.2027
11.2600 3.7366 -0.1975
11.2800 3.7433 -0.2045
11.3000 3.7500 -0.2026
11.3200 3.7568 -0.2002
11.3400 3.7635 -0.2087
11.3600 3.7702 -0.2050
11.3800 3.7768 -0.2033
11.4000 3.7834 -0.2087
11.4200 3.7900 -0.2019
11.4400 3.7966 -0.2050
11.4600 3.8033 -0.2089
11.4800 3.8101 -0.2102
11.5000 3.8168 -0.2037
11.5200 3.8234 -0.2125
11.5400 3.8301 -0.2098
11.5600 3.8367 -0.2062
11.5800 3.8433 -0.2129
11.6000 3.8499 -0.2089
11.6200 3.8566 -0.2117
11.6400 3.8633 -0.2061
11.6600 3.8700 -0.2133
11.6800 3.8766 -0.2147
11.7000 3.8833 -0.2158
11.7200 3.8900 -0.2142
11.7400 3.8967 -0.2120
11.7600 3.9033 -0.2199
11.7800 3.9099 -0.2173
11.8000 3.9165 -0.2158
11.8200 3.9232 -0.2207
11.8400 3.9300 -0.2173
11.8600 3.9367 -0.2134
11.8800 3.9434 -0.2175
11.9000 3.9500 -0.2242
11.9200 3.9567 -0.2143
11.9400 3.9633 -0.2205
11.9600 3.9699 -0.2218
11.9800 3.9766 -0.2202
12.0000 3.9833 -0.2233
12.0200 3.9900 -0.2220
12.0400 3.9967 -0.2194
12.0600 4.0034 -0.2232
12.0800 4.0101 -0.2277
12.1000 4.0168 -0.2199
12.1200 4.0234 -0.2291
12.1400 4.0300 -0.2285
12.1600 4.0367 -0.2153
12.1800 4.0433 -0.2310
12.2000 4.0500 -0.2300
12.2200 4.0567 -0.2192
12.2400 4.0634 -0.2316
12.2600 4.0701 -0.2321
12.2800 4.0768 -0.2229
12.3000 4.0834 -0.2319
12.3200 4.0899 -0.2305
12.3400 4.0966 -0.2206
12.3600 4.1033 -0.2340
12.3800 4.1100 -0.2362
12.4000 4.1167 -0.2230
12.4200 4.1234 -0.2344
12.4400 4.1300 -0.2348
12.4600 4.1367 -0.2267
12.4800 4.1433 -0.2433
12.5000 4.1499 -0.2310
12.5200 4.1566 -0.2263
12.5400 4.1633 -0.2455
12.5600 4.1700 -0.2350
12.5800 4.1767 -0.2262
12.6000 4.1833 -0.2503
12.6200 4.1900 -0.2366
12.6400 4.1967 -0.2313
12.6600 4.2034 -0.2499
12.6800 4.2100 -0.2400
12.7000 4.2166 -0.2330
12.7200 4.2233 -0.2502
12.7400 4.2300 -0.2397
12.7600 4.2367 -0.2345
12.7800 4.2434 -0.2491
12.8000 4.2501 -0.2419
12.8200 4.2568 -0.2395
12.8400 4.2634 -0.2494
12.8600 4.2700 -0.2418
12.8800 4.2766 -0.2434
12.9000 4.2833 -0.2456
12.9200 4.2901 -0.2446
12.9400 4.2967 -0.2469
12.9600 4.3034 -0.2492
12.9800 4.3101 -0.2493
13.0000 4.3167 -0.2441
13.0200 4.3233 -0.2492
13.0400 4.3299 -0.2476
13.0600 4.3366 -0.2453
13.0800 4.3433 -0.2518
13.1000 4.3500 -0.2521
13.1200 4.3567 -0.2479
13.1400 4.3634 -0.2506
13.1600 4.3700 -0.2511
13.1800 4.3767 -0.2495
13.2000 4.3833 -0.2533
13.2200 4.3899 -0.2524
13.2400 4.3966 -0.2417
13.2600 4.4032 -0.2531
13.2800 4.4100 -0.2541
13.3000 4.4167 -0.2491
13.3200 4.4234 -0.2534
13.3400 4.4301 -0.2602
13.3600 4.4367 -0.2493
13.3800 4.4434 -0.2594
13.4000 4.4499 -0.2575
13.4200 4.4566 -0.2527
13.4400 4.4633 -0.2552
13.4600 4.4700 -0.2593
13.4800 4.4767 -0.2544
13.5000 4.4834 -0.2554
13.5200 4.4901 -0.2590
13.5400 4.4967 -0.2561
13.5600 4.5034 -0.2563
13.5800 4.5099 -0.2627
13.6000 4.5166 -0.2587
13.6200 4.5233 -0.2569
13.6400 4.5300 -0.2612
13.6600 4.5367 -0.2593
13.6800 4.5434 -0.2587
13.7000 4.5501 -0.2646
13.7200 4.5567 -0.2620
13.7400 4.5633 -0.2597
13.7600 4.5699 -0.2643
13.7800 4.5766 -0.2555
13.8000 4.5833 -0.2640
13.8200 4.5900 -0.2689
13.8400 4.5967 -0.2607
13.8600 4.6034 -0.2647
13.8800 4.6100 -0.2674
13.9000 4.6167 -0.2649
13.9200 4.6234 -0.2693
13.9400 4.6300 -0.2650
13.9600 4.6366 -0.2660
13.9800 4.6433 -0.2708
14.0000 4.6500 -0.2701
14.0200 4.6567 -0.2634
14.0400 4.6634 -0.2736
14.0600 4.6701 -0.2711
14.0800 4.6767 -0.2655
14.1000 4.6833 -0.2747
14.1200 4.6899 -0.2742
14.1400 4.6966 -0.2655
14.1600 4.7033 -0.2745
14.1800 4.7100 -0.2693
14.2000 4.7167 -0.2734
14.2200 4.7234 -0.2771
14.2400 4.7301 -0.2695
14.2600 4.7368 -0.2763
14.2800 4.7434 -0.2808
14.3000 4.7500 -0.2708
14.3200 4.7566 -0.2768
14.3400 4.7633 -0.2806
14.3600 4.7700 -0.2736
14.3800 4.7767 -0.2830
14.4000 4.7833 -0.2766
14.4200 4.7900 -0.2768
14.4400 4.7968 -0.2829
14.4600 4.8034 -0.2784
14.4800 4.8100 -0.2797
14.5000 4.8166 -0.2828
14.5200 4.8233 -0.2830
14.5400 4.8300 -0.2778
14.5600 4.8367 -0.2815
14.5800 4.8433 -0.2839
14.6000 4.8500 -0.2825
14.6200 4.8567 -0.2888
14.6400 4.8633 -0.2841
14.6600 4.8699 -0.2856
14.6800 4.8766 -0.2866
14.7000 4.8833 -0.2863
14.7200 4.8900 -0.2828
14.7400 4.8967 -0.2870
14.7600 4.9033 -0.2862
14.7800 4.9100 -0.2840
14.8000 4.9167 -0.2922
14.8200 4.9234 -0.2907
14.8400 4.9300 -0.2876
14.8600 4.9366 -0.2908
14.8800 4.9433 -0.2864
14.9000 4.9500 -0.2913
14.9200 4.9567 -0.2934
14.9400 4.9634 -0.2903
14.9600 4.9701 -0.2933
14.9800 4.9768 -0.2946
15.0000 4.9834 -0.2927
15.0200 4.9900 -0.2926
15.0400 4.9966 -0.2989
15.0600 5.0033 -0.2889
15.0800 5.0100 -0.2986
15.1000 5.0167 -0.2983
15.1200 5.0234 -0.2901
15.1400 5.0301 -0.2951
15.1600 5.0367 -0.3007
15.1800 5.0434 -0.2981
15.2000 5.0499 -0.2994
15.2200 5.0565 -0.2963
15.2400 5.0632 -0.2972
15.2600 5.0700 -0.2962
15.2800 5.0767 -0.3038
15.3000 5.0834 -0.2984
15.3200 5.0901 -0.3080
15.3400 5.0968 -0.3025
15.3600 5.1034 -0.2994
15.3800 5.1100 -0.3052
15.4000 5.1166 -0.3057
15.4200 5.1232 -0.3005
15.4400 5.1299 -0.3027
15.4600 5.1366 -0.3079
15.4800 5.1433 -0.3037
15.5000 5.1500 -0.3069
15.5200 5.1567 -0.3088
15.5400 5.1633 -0.3050
15.5600 5.1699 -0.3107
15.5800 5.1766 -0.3076
15.6000 5.1833 -0.3046
15.6200 5.1900 -0.3111
15.6400 5.1967 -0.3137
15.6600 5.2034 -0.3085
15.6800 5.2101 -0.3088
15.7000 5.2168 -0.3080
15.7200 5.2234 -0.3129
15.7400 5.2300 -0.3105
15.7600 5.2367 -0.3103
15.7800 5.2433 -0.3131
15.8000 5.2500 -0.3160
15.8200 5.2567 -0.3139
15.8400 5.2634 -0.3049
15.8600 5.2701 -0.3149
15.8800 5.2768 -0.3179
15.9000 5.2834 -0.3113
15.9200 5.2900 -0.3121
15.9400 5.2966 -0.3170
15.9600 5.3032 -0.3139
15.9800 5.3099 -0.3181
16.0000 5.3166 -0.3157
16.0200 5.3233 -0.3162
16.0400 5.3300 -0.3176
16.0600 5.3367 -0.3146
16.0800 5.3433 -0.3188
16.1000 5.3500 -0.3211
16.1200 5.3566 -0.3210
16.1400 5.3633 -0.3199
16.1600 5.3700 -0.3145
16.1800 5.3767 -0.3245
16.2000 5.3834 -0.3224
16.2200 5.3900 -0.3136
16.2400 5.3967 -0.3273
16.2600 5.4034 -0.3235
16.2800 5.4100 -0.3148
16.3000 5.4166 -0.3263
16.3200 5.4233 -0.3232
16.3400 5.4300 -0.3155
16.3600 5.4367 -0.3312
16.3800 5.4434 -0.3225
16.4000 5.4501 -0.3176
16.4200 5.4568 -0.3310
16.4400 5.4634 -0.3236
16.4600 5.4700 -0.3153
16.4800 5.4766 -0.3326
16.5000 5.4832 -0.3243
16.5200 5.4900 -0.3171
16.5400 5.4967 -0.3316
16.5600 5.5034 -0.3295
16.5800 5.5101 -0.3187
16.6000 5.5167 -0.3374
16.6200 5.5234 -0.3268
16.6400 5.5300 -0.3181
16.6600 5.5366 -0.3364
16.6800 5.5433 -0.3229
16.7000 5.5500 -0.3202
16.7200 5.5567 -0.3363
16.7400 5.5633 -0.3272
16.7600 5.5700 -0.3225
16.7800 5.5767 -0.3316
16.8000 5.5833 -0.3310
16.8200 5.5899 -0.3266
16.8400 5.5965 -0.3331
16.8600 5.6032 -0.3293
16.8800 5.6099 -0.3270
16.9000 5.6167 -0.3357
16.9200 5.6234 -0.3297
16.9400 5.6301 -0.3292
16.9600 5.6368 -0.3376
16.9800 5.6434 -0.3327
17.0000 5.6500 -0.3270
17.0200 5.6566 -0.3340
17.0400 5.6633 -0.3363
17.0600 5.6700 -0.3331
17.0800 5.6767 -0.3328
17.1000 5.6834 -0.3375
17.1200 5.6901 -0.3301
17.1400 5.6968 -0.3387
17.1600 5.7034 -0.3395
17.1800 5.7100 -0.3295
17.2000 5.7166 -0.3424
17.2200 5.7233 -0.3438
17.2400 5.7300 -0.3280
17.2600 5.7367 -0.3485
17.2800 5.7434 -0.3420
17.3000 5.7501 -0.3271
17.3200 5.7568 -0.3472
17.3400 5.7634 -0.3434
17.3600 5.7700 -0.3302
17.3800 5.7766 -0.3483
17.4000 5.7832 -0.3415
17.4200 5.7899 -0.3322
17.4400 5.7967 -0.3499
17.4600 5.8034 -0.3481
17.4800 5.8101 -0.3352
17.5000 5.8167 -0.3502
17.5200 5.8234 -0.3460
17.5400 5.8300 -0.3356
17.5600 5.8366 -0.3497
17.5800 5.8432 -0.3473
17.6000 5.8499 -0.3420
17.6200 5.8566 -0.3510
17.6400 5.8633 -0.3480
17.6600 5.8700 -0.3447
17.6800 5.8767 -0.3506
17.7000 5.8834 -0.3422
17.7200 5.8900 -0.3515
17.7400 5.8966 -0.3485
17.7600 5.9033 -0.3508
17.7800 5.9100 -0.3517
17.8000 5.9167 -0.3504
17.8200 5.9234 -0.3488
17.8400 5.9301 -0.3542
17.8600 5.9368 -0.3532
17.8800 5.9434 -0.3512
17.9000 5.9501 -0.3538
17.9200 5.9567 -0.3540
17.9400 5.9633 -0.3564
17.9600 5.9700 -0.3533
17.9800 5.9767 -0.3485
18.0000 5.9834 -0.3626
18.0200 5.9901 -0.3537
18.0400 5.9968 -0.3503
18.0600 6.0034 -0.3643
18.0800 6.0100 -0.3539
18.1000 6.0166 -0.3484
18.1200 6.0232 -0.3683
18.1400 6.0299 -0.3513
18.1600 6.0367 -0.3534
18.1800 6.0434 -0.3712
18.2000 6.0500 -0.3474
18.2200 6.0567 -0.3590
18.2400 6.0634 -0.3727
18.2600 6.0700 -0.3514
18.2800 6.0766 -0.3602
18.3000 6.0833 -0.3690
18.3200 6.0899 -0.3557
18.3400 6.0967 -0.3637
18.3600 6.1033 -0.3679
18.3800 6.1100 -0.3634
18.4000 6.1167 -0.3692
18.4200 6.1233 -0.3676
18.4400 6.1300 -0.3593
18.4600 6.1366 -0.3685
18.4800 6.1433 -0.3617
18.5000 6.1500 -0.3650
18.5200 6.1567 -0.3681
18.5400 6.1634 -0.3649
18.5600 6.1701 -0.3698
18.5800 6.1768 -0.3673
18.6000 6.1834 -0.3675
18.6200 6.1900 -0.3723
18.6400 6.1966 -0.3659
18.6600 6.2033 -0.3689
18.6800 6.2100 -0.3716
18.7000 6.2167 -0.3656
18.7200 6.2234 -0.3722
18.7400 6.2301 -0.3741
18.7600 6.2368 -0.3647
18.7800 6.2434 -0.3793
18.8000 6.2500 -0.3723
18.8200 6.2566 -0.3665
18.8400 6.2633 -0.3769
18.8600 6.2700 -0.3708
18.8800 6.2767 -0.3652
18.9000 6.2833 -0.3776
18.9200 6.2900 -0.3755
18.9400 6.2967 -0.3663
18.9600 6.3034 -0.3822
18.9800 6.3100 -0.3776
19.0000 6.3166 -0.3706
19.0200 6.3232 -0.3780
19.0400 6.3299 -0.3761
19.0600 6.3366 -0.3724
19.0800 6.3433 -0.3766
19.1000 6.3500 -0.3804
19.1200 6.3567 -0.3741
19.1400 6.3634 -0.3779
19.1600 6.3700 -0.3854
19.1800 6.3766 -0.3690
19.2000 6.3833 -0.3769
19.2200 6.3900 -0.3812
19.2400 6.3967 -0.3748
19.2600 6.4034 -0.3795
19.2800 6.4101 -0.3868
19.3000 6.4168 -0.3738
19.3200 6.4234 -0.3799
19.3400 6.4301 -0.3929
19.3600 6.4366 -0.3725
19.3800 6.4433 -0.3781
19.4000 6.4500 -0.3918
19.4200 6.4567 -0.3712
19.4400 6.4634 -0.3856
19.4600 6.4701 -0.3905
19.4800 6.4767 -0.3718
19.5000 6.4834 -0.3886
19.5200 6.4901 -0.3919
19.5400 6.4966 -0.3729
19.5600 6.5033 -0.3892
19.5800 6.5099 -0.3917
19.6000 6.5166 -0.3728
19.6200 6.5233 -0.3908
19.6400 6.5300 -0.3877
19.6600 6.5367 -0.3783
19.6800 6.5434 -0.3943
19.7000 6.5500 -0.3907
19.7200 6.5566 -0.3787
19.7400 6.5632 -0.3915
19.7600 6.5699 -0.3886
19.7800 6.5766 -0.3870
19.8000 6.5833 -0.3934
19.8200 6.5900 -0.3904
19.8400 6.5967 -0.3874
19.8600 6.6033 -0.3906
19.8800 6.6100 -0.3923
19.9000 6.6166 -0.3938
19.9200 6.6233 -0.3849
19.9400 6.6299 -0.3959
19.9600 6.6367 -0.3916
19.9800 6.6434 -0.3858
20.0000 6.6500 -0.3975
20.0200 6.6567 -0.3913
20.0400 6.6634 -0.3901
20.0600 6.6701 -0.4040
20.0800 6.6767 -0.3874
20.1000 6.6833 -0.3894
20.1200 6.6900 -0.4018
20.1400 6.6967 -0.3876
20.1600 6.7034 -0.3940
20.1800 6.7101 -0.4066
20.2000 6.7168 -0.3893
20.2200 6.7234 -0.3975
20.2400 6.7300 -0.4087
20.2600 6.7366 -0.3873
20.2800 6.7432 -0.3991
20.3000 6.7499 -0.4054
20.3200 6.7566 -0.3889
20.3400 6.7633 -0.4019
20.3600 6.7700 -0.4116
20.3800 6.7767 -0.3902
20.4000 6.7834 -0.4030
20.4200 6.7900 -0.4012
20.4400 6.7966 -0.3954
20.4600 6.8033 -0.4080
20.4800 6.8099 -0.4004
20.5000 6.8166 -0.3998
20.5200 6.8233 -0.4095
20.5400 6.8300 -0.4042
20.5600 6.8367 -0.4029
20.5800 6.8434 -0.4073
20.6000 6.8501 -0.4078
20.6200 6.8567 -0.4030
20.6400 6.8633 -0.4106
20.6600 6.8699 -0.4061
20.6800 6.8767 -0.4065
20.7000 6.8834 -0.4058
20.7200 6.8901 -0.4056
20.7400 6.8968 -0.4108
20.7600 6.9034 -0.4054
20.7800 6.9101 -0.4118
20.8000 6.9167 -0.4069
20.8200 6.9233 -0.4074
20.8400 6.9299 -0.4133
20.8600 6.9367 -0.4141
20.8800 6.9434 -0.4080
20.9000 6.9501 -0.4120
20.9200 6.9567 -0.4147
20.9400 6.9634 -0.4098
20.9600 6.9701 -0.4198
20.9800 6.9767 -0.4132
21.0000 6.9833 -0.4095
21.0200 6.9900 -0.4217
21.0400 6.9966 -0.4121
21.0600 7.0033 -0.4165
21.0800 7.0100 -0.4238
21.1000 7.0167 -0.4113
21.1200 7.0234 -0.4108
21.1400 7.0301 -0.4270
21.1600 7.0366 -0.4155
21.1800 7.0432 -0.4175
21.2000 7.0499 -0.4216
21.2200 7.0566 -0.4125
21.2400 7.0633 -0.4210
21.2600 7.0700 -0.4262
21.2800 7.0767 -0.4084
21.3000 7.0833 -0.4246
21.3200 7.0900 -0.4263
21.3400 7.0966 -0.4137
21.3600 7.1033 -0.4231
21.3800 7.1099 -0.4269
21.4000 7.1166 -0.4207
21.4200 7.1233 -0.4239
21.4400 7.1300 -0.4241
21.4600 7.1367 -0.4194
21.4800 7.1434 -0.4257
21.5000 7.1501 -0.4278
21.5200 7.1567 -0.4241
21.5400 7.1633 -0.4239
21.5600 7.1699 -0.4317
21.5800 7.1766 -0.4219
21.6000 7.1833 -0.4253
21.6200 7.1900 -0.4351
21.6400 7.1967 -0.4251
21.6600 7.2034 -0.4279
21.6800 7.2101 -0.4385
21.7000 7.2167 -0.4253
21.7200 7.2233 -0.4322
21.7400 7.2299 -0.4328
21.7600 7.2366 -0.4282
21.7800 7.2434 -0.4339
21.8000 7.2500 -0.4339
21.8200 7.2567 -0.4297
21.8400 7.2634 -0.4360
21.8600 7.2700 -0.4364
21.8800 7.2767 -0.4351
21.9000 7.2833 -0.4314
21.9200 7.2899 -0.4360
21.9400 7.2966 -0.4388
21.9600 7.3033 -0.4323
21.9800 7.3100 -0.4380
22.0000 7.3167 -0.4415
22.0200 7.3233 -0.4358
22.0400 7.3300 -0.4413
22.0600 7.3367 -0.4383
22.0800 7.3433 -0.4376
22.1000 7.3499 -0.4402
22.1200 7.3566 -0.4389
22.1400 7.3633 -0.4373
22.1600 7.3700 -0.4443
22.1800 7.3767 -0.4394
22.2000 7.3834 -0.4353
22.2200 7.3901 -0.4477
22.2400 7.3967 -0.4397
22.2600 7.4033 -0.4393
22.2800 7.4100 -0.4427
22.3000 7.4167 -0.4430
22.3200 7.4234 -0.4378
22.3400 7.4301 -0.4456
22.3600 7.4367 -0.4419
22.3800 7.4434 -0.4404
22.4000 7.4500 -0.4453
22.4200 7.4567 -0.4456
22.4400 7.4633 -0.4396
22.4600 7.4699 -0.4439
22.4800 7.4766 -0.4440
22.5000 7.4833 -0.4484
22.5200 7.4900 -0.4426
22.5400 7.4967 -0.4432
22.5600 7.5034 -0.4455
22.5800 7.5100 -0.4446
22.6000 7.5167 -0.4460
22.6200 7.5233 -0.4467
22.6400 7.5299 -0.4430
22.6600 7.5366 -0.4459
22.6800 7.5433 -0.4471
22.7000 7.5500 -0.4456
22.7200 7.5567 -0.4490
22.7400 7.5634 -0.4459
22.7600 7.5701 -0.4447
22.7800 7.5767 -0.4552
22.8000 7.5833 -0.4458
22.8200 7.5899 -0.4425
22.8400 7.5966 -0.4592
22.8600 7.6033 -0.4394
22.8800 7.6100 -0.4482
22.9000 7.6167 -0.4595
22.9200 7.6234 -0.4456
22.9400 7.6301 -0.4529
22.9600 7.6367 -0.4648
22.9800 7.6433 -0.4433
23.0000 7.6500 -0.4516
23.0200 7.6566 -0.4624
23.0400 7.6633 -0.4463
23.0600 7.6700 -0.4549
23.0800 7.6767 -0.4603
23.1000 7.6834 -0.4454
23.1200 7.6901 -0.4599
23.1400 7.6967 -0.4604
23.1600 7.7033 -0.4483
23.1800 7.7099 -0.4577
23.2000 7.7166 -0.4588
23.2200 7.7233 -0.4487
23.2400 7.7300 -0.4623
23.2600 7.7367 -0.4603
23.2800 7.7434 -0.4520
23.3000 7.7501 -0.4618
23.3200 7.7567 -0.4566
23.3400 7.7633 -0.4552
23.3600 7.7699 -0.4667
23.3800 7.7766 -0.4573
23.4000 7.7833 -0.4589
23.4200 7.7900 -0.4626
23.4400 7.7966 -0.4586
23.4600 7.8033 -0.4635
23.4800 7.8100 -0.4633
23.5000 7.8167 -0.4631
23.5200 7.8233 -0.4623
23.5400 7.8299 -0.4601
23.5600 7.8366 -0.4588
23.5800 7.8433 -0.4703
23.6000 7.8500 -0.4603
23.6200 7.8567 -0.4635
23.6400 7.8634 -0.4674
23.6600 7.8701 -0.4614
23.6800 7.8767 -0.4650
23.7000 7.8833 -0.4689
23.7200 7.8899 -0.4611
23.7400 7.8966 -0.4701
23.7600 7.9033 -0.4710
23.7800 7.9101 -0.4609
23.8000 7.9168 -0.4678
23.8200 7.9234 -0.4743
23.8400 7.9301 -0.4632
23.8600 7.9367 -0.4706
23.8800 7.9433 -0.4692
23.9000 7.9499 -0.4633
23.9200 7.9566 -0.4693
23.9400 7.9633 -0.4689
23.9600 7.9700 -0.4656
23.9800 7.9767 -0.4761
24.0000 7.9834 -0.4697
24.0200 7.9901 -0.4675
24.0400 7.9967 -0.4760
24.0600 8.0033 -0.4703
24.0800 8.0099 -0.4665
24.1000 8.0166 -0.4715
24.1200 8.0233 -0.4743
24.1400 8.0300 -0.4663
24.1600 8.0367 -0.4721
24.1800 8.0433 -0.4728
24.2000 8.0500 -0.4684
24.2200 8.0567 -0.4799
24.2400 8.0633 -0.4777
24.2600 8.0699 -0.4604
24.2800 8.0766 -0.4800
24.3000 8.0833 -0.4792
24.3200 8.0900 -0.4645
24.3400 8.0967 -0.4786
24.3600 8.1034 -0.4813
24.3800 8.1101 -0.4668
24.4000 8.1167 -0.4824
24.4200 8.1233 -0.4779
24.4400 8.1299 -0.4661
24.4600 8.1366 -0.4846
24.4800 8.1433 -0.4806
24.5000 8.1501 -0.4677
24.5200 8.1568 -0.4886
24.5400 8.1634 -0.4787
24.5600 8.1701 -0.4713
24.5800 8.1767 -0.4860
24.6000 8.1833 -0.4782
24.6200 8.1899 -0.4743
24.6400 8.1966 -0.4861
24.6600 8.2033 -0.4747
24.6800 8.2100 -0.4743
24.7000 8.2167 -0.4859
24.7200 8.2234 -0.4775
24.7400 8.2300 -0.4782
24.7600 8.2367 -0.4879
24.7800 8.2433 -0.4792
24.8000 8.2499 -0.4730
24.8200 8.2566 -0.4895
24.8400 8.2633 -0.4835
24.8600 8.2700 -0.4794
24.8800 8.2767 -0.4881
24.9000 8.2834 -0.4802
24.9200 8.2901 -0.4764
24.9400 8.2967 -0.4905
24.9600 8.3033 -0.4845
24.9800 8.3099 -0.4781
25.0000 8.3166 -0.4845
25.0200 8.3233 -0.4862
25.0400 8.3300 -0.4792
25.0600 8.3367 -0.4879
25.0800 8.3434 -0.4910
25.1000 8.3501 -0.4804
25.1200 8.3567 -0.4912
25.1400 8.3633 -0.4901
25.1600 8.3699 -0.4811
25.1800 8.3766 -0.4868
25.2000 8.3833 -0.4944
25.2200 8.3900 -0.4853
25.2400 8.3967 -0.4829
25.2600 8.4034 -0.4980
25.2800 8.4101 -0.4828
25.3000 8.4167 -0.4869
25.3200 8.4233 -0.4972
25.3400 8.4299 -0.4836
25.3600 8.4366 -0.4914
25.3800 8.4433 -0.4968
25.4000 8.4500 -0.4849
25.4200 8.4567 -0.4913
25.4400 8.4634 -0.5008
25.4600 8.4700 -0.4852
25.4800 8.4767 -0.4907
25.5000 8.4833 -0.5020
25.5200 8.4899 -0.4893
25.5400 8.4966 -0.4908
25.5600 8.5033 -0.5057
25.5800 8.5100 -0.4875
25.6000 8.5166 -0.4948
25.6200 8.5233 -0.5059
25.6400 8.5300 -0.4868
25.6600 8.5367 -0.4963
25.6800 8.5433 -0.5064
25.7000 8.5499 -0.4837
25.7200 8.5566 -0.5008
25.7400 8.5633 -0.5078
25.7600 8.5700 -0.4855
25.7800 8.5767 -0.5068
25.8000 8.5834 -0.5067
25.8200 8.5901 -0.4879
25.8400 8.5968 -0.5107
25.8600 8.6034 -0.5031
25.8800 8.6099 -0.4911
25.9000 8.6166 -0.5104
25.9200 8.6233 -0.5040
25.9400 8.6301 -0.4936
25.9600 8.6368 -0.5111
25.9800 8.6434 -0.5067
26.0000 8.6501 -0.4916
26.0200 8.6567 -0.5106
26.0400 8.6633 -0.5090
26.0600 8.6700 -0.4992
26.0800 8.6766 -0.5102
26.1000 8.6833 -0.5026
26.1200 8.6900 -0.5032
26.1400 8.6967 -0.5119
26.1600 8.7033 -0.5024
26.1800 8.7100 -0.5071
26.2000 8.7167 -0.5122
26.2200 8.7233 -0.5062
26.2400 8.7299 -0.5027
26.2600 8.7366 -0.5136
26.2800 8.7432 -0.5057
26.3000 8.7500 -0.5066
26.3200 8.7567 -0.5080
26.3400 8.7633 -0.5093
26.3600 8.7700 -0.5097
26.3800 8.7767 -0.5095
26.4000 8.7833 -0.5104
26.4200 8.7899 -0.5124
26.4400 8.7966 -0.5087
26.4600 8.8033 -0.5105
26.4800 8.8100 -0.5179
26.5000 8.8167 -0.5116
26.5200 8.8234 -0.5111
26.5400 8.8301 -0.5196
26.5600 8.8368 -0.5108
26.5800 8.8434 -0.5132
26.6000 8.8500 -0.5217
26.6200 8.8566 -0.5080
26.6400 8.8633 -0.5149
26.6600 8.8700 -0.5234
26.6800 8.8767 -0.5100
26.7000 8.8834 -0.5110
26.7200 8.8901 -0.5245
26.7400 8.8968 -0.5149
26.7600 8.9034 -0.5137
26.7800 8.9099 -0.5217
26.8000 8.9166 -0.5117
26.8200 8.9233 -0.5143
26.8400 8.9300 -0.5287
26.8600 8.9367 -0.5074
26.8800 8.9434 -0.5154
26.9000 8.9500 -0.5275
26.9200 8.9567 -0.5154
26.9400 8.9633 -0.5188
26.9600 8.9699 -0.5305
26.9800 8.9766 -0.5117
27.0000 8.9833 -0.5203
27.0200 8.9900 -0.5259
27.0400 8.9967 -0.5128
27.0600 9.0033 -0.5234
27.0800 9.0100 -0.5281
27.1000 9.0167 -0.5093
27.1200 9.0233 -0.5287
27.1400 9.0300 -0.5236
27.1600 9.0366 -0.5151
27.1800 9.0433 -0.5273
27.2000 9.0500 -0.5251
27.2200 9.0567 -0.5191
27.2400 9.0634 -0.5245
27.2600 9.0701 -0.5287
27.2800 9.0768 -0.5232
27.3000 9.0834 -0.5287
27.3200 9.0900 -0.5305
27.3400 9.0966 -0.5212
27.3600 9.1033 -0.5266
27.3800 9.1100 -0.5277
27.4000 9.1167 -0.5250
27.4200 9.1234 -0.5270
27.4400 9.1301 -0.5307
27.4600 9.1367 -0.5239
27.4800 9.1434 -0.5256
27.5000 9.1500 -0.5364
27.5200 9.1566 -0.5231
27.5400 9.1633 -0.5241
27.5600 9.1700 -0.5372
27.5800 9.1767 -0.5303
27.6000 9.1834 -0.5244
27.6200 9.1900 -0.5381
27.6400 9.1967 -0.5343
27.6600 9.2034 -0.5260
27.6800 9.2100 -0.5363
27.7000 9.2166 -0.5391
27.7200 9.2232 -0.5217
27.7400 9.2300 -0.5397
27.7600 9.2367 -0.5349
27.7800 9.2433 -0.5243
27.8000 9.2500 -0.5421
27.8200 9.2567 -0.5409
27.8400 9.2634 -0.5235
27.8600 9.2699 -0.5408
27.8800 9.2766 -0.5374
27.9000 9.2833 -0.5252
27.9200 9.2900 -0.5445
27.9400 9.2967 -0.5401
27.9600 9.3034 -0.5236
27.9800 9.3101 -0.5476
28.0000 9.3168 -0.5395
28.0200 9.3234 -0.5289
28.0400 9.3300 -0.5498
28.0600 9.3366 -0.5361
28.0800 9.3433 -0.5317
28.1000 9.3500 -0.5478
28.1200 9.3567 -0.5402
28.1400 9.3634 -0.5295
28.1600 9.3700 -0.5506
28.1800 9.3767 -0.5400
28.2000 9.3834 -0.5342
28.2200 9.3899 -0.5508
28.2400 9.3966 -0.5373
28.2600 9.4032 -0.5369
28.2800 9.4100 -0.5498
28.3000 9.4167 -0.5386
28.3200 9.4234 -0.5414
28.3400 9.4300 -0.5441
28.3600 9.4367 -0.5452
28.3800 9.4434 -0.5353
28.4000 9.4500 -0.5470
28.4200 9.4566 -0.5440
28.4400 9.4632 -0.5340
28.4600 9.4700 -0.5486
28.4800 9.4767 -0.5486
28.5000 9.4834 -0.5394
28.5200 9.4900 -0.5445
28.5400 9.4967 -0.5500
28.5600 9.5034 -0.5416
28.5800 9.5100 -0.5481
28.6000 9.5166 -0.5486
28.6200 9.5233 -0.5394
28.6400 9.5300 -0.5528
28.6600 9.5367 -0.5471
28.6800 9.5434 -0.5385
28.7000 9.5501 -0.5527
28.7200 9.5567 -0.5484
28.7400 9.5634 -0.5419
28.7600 9.5700 -0.5507
28.7800 9.5766 -0.5515
28.8000 9.5833 -0.5403
28.8200 9.5900 -0.5517
28.8400 9.5967 -0.5480
28.8600 9.6034 -0.5438
28.8800 9.6101 -0.5531
28.9000 9.6168 -0.5489
28.9200 9.6234 -0.5455
28.9400 9.6300 -0.5555
28.9600 9.6366 -0.5455
28.9800 9.6433 -0.5474
29.0000 9.6500 -0.5523
29.0200 9.6567 -0.5523
29.0400 9.6633 -0.5433
29.0600 9.6700 -0.5537
29.0800 9.6767 -0.5525
29.1000 9.6834 -0.5459
29.1200 9.6900 -0.5538
29.1400 9.6966 -0.5545
29.1600 9.7032 -0.5442
29.1800 9.7100 -0.5532
29.2000 9.7167 -0.5551
29.2200 9.7233 -0.5471
29.2400 9.7300 -0.5528
29.2600 9.7367 -0.5557
29.2800 9.7434 -0.5448
29.3000 9.7500 -0.5512
29.3200 9.7566 -0.5580
29.3400 9.7633 -0.5484
29.3600 9.7700 -0.5558
29.3800 9.7767 -0.5600
29.4000 9.7834 -0.5495
29.4200 9.7901 -0.5565
29.4400 9.7968 -0.5603
29.4600 9.8034 -0.5502
29.4800 9.8100 -0.5600
29.5000 9.8166 -0.5543
29.5200 9.8233 -0.5498
29.5400 9.8300 -0.5605
29.5600 9.8367 -0.5621
29.5800 9.8434 -0.5504
29.6000 9.8501 -0.5621
29.6200 9.8567 -0.5572
29.6400 9.8634 -0.5593
29.6600 9.8700 -0.5582
29.6800 9.8766 -0.5591
29.7000 9.8833 -0.5554
29.7200 9.8900 -0.5593
29.7400 9.8967 -0.5595
29.7600 9.9033 -0.5611
29.7800 9.9100 -0.5633
29.8000 9.9167 -0.5596
29.8200 9.9234 -0.5603
29.8400 9.9300 -0.5657
29.8600 9.9366 -0.5581
29.8800 9.9432 -0.5661
29.9000 9.9499 -0.5618
29.9200 9.9566 -0.5603
29.9400 9.9633 -0.5677
29.9600 9.9700 -0.5606
29.9800 9.9767 -0.5629
30.0000 9.9833 -0.5683
30.0200 9.9900 -0.5608
30.0400 9.9966 -0.5629
30.0600 10.0033 -0.5661
30.0800 10.0100 -0.5641
30.1000 10.0167 -0.5668
30.1200 10.0234 -0.5689
30.1400 10.0301 -0.5634
30.1600 10.0367 -0.5671
30.1800 10.0434 -0.5689
30.2000 10.0500 -0.5650
30.2200 10.0566 -0.5689
30.2400 10.0633 -0.5651
30.2600 10.0700 -0.5692
30.2800 10.0767 -0.5668
30.3000 10.0834 -0.5689
30.3200 10.0901 -0.5684
30.3400 10.0967 -0.5693
30.3600 10.1034 -0.5642
30.3800 10.1100 -0.5729
30.4000 10.1166 -0.5709
30.4200 10.1232 -0.5649
30.4400 10.1299 -0.5713
30.4600 10.1367 -0.5727
30.4800 10.1433 -0.5668
30.5000 10.1500 -0.5719
30.5200 10.1567 -0.5689
30.5400 10.1634 -0.5751
30.5600 10.1700 -0.5709
30.5800 10.1766 -0.5632
30.6000 10.1832 -0.5763
30.6200 10.1900 -0.5686
30.6400 10.1967 -0.5678
30.6600 10.2034 -0.5803
30.6800 10.2100 -0.5684
30.7000 10.2167 -0.5679
30.7200 10.2234 -0.5846
30.7400 10.2300 -0.5661
30.7600 10.2366 -0.5701
30.7800 10.2433 -0.5834
30.8000 10.2500 -0.5683
30.8200 10.2567 -0.5720
30.8400 10.2634 -0.5847
30.8600 10.2701 -0.5670
30.8800 10.2768 -0.5761
30.9000 10.2834 -0.5821
30.9200 10.2900 -0.5738
30.9400 10.2966 -0.5728
30.9600 10.3033 -0.5792
30.9800 10.3100 -0.5712
31.0000 10.3167 -0.5783
31.0200 10.3234 -0.5812
31.0400 10.3301 -0.5721
31.0600 10.3367 -0.5785
31.0800 10.3434 -0.5781
31.1000 10.3500 -0.5696
31.1200 10.3566 -0.5839
31.1400 10.3632 -0.5810
31.1600 10.3700 -0.5733
31.1800 10.3767 -0.5793
31.2000 10.3833 -0.5869
31.2200 10.3900 -0.5729
31.2400 10.3967 -0.5826
31.2600 10.4034 -0.5881
31.2800 10.4100 -0.5728
31.3000 10.4166 -0.5810
31.3200 10.4233 -0.5821
31.3400 10.4299 -0.5778
31.3600 10.4366 -0.5792
31.3800 10.4433 -0.5854
31.4000 10.4500 -0.5761
31.4200 10.4567 -0.5834
31.4400 10.4634 -0.5893
31.4600 10.4700 -0.5755
31.4800 10.4766 -0.5828
31.5000 10.4833 -0.5901
31.5200 10.4900 -0.5727
31.5400 10.4967 -0.5897
31.5600 10.5034 -0.5907
31.5800 10.5101 -0.5752
31.6000 10.5168 -0.5873
31.6200 10.5234 -0.5954
31.6400 10.5300 -0.5747
31.6600 10.5366 -0.5879
31.6800 10.5433 -0.5924
31.7000 10.5500 -0.5786
31.7200 10.5567 -0.5875
31.7400 10.5634 -0.5940
31.7600 10.5701 -0.5786
31.7800 10.5768 -0.5915
31.8000 10.5834 -0.5909
31.8200 10.5900 -0.5825
31.8400 10.5966 -0.5919
31.8600 10.6033 -0.5910
31.8800 10.6099 -0.5863
31.9000 10.6167 -0.5917
31.9200 10.6234 -0.5917
31.9400 10.6301 -0.5898
31.9600 10.6367 -0.5918
31.9800 10.6434 -0.5900
32.0000 10.6500 -0.5950
32.0200 10.6566 -0.5885
32.0400 10.6632 -0.5973
32.0600 10.6699 -0.5908
32.0800 10.6766 -0.5889
32.1000 10.6834 -0.6006
32.1200 10.6900 -0.5956
32.1400 10.6967 -0.5860
32.1600 10.7034 -0.6043
32.1800 10.7100 -0.5906
32.2000 10.7166 -0.5864
32.2200 10.7233 -0.6066
32.2400 10.7300 -0.5905
32.2600 10.7367 -0.5880
32.2800 10.7434 -0.6069
32.3000 10.7501 -0.5890
32.3200 10.7568 -0.5935
32.3400 10.7635 -0.6063
32.3600 10.7701 -0.5902
32.3800 10.7767 -0.5962
32.4000 10.7833 -0.6022
32.4200 10.7900 -0.5874
32.4400 10.7967 -0.6023
32.4600 10.8034 -0.6033
32.4800 10.8101 -0.5920
32.5000 10.8167 -0.5981
32.5200 10.8234 -0.6053
32.5400 10.8300 -0.5954
32.5600 10.8366 -0.6015
32.5800 10.8432 -0.6024
32.6000 10.8499 -0.6005
32.6200 10.8567 -0.6040
32.6400 10.8634 -0.6000
32.6600 10.8700 -0.5978
32.6800 10.8767 -0.5999
32.7000 10.8834 -0.6067
32.7200 10.8900 -0.6000
32.7400 10.8966 -0.5988
32.7600 10.9033 -0.6078
32.7800 10.9099 -0.6050
32.8000 10.9166 -0.5952
32.8200 10.9233 -0.6091
32.8400 10.9300 -0.6062
32.8600 10.9367 -0.5957
32.8800 10.9434 -0.6134
32.9000 10.9500 -0.6089
32.9200 10.9566 -0.5963
32.9400 10.9633 -0.6130
32.9600 10.9699 -0.6023
32.9800 10.9767 -0.6001
33.0000 10.9834 -0.6184
33.0200 10.9900 -0.6037
33.0400 10.9967 -0.5992
33.0600 11.0034 -0.6184
33.0800 11.0100 -0.6049
33.1000 11.0166 -0.6004
33.1200 11.0233 -0.6163
33.1400 11.0300 -0.6039
33.1600 11.0367 -0.6053
33.1800 11.0434 -0.6178
33.2000 11.0501 -0.6025
33.2200 11.0568 -0.6086
33.2400 11.0634 -0.6159
33.2600 11.0700 -0.6028
33.2800 11.0766 -0.6122
33.3000 11.0832 -0.6120
33.3200 11.0899 -0.6079
33.3400 11.0966 -0.6104
33.3600 11.1033 -0.6125
33.3800 11.1100 -0.6075
33.4000 11.1167 -0.6124
33.4200 11.1234 -0.6103
33.4400 11.1300 -0.6112
33.4600 11.1366 -0.6113
33.4800 11.1432 -0.6117
33.5000 11.1499 -0.6102
33.5200 11.1566 -0.6109
33.5400 11.1633 -0.6156
33.5600 11.1700 -0.6183
33.5800 11.1767 -0.6090
33.6000 11.1834 -0.6140
33.6200 11.1900 -0.6180
33.6400 11.1966 -0.6081
33.6600 11.2033 -0.6142
33.6800 11.2100 -0.6209
33.7000 11.2167 -0.6081
33.7200 11.2234 -0.6174
33.7400 11.2301 -0.6207
33.7600 11.2368 -0.6121
33.7800 11.2434 -0.6197
33.8000 11.2501 -0.6164
33.8200 11.2567 -0.6098
33.8400 11.2633 -0.6211
33.8600 11.2699 -0.6164
33.8800 11.2767 -0.6137
33.9000 11.2834 -0.6221
33.9200 11.2900 -0.6147
33.9400 11.2967 -0.6163
33.9600 11.3034 -0.6226
33.9800 11.3101 -0.6161
34.0000 11.3167 -0.6161
34.0200 11.3233 -0.6230
34.0400 11.3299 -0.6137
34.0600 11.3366 -0.6190
34.0800 11.3433 -0.6230
34.1000 11.3500 -0.6143
34.1200 11.3567 -0.6155
34.1400 11.3634 -0.6281
34.1600 11.3701 -0.6153
34.1800 11.3766 -0.6184
34.2000 11.3832 -0.6228
34.2200 11.3899 -0.6175
34.2400 11.3966 -0.6244
34.2600 11.4033 -0.6235
34.2800 11.4100 -0.6158
34.3000 11.4167 -0.6279
34.3200 11.4233 -0.6191
34.3400 11.4300 -0.6174
34.3600 11.4366 -0.6288
34.3800 11.4433 -0.6240
34.4000 11.4499 -0.6182
34.4200 11.4566 -0.6323
34.4400 11.4634 -0.6182
34.4600 11.4700 -0.6234
34.4800 11.4767 -0.6317
34.5000 11.4834 -0.6177
34.5200 11.4901 -0.6294
34.5400 11.4967 -0.6304
34.5600 11.5033 -0.6191
34.5800 11.5100 -0.6255
34.6000 11.5167 -0.6319
34.6200 11.5234 -0.6214
34.6400 11.5301 -0.6305
34.6600 11.5367 -0.6287
34.6800 11.5434 -0.6212
34.7000 11.5500 -0.6299
34.7200 11.5566 -0.6281
34.7400 11.5632 -0.6261
34.7600 11.5699 -0.6323
34.7800 11.5766 -0.6255
34.8000 11.5834 -0.6297
34.8200 11.5900 -0.6332
34.8400 11.5967 -0.6293
34.8600 11.6033 -0.6261
34.8800 11.6100 -0.6388
34.9000 11.6166 -0.6317
34.9200 11.6232 -0.6287
34.9400 11.6299 -0.6335
34.9600 11.6366 -0.6297
34.9800 11.6433 -0.6333
35.0000 11.6500 -0.6377
35.0200 11.6567 -0.6306
35.0400 11.6634 -0.6347
35.0600 11.6701 -0.6350
35.0800 11.6767 -0.6327
35.1000 11.6833 -0.6320
35.1200 11.6899 -0.6354
35.1400 11.6966 -0.6349
35.1600 11.7034 -0.6348
35.1800 11.7100 -0.6385
35.2000 11.7167 -0.6352
35.2200 11.7234 -0.6372
35.2400 11.7300 -0.6374
35.2600 11.7367 -0.6362
35.2800 11.7433 -0.6330
35.3000 11.7499 -0.6401
35.3200 11.7566 -0.6427
35.3400 11.7634 -0.6328
35.3600 11.7701 -0.6425
35.3800 11.7767 -0.6424
35.4000 11.7834 -0.6331
35.4200 11.7901 -0.6427
35.4400 11.7967 -0.6406
35.4600 11.8033 -0.6368
35.4800 11.8100 -0.6392
35.5000 11.8166 -0.6449
35.5200 11.8233 -0.6413
35.5400 11.8300 -0.6491
35.5600 11.8367 -0.6406
35.5800 11.8434 -0.6367
35.6000 11.8501 -0.6452
35.6200 11.8567 -0.6446
35.6400 11.8633 -0.6387
35.6600 11.8699 -0.6469
35.6800 11.8766 -0.6424
35.7000 11.8833 -0.6375
35.7200 11.8900 -0.6507
35.7400 11.8967 -0.6439
35.7600 11.9034 -0.6377
35.7800 11.9100 -0.6510
35.8000 11.9167 -0.6429
35.8200 11.9233 -0.6399
35.8400 11.9299 -0.6494
35.8600 11.9366 -0.6464
35.8800 11.9433 -0.6423
35.9000 11.9500 -0.6518
35.9200 11.9567 -0.6461
35.9400 11.9634 -0.6371
35.9600 11.9701 -0.6548
35.9800 11.9767 -0.6468
36.0000 11.9833 -0.6426
36.0200 11.9900 -0.6526
36.0400 11.9966 -0.6448
36.0600 12.0033 -0.6445
36.0800 12.0100 -0.6554
36.1000 12.0167 -0.6446
36.1200 12.0234 -0.6458
36.1400 12.0301 -0.6520
36.1600 12.0367 -0.6453
36.1800 12.0433 -0.6449
36.2000 12.0499 -0.6482
36.2200 12.0566 -0.6500
36.2400 12.0634 -0.6538
36.2600 12.0701 -0.6488
36.2800 12.0767 -0.6510
36.3000 12.0834 -0.6514
36.3200 12.0900 -0.6500
36.3400 12.0967 -0.6534
36.3600 12.1033 -0.6506
36.3800 12.1099 -0.6447
36.4000 12.1166 -0.6549
36.4200 12.1233 -0.6561
36.4400 12.1300 -0.6467
36.4600 12.1367 -0.6583
36.4800 12.1433 -0.6554
36.5000 12.1500 -0.6464
36.5200 12.1567 -0.6612
36.5400 12.1633 -0.6519
36.5600 12.1699 -0.6461
36.5800 12.1766 -0.6561
36.6000 12.1833 -0.6531
36.6200 12.1900 -0.6526
36.6400 12.1967 -0.6575
36.6600 12.2034 -0.6519
36.6800 12.2101 -0.6570
36.7000 12.2167 -0.6605
36.7200 12.2233 -0.6463
36.7400 12.2300 -0.6587
36.7600 12.2367 -0.6569
36.7800 12.2434 -0.6487
36.8000 12.2501 -0.6606
36.8200 12.2567 -0.6603
36.8400 12.2634 -0.6525
36.8600 12.2700 -0.6591
36.8800 12.2767 -0.6584
36.9000 12.2833 -0.6605
36.9200 12.2899 -0.6566
36.9400 12.2966 -0.6564
36.9600 12.3033 -0.6569
36.9800 12.3100 -0.6579
37.0000 12.3167 -0.6593
37.0200 12.3234 -0.6576
37.0400 12.3301 -0.6629
37.0600 12.3367 -0.6602
37.0800 12.3433 -0.6546
37.1000 12.3499 -0.6609
37.1200 12.3566 -0.6635
37.1400 12.3633 -0.6580
37.1600 12.3700 -0.6592
37.1800 12.3767 -0.6645
37.2000 12.3834 -0.6595
37.2200 12.3901 -0.6602
37.2400 12.3967 -0.6668
37.2600 12.4033 -0.6575
37.2800 12.4099 -0.6576
37.3000 12.4166 -0.6647
37.3200 12.4233 -0.6608
37.3400 12.4300 -0.6624
37.3600 12.4367 -0.6665
37.3800 12.4434 -0.6594
37.4000 12.4501 -0.6647
37.4200 12.4567 -0.6665
37.4400 12.4633 -0.6622
37.4600 12.4700 -0.6619
37.4800 12.4766 -0.6685
37.5000 12.4833 -0.6622
37.5200 12.4900 -0.6691
37.5400 12.4967 -0.6660
37.5600 12.5034 -0.6605
37.5800 12.5101 -0.6670
37.6000 12.5167 -0.6662
37.6200 12.5233 -0.6662
37.6400 12.5299 -0.6671
37.6600 12.5366 -0.6661
37.6800 12.5433 -0.6643
37.7000 12.5500 -0.6709
37.7200 12.5567 -0.6671
37.7400 12.5634 -0.6672
37.7600 12.5701 -0.6717
37.7800 12.5767 -0.6665
37.8000 12.5833 -0.6667
37.8200 12.5899 -0.6697
37.8400 12.5966 -0.6678
37.8600 12.6033 -0.6688
37.8800 12.6100 -0.6683
37.9000 12.6166 -0.6736
37.9200 12.6233 -0.6672
37.9400 12.6300 -0.6680
37.9600 12.6367 -0.6740
37.9800 12.6433 -0.6746
38.0000 12.6499 -0.6688
38.0200 12.6566 -0.6706
38.0400 12.6634 -0.6725
38.0600 12.6701 -0.6715
38.0800 12.6767 -0.6746
38.1000 12.6834 -0.6739
38.1200 12.6901 -0.6697
38.1400 12.6967 -0.6848
38.1600 12.7033 -0.6708
38.1800 12.7100 -0.6695
38.2000 12.7166 -0.6788
38.2200 12.7233 -0.6736
38.2400 12.7300 -0.6736
38.2600 12.7367 -0.6774
38.2800 12.7434 -0.6719
38.3000 12.7501 -0.6737
38.3200 12.7567 -0.6802
38.3400 12.7633 -0.6752
38.3600 12.7699 -0.6785
38.3800 12.7766 -0.6784
38.4000 12.7833 -0.6759
38.4200 12.7900 -0.6813
38.4400 12.7967 -0.6773
38.4600 12.8034 -0.6835
38.4800 12.8101 -0.6802
38.5000 12.8167 -0.6747
38.5200 12.8233 -0.6855
38.5400 12.8299 -0.6770
38.5600 12.8366 -0.6776
38.5800 12.8433 -0.6853
38.6000 12.8500 -0.6830
38.6200 12.8566 -0.6782
38.6400 12.8633 -0.6793
38.6600 12.8700 -0.6811
38.6800 12.8767 -0.6866
38.7000 12.8833 -0.6823
38.7200 12.8899 -0.6777
38.7400 12.8966 -0.6834
38.7600 12.9033 -0.6915
38.7800 12.9100 -0.6818
38.8000 12.9167 -0.6847
38.8200 12.9234 -0.6887
38.8400 12.9301 -0.6792
38.8600 12.9367 -0.6843
38.8800 12.9433 -0.6942
38.9000 12.9499 -0.6819
38.9200 12.9566 -0.6841
38.9400 12.9633 -0.6852
38.9600 12.9701 -0.6851
38.9800 12.9767 -0.6902
39.0000 12.9834 -0.6926
39.0200 12.9901 -0.6851
39.0400 12.9967 -0.6865
39.0600 13.0033 -0.6911
39.0800 13.0100 -0.6838
39.1000 13.0166 -0.6879
39.1200 13.0233 -0.6928
39.1400 13.0300 -0.6878
39.1600 13.0366 -0.6875
39.1800 13.0433 -0.6945
39.2000 13.0500 -0.6879
39.2200 13.0567 -0.6887
39.2400 13.0633 -0.6936
39.2600 13.0699 -0.6902
39.2800 13.0766 -0.6913
39.3000 13.0833 -0.6966
39.3200 13.0900 -0.6898
39.3400 13.0967 -0.6904
39.3600 13.1034 -0.6934
39.3800 13.1101 -0.6916
39.4000 13.1167 -0.6901
39.4200 13.1233 -0.6991
39.4400 13.1300 -0.6903
39.4600 13.1366 -0.6866
39.4800 13.1433 -0.7041
39.5000 13.1500 -0.6977
39.5200 13.1567 -0.6851
39.5400 13.1634 -0.7008
39.5600 13.1700 -0.6962
39.5800 13.1767 -0.6909
39.6000 13.1833 -0.7002
39.6200 13.1899 -0.6991
39.6400 13.1966 -0.6907
39.6600 13.2033 -0.7047
39.6800 13.2100 -0.6971
39.7000 13.2167 -0.6876
39.7200 13.2234 -0.7120
39.7400 13.2301 -0.6945
39.7600 13.2367 -0.6855
39.7800 13.2433 -0.7106
39.8000 13.2499 -0.7016
39.8200 13.2566 -0.6863
39.8400 13.2633 -0.7093
39.8600 13.2700 -0.6991
39.8800 13.2767 -0.6927
39.9000 13.2834 -0.7100
39.9200 13.2901 -0.6947
39.9400 13.2967 -0.6933
39.9600 13.3033 -0.7115
39.9800 13.3099 -0.6955
40.0000 13.3166 -0.7005
40.0200 13.3233 -0.7110
40.0400 13.3300 -0.6961
40.0600 13.3366 -0.6998
40.0800 13.3433 -0.7097
40.1000 13.3500 -0.6970
40.1200 13.3567 -0.7042
40.1400 13.3633 -0.7069
40.1600 13.3699 -0.6967
40.1800 13.3766 -0.7071
40.2000 13.3833 -0.7130
40.2200 13.3900 -0.6994
40.2400 13.3967 -0.7067
40.2600 13.4034 -0.7069
40.2800 13.4101 -0.7009
40.3000 13.4168 -0.7101
40.3200 13.4234 -0.7077
40.3400 13.4300 -0.7050
40.3600 13.4366 -0.7085
40.3800 13.4433 -0.7080
40.4000 13.4500 -0.7040
40.4200 13.4567 -0.7109
40.4400 13.4634 -0.7104
40.4600 13.4701 -0.7029
40.4800 13.4767 -0.7094
40.5000 13.4834 -0.7156
40.5200 13.4899 -0.7018
40.5400 13.4966 -0.7102
40.5600 13.5033 -0.7086
40.5800 13.5100 -0.7113
40.6000 13.5167 -0.7104
40.6200 13.5233 -0.7126
40.6400 13.5300 -0.7097
40.6600 13.5367 -0.7123
40.6800 13.5433 -0.7156
40.7000 13.5499 -0.7113
40.7200 13.5566 -0.7091
40.7400 13.5632 -0.7150
40.7600 13.5700 -0.7100
40.7800 13.5767 -0.7136
40.8000 13.5833 -0.7153
40.8200 13.5900 -0.7159
40.8400 13.5967 -0.7127
40.8600 13.6033 -0.7173
40.8800 13.6099 -0.7161
40.9000 13.6166 -0.7160
40.9200 13.6233 -0.7159
40.9400 13.6300 -0.7152
40.9600 13.6367 -0.7168
40.9800 13.6434 -0.7190
41.0000 13.6501 -0.7166
41.0200 13.6567 -0.7136
41.0400 13.6634 -0.7231
41.0600 13.6700 -0.7219
41.0800 13.6767 -0.7127
41.1000 13.6833 -0.7193
41.1200 13.6900 -0.7209
41.1400 13.6967 -0.7132
41.1600 13.7034 -0.7200
41.1800 13.7100 -0.7178
41.2000 13.7167 -0.7202
41.2200 13.7233 -0.7194
41.2400 13.7299 -0.7222
41.2600 13.7366 -0.7143
41.2800 13.7433 -0.7240
41.3000 13.7500 -0.7246
41.3200 13.7567 -0.7177
41.3400 13.7634 -0.7238
41.3600 13.7700 -0.7232
41.3800 13.7767 -0.7231
41.4000 13.7833 -0.7267
41.4200 13.7899 -0.7205
41.4400 13.7966 -0.7213
41.4600 13.8032 -0.7265
41.4800 13.8100 -0.7231
41.5000 13.8167 -0.7218
41.5200 13.8233 -0.7278
41.5400 13.8300 -0.7214
41.5600 13.8367 -0.7244
41.5800 13.8434 -0.7272
41.6000 13.8500 -0.7238
41.6200 13.8566 -0.7265
41.6400 13.8633 -0.7239
41.6600 13.8700 -0.7258
41.6800 13.8767 -0.7305
41.7000 13.8834 -0.7255
41.7200 13.8901 -0.7240
41.7400 13.8968 -0.7292
41.7600 13.9034 -0.7298
41.7800 13.9100 -0.7304
41.8000 13.9166 -0.7253
41.8200 13.9233 -0.7281
41.8400 13.9300 -0.7318
41.8600 13.9367 -0.7301
41.8800 13.9434 -0.7279
41.9000 13.9501 -0.7355
41.9200 13.9567 -0.7292
41.9400 13.9634 -0.7269
41.9600 13.9700 -0.7344
41.9800 13.9766 -0.7271
42.0000 13.9833 -0.7309
42.0200 13.9900 -0.7381
42.0400 13.9967 -0.7244
42.0600 14.0033 -0.7369
42.0800 14.0100 -0.7328
42.1000 14.0168 -0.7253
42.1200 14.0234 -0.7372
42.1400 14.0300 -0.7326
42.1600 14.0366 -0.7249
42.1800 14.0432 -0.7373
42.2000 14.0499 -0.7329
42.2200 14.0566 -0.7284
42.2400 14.0633 -0.7415
42.2600 14.0700 -0.7268
42.2800 14.0767 -0.7325
42.3000 14.0834 -0.7387
42.3200 14.0900 -0.7310
42.3400 14.0966 -0.7352
42.3600 14.1033 -0.7379
42.3800 14.1100 -0.7296
42.4000 14.1167 -0.7395
42.4200 14.1234 -0.7383
42.4400 14.1301 -0.7275
42.4600 14.1368 -0.7420
42.4800 14.1434 -0.7423
42.5000 14.1500 -0.7274
42.5200 14.1566 -0.7413
42.5400 14.1633 -0.7367
42.5600 14.1700 -0.7325
42.5800 14.1767 -0.7435
42.6000 14.1834 -0.7355
42.6200 14.1901 -0.7331
42.6400 14.1967 -0.7459
42.6600 14.2034 -0.7318
42.6800 14.2100 -0.7369
42.7000 14.2166 -0.7443
42.7200 14.2232 -0.7368
42.7400 14.2300 -0.7373
42.7600 14.2367 -0.7472
42.7800 14.2433 -0.7332
42.8000 14.2500 -0.7386
42.8200 14.2567 -0.7481
42.8400 14.2633 -0.7361
42.8600 14.2700 -0.7403
42.8800 14.2766 -0.7433
42.9000 14.2833 -0.7364
42.9200 14.2900 -0.7433
42.9400 14.2967 -0.7427
42.9600 14.3034 -0.7375
42.9800 14.3100 -0.7477
43.0000 14.3167 -0.7427
43.0200 14.3234 -0.7409
43.0400 14.3300 -0.7450
43.0600 14.3366 -0.7435
43.0800 14.3433 -0.7413
43.1000 14.3500 -0.7453
43.1200 14.3567 -0.7434
43.1400 14.3634 -0.7451
43.1600 14.3701 -0.7384
43.1800 14.3767 -0.7506
43.2000 14.3834 -0.7464
43.2200 14.3900 -0.7452
43.2400 14.3966 -0.7458
43.2600 14.4033 -0.7460
43.2800 14.4100 -0.7443
43.3000 14.4167 -0.7522
43.3200 14.4234 -0.7485
43.3400 14.4301 -0.7405
43.3600 14.4368 -0.7516
43.3800 14.4434 -0.7484
43.4000 14.4500 -0.7427
43.4200 14.4566 -0.7550
43.4400 14.4633 -0.7485
43.4600 14.4700 -0.7434
43.4800 14.4767 -0.7530
43.5000 14.4833 -0.7501
43.5200 14.4900 -0.7447
43.5400 14.4967 -0.7573
43.5600 14.5034 -0.7541
43.5800 14.5100 -0.7460
43.6000 14.5166 -0.7565
43.6200 14.5232 -0.7447
43.6400 14.5299 -0.7517
43.6600 14.5367 -0.7604
43.6800 14.5433 -0.7507
43.7000 14.5500 -0.7472
43.7200 14.5567 -0.7580
43.7400 14.5634 -0.7533
43.7600 14.5700 -0.7477
43.7800 14.5766 -0.7583
43.8000 14.5833 -0.7481
43.8200 14.5900 -0.7510
43.8400 14.5967 -0.7613
43.8600 14.6034 -0.7496
43.8800 14.6101 -0.7530
43.9000 14.6168 -0.7568
43.9200 14.6234 -0.7527
43.9400 14.6300 -0.7499
43.9600 14.6366 -0.7619
43.9800 14.6433 -0.7501
44.0000 14.6500 -0.7483
44.0200 14.6567 -0.7637
44.0400 14.6634 -0.7521
44.0600 14.6701 -0.7501
44.0800 14.6767 -0.7661
44.1000 14.6834 -0.7560
44.1200 14.6900 -0.7525
44.1400 14.6966 -0.7632
44.1600 14.7033 -0.7532
44.1800 14.7099 -0.7490
44.2000 14.7166 -0.7671
44.2200 14.7233 -0.7583
44.2400 14.7300 -0.7514
44.2600 14.7367 -0.7642
44.2800 14.7434 -0.7523
44.3000 14.7500 -0.7551
44.3200 14.7566 -0.7653
44.3400 14.7632 -0.7516
44.3600 14.7699 -0.7564
44.3800 14.7766 -0.7711
44.4000 14.7833 -0.7502
44.4200 14.7900 -0.7588
44.4400 14.7966 -0.7687
44.4600 14.8033 -0.7522
44.4800 14.8100 -0.7622
44.5000 14.8166 -0.7700
44.5200 14.8233 -0.7496
44.5400 14.8300 -0.7652
44.5600 14.8367 -0.7651
44.5800 14.8434 -0.7545
44.6000 14.8501 -0.7674
44.6200 14.8568 -0.7672
44.6400 14.8634 -0.7541
44.6600 14.8701 -0.7687
44.6800 14.8767 -0.7643
44.7000 14.8833 -0.7611
44.7200 14.8900 -0.7671
44.7400 14.8967 -0.7622
44.7600 14.9034 -0.7647
44.7800 14.9101 -0.7688
44.8000 14.9168 -0.7604
44.8200 14.9234 -0.7673
44.8400 14.9300 -0.7680
44.8600 14.9366 -0.7640
44.8800 14.9432 -0.7658
44.9000 14.9499 -0.7673
44.9200 14.9566 -0.7663
44.9400 14.9633 -0.7690
44.9600 14.9700 -0.7652
44.9800 14.9767 -0.7617
45.0000 14.9834 -0.7735
45.0200 14.9900 -0.7669
45.0400 14.9966 -0.7652
45.0600 15.0032 -0.7724
45.0800 15.0099 -0.7691
45.1000 15.0167 -0.7668
45.1200 15.0233 -0.7742
45.1400 15.0300 -0.7689
45.1600 15.0367 -0.7743
45.1800 15.0434 -0.7722
45.2000 15.0500 -0.7702
45.2200 15.0566 -0.7737
45.2400 15.0633 -0.7711
45.2600 15.0700 -0.7729
45.2800 15.0767 -0.7745
45.3000 15.0834 -0.7671
45.3200 15.0901 -0.7734
45.3400 15.0968 -0.7764
45.3600 15.1035 -0.7677
45.3800 15.1101 -0.7757
45.4000 15.1167 -0.7789
45.4200 15.1233 -0.7662
45.4400 15.1300 -0.7716
45.4600 15.1367 -0.7768
45.4800 15.1434 -0.7739
45.5000 15.1501 -0.7720
45.5200 15.1567 -0.7756
45.5400 15.1634 -0.7758
45.5600 15.1700 -0.7756
45.5800 15.1766 -0.7723
45.6000 15.1832 -0.7737
45.6200 15.1900 -0.7798
45.6400 15.1967 -0.7741
45.6600 15.2034 -0.7782
45.6800 15.2100 -0.7755
45.7000 15.2167 -0.7777
45.7200 15.2234 -0.7803
45.7400 15.2300 -0.7757
45.7600 15.2366 -0.7762
45.7800 15.2433 -0.7826
45.8000 15.2499 -0.7743
45.8200 15.2566 -0.7790
45.8400 15.2633 -0.7816
45.8600 15.2700 -0.7750
45.8800 15.2767 -0.7802
45.9000 15.2834 -0.7805
45.9200 15.2900 -0.7756
45.9400 15.2966 -0.7850
45.9600 15.3033 -0.7764
45.9800 15.3099 -0.7789
46.0000 15.3167 -0.7834
46.0200 15.3234 -0.7793
46.0400 15.3301 -0.7835
46.0600 15.3367 -0.7847
46.0800 15.3434 -0.7799
46.1000 15.3500 -0.7787
46.1200 15.3567 -0.7844
46.1400 15.3633 -0.7801
46.1600 15.3700 -0.7796
46.1800 15.3767 -0.7855
46.2000 15.3834 -0.7817
46.2200 15.3901 -0.7845
46.2400 15.3968 -0.7831
46.2600 15.4034 -0.7828
46.2800 15.4101 -0.7900
46.3000 15.4166 -0.7815
46.3200 15.4232 -0.7844
46.3400 15.4299 -0.7862
46.3600 15.4366 -0.7843
46.3800 15.4433 -0.7859
46.4000 15.4500 -0.7854
46.4200 15.4567 -0.7859
46.4400 15.4634 -0.7912
46.4600 15.4700 -0.7855
46.4800 15.4766 -0.7893
46.5000 15.4832 -0.7873
46.5200 15.4899 -0.7875
46.5400 15.4966 -0.7904
46.5600 15.5033 -0.7905
46.5800 15.5100 -0.7900
46.6000 15.5167 -0.7890
46.6200 15.5234 -0.7907
46.6400 15.5300 -0.7943
46.6600 15.5366 -0.7883
46.6800 15.5433 -0.7933
46.7000 15.5499 -0.7937
46.7200 15.5567 -0.7876
46.7400 15.5633 -0.7930
46.7600 15.5700 -0.7975
46.7800 15.5767 -0.7889
46.8000 15.5834 -0.7933
46.8200 15.5901 -0.8004
46.8400 15.5967 -0.7852
46.8600 15.6033 -0.7937
46.8800 15.6099 -0.8019
46.9000 15.6167 -0.7920
46.9200 15.6234 -0.7993
46.9400 15.6301 -0.8011
46.9600 15.6368 -0.7863
46.9800 15.6434 -0.8055
47.0000 15.6500 -0.8041
47.0200 15.6566 -0.7870
47.0400 15.6632 -0.8048
47.0600 15.6699 -0.8002
47.0800 15.6767 -0.7881
47.1000 15.6834 -0.8034
47.1200 15.6900 -0.7987
47.1400 15.6967 -0.7952
47.1600 15.7034 -0.8052
47.1800 15.7100 -0.7998
47.2000 15.7167 -0.7972
47.2200 15.7233 -0.8014
47.2400 15.7299 -0.7942
47.2600 15.7367 -0.8004
47.2800 15.7433 -0.8039
47.3000 15.7500 -0.7964
47.3200 15.7567 -0.7964
47.3400 15.7634 -0.8078
47.3600 15.7701 -0.8043
47.3800 15.7767 -0.7982
47.4000 15.7833 -0.8040
47.4200 15.7899 -0.8019
47.4400 15.7967 -0.7994
47.4600 15.8034 -0.8079
47.4800 15.8101 -0.8044
47.5000 15.8167 -0.7946
47.5200 15.8234 -0.8072
47.5400 15.8300 -0.8048
47.5600 15.8366 -0.7964
47.5800 15.8433 -0.8053
47.6000 15.8499 -0.8014
47.6200 15.8567 -0.7969
47.6400 15.8634 -0.8073
47.6600 15.8701 -0.8050
47.6800 15.8767 -0.8031
47.7000 15.8834 -0.8065
47.7200 15.8901 -0.8039
47.7400 15.8967 -0.8014
47.7600 15.9033 -0.8122
47.7800 15.9100 -0.8007
47.8000 15.9167 -0.8031
47.8200 15.9234 -0.8111
47.8400 15.9300 -0.8067
47.8600 15.9367 -0.8037
47.8800 15.9434 -0.8103
47.9000 15.9500 -0.8109
47.9200 15.9566 -0.8034
47.9400 15.9632 -0.8062
47.9600 15.9699 -0.8031
47.9800 15.9766 -0.8060
48.0000 15.9833 -0.8146
48.0200 15.9900 -0.8058
48.0400 15.9967 -0.8081
48.0600 16.0034 -0.8110
48.0800 16.0100 -0.8080
48.1000 16.0167 -0.8073
48.1200 16.0233 -0.8114
48.1400 16.0300 -0.8102
48.1600 16.0367 -0.8069
48.1800 16.0434 -0.8145
48.2000 16.0501 -0.8121
48.2200 16.0567 -0.8087
48.2400 16.0634 -0.8161
48.2600 16.0701 -0.8152
48.2800 16.0767 -0.8101
48.3000 16.0833 -0.8128
48.3200 16.0899 -0.8105
48.3400 16.0966 -0.8136
48.3600 16.1033 -0.8152
48.3800 16.1101 -0.8121
48.4000 16.1167 -0.8125
48.4200 16.1234 -0.8202
48.4400 16.1301 -0.8170
48.4600 16.1367 -0.8163
48.4800 16.1433 -0.8135
48.5000 16.1499 -0.8153
48.5200 16.1566 -0.8133
48.5400 16.1633 -0.8169
48.5600 16.1700 -0.8207
48.5800 16.1767 -0.8119
48.6000 16.1834 -0.8167
48.6200 16.1901 -0.8187
48.6400 16.1966 -0.8132
48.6600 16.2032 -0.8219
48.6800 16.2099 -0.8177
48.7000 16.2166 -0.8144
48.7200 16.2233 -0.8171
48.7400 16.2300 -0.8230
48.7600 16.2367 -0.8153
48.7800 16.2434 -0.8218
48.8000 16.2500 -0.8216
48.8200 16.2567 -0.8148
48.8400 16.2633 -0.8272
48.8600 16.2699 -0.8173
48.8800 16.2766 -0.8220
48.9000 16.2833 -0.8235
48.9200 16.2900 -0.8239
48.9400 16.2967 -0.8187
48.9600 16.3034 -0.8248
48.9800 16.3101 -0.8257
49.0000 16.3167 -0.8190
49.0200 16.3233 -0.8249
49.0400 16.3299 -0.8240
49.0600 16.3366 -0.8234
49.0800 16.3434 -0.8238
49.1000 16.3501 -0.8242
49.1200 16.3567 -0.8265
49.1400 16.3634 -0.8248
49.1600 16.3700 -0.8248
49.1800 16.3766 -0.8263
49.2000 16.3832 -0.8305
49.2200 16.3899 -0.8241
49.2400 16.3966 -0.8224
49.2600 16.4033 -0.8315
49.2800 16.4100 -0.8267
49.3000 16.4167 -0.8222
49.3200 16.4233 -0.8307
49.3400 16.4300 -0.8274
49.3600 16.4367 -0.8284
49.3800 16.4433 -0.8328
49.4000 16.4499 -0.8257
49.4200 16.4566 -0.8309
49.4400 16.4633 -0.8325
49.4600 16.4700 -0.8285
49.4800 16.4767 -0.8264
49.5000 16.4834 -0.8358
49.5200 16.4901 -0.8287
49.5400 16.4967 -0.8314
49.5600 16.5033 -0.8348
49.5800 16.5099 -0.8284
49.6000 16.5166 -0.8312
49.6200 16.5234 -0.8409
49.6400 16.5301 -0.8328
49.6600 16.5367 -0.8381
49.6800 16.5434 -0.8322
49.7000 16.5501 -0.8321
49.7200 16.5567 -0.8389
49.7400 16.5633 -0.8356
49.7600 16.5699 -0.8318
49.7800 16.5766 -0.8445
49.8000 16.5834 -0.8336
49.8200 16.5900 -0.8333
49.8400 16.5967 -0.8453
49.8600 16.6034 -0.8340
49.8800 16.6101 -0.8324
49.9000 16.6167 -0.8460
49.9200 16.6233 -0.8377
49.9400 16.6300 -0.8338
49.9600 16.6366 -0.8443
49.9800 16.6433 -0.8385
50.0000 16.6500 -0.8365
50.0200 16.6567 -0.8408
50.0400 16.6634 -0.8385
50.0600 16.6701 -0.8366
50.0800 16.6767 -0.8467
50.1000 16.6833 -0.8360
50.1200 16.6899 -0.8404
50.1400 16.6966 -0.8504
50.1600 16.7033 -0.8397
50.1800 16.7100 -0.8375
50.2000 16.7167 -0.8477
50.2200 16.7234 -0.8382
50.2400 16.7300 -0.8410
50.2600 16.7366 -0.8494
50.2800 16.7433 -0.8384
50.3000 16.7499 -0.8406
50.3200 16.7566 -0.8500
50.3400 16.7634 -0.8419
50.3600 16.7700 -0.8492
50.3800 16.7767 -0.8452
50.4000 16.7834 -0.8446
50.4200 16.7901 -0.8475
50.4400 16.7967 -0.8504
50.4600 16.8033 -0.8455
50.4800 16.8099 -0.8490
50.5000 16.8166 -0.8503
50.5200 16.8233 -0.8475
50.5400 16.8300 -0.8456
50.5600 16.8367 -0.8462
50.5800 16.8434 -0.8500
50.6000 16.8501 -0.8497
50.6200 16.8567 -0.8513
50.6400 16.8633 -0.8553
50.6600 16.8699 -0.8446
50.6800 16.8766 -0.8483
50.7000 16.8834 -0.8575
50.7200 16.8901 -0.8454
50.7400 16.8967 -0.8557
50.7600 16.9034 -0.8543
50.7800 16.9100 -0.8449
50.8000 16.9167 -0.8591
50.8200 16.9233 -0.8563
50.8400 16.9299 -0.8436
50.8600 16.9366 -0.8610
50.8800 16.9433 -0.8531
50.9000 16.9500 -0.8450
50.9200 16.9567 -0.8654
50.9400 16.9633 -0.8568
50.9600 16.9700 -0.8471
50.9800 16.9767 -0.8656
51.0000 16.9833 -0.8556
51.0200 16.9899 -0.8496
51.0400 16.9966 -0.8677
51.0600 17.0033 -0.8516
51.0800 17.0100 -0.8547
51.1000 17.0167 -0.8685
51.1200 17.0234 -0.8483
51.1400 17.0301 -0.8641
51.1600 17.0367 -0.8644
51.1800 17.0433 -0.8469
51.2000 17.0499 -0.8573
51.2200 17.0566 -0.8657
51.2400 17.0634 -0.8544
51.2600 17.0701 -0.8658
51.2800 17.0767 -0.8654
51.3000 17.0834 -0.8495
51.3200 17.0901 -0.8716
51.3400 17.0967 -0.8641
51.3600 17.1033 -0.8547
51.3800 17.1099 -0.8668
51.4000 17.1166 -0.8639
51.4200 17.1233 -0.8551
51.4400 17.1300 -0.8680
51.4600 17.1367 -0.8680
51.4800 17.1434 -0.8635
51.5000 17.1501 -0.8698
51.5200 17.1567 -0.8660
51.5400 17.1633 -0.8685
51.5600 17.1699 -0.8676
51.5800 17.1766 -0.8634
51.6000 17.1833 -0.8709
51.6200 17.1900 -0.8627
51.6400 17.1967 -0.8696
51.6600 17.2034 -0.8663
51.6800 17.2101 -0.8664
51.7000 17.2167 -0.8720
51.7200 17.2233 -0.8690
51.7400 17.2299 -0.8643
51.7600 17.2366 -0.8721
51.7800 17.2433 -0.8683
51.8000 17.2500 -0.8700
51.8200 17.2567 -0.8719
51.8400 17.2634 -0.8708
51.8600 17.2701 -0.8703
51.8800 17.2767 -0.8717
51.9000 17.2833 -0.8738
51.9200 17.2900 -0.8662
51.9400 17.2966 -0.8735
51.9600 17.3033 -0.8689
51.9800 17.3100 -0.8720
52.0000 17.3167 -0.8769
52.0200 17.3234 -0.8721
52.0400 17.3301 -0.8721
52.0600 17.3368 -0.8793
52.0800 17.3433 -0.8732
52.1000 17.3499 -0.8737
52.1200 17.3566 -0.8788
52.1400 17.3633 -0.8688
52.1600 17.3700 -0.8765
52.1800 17.3767 -0.8840
52.2000 17.3834 -0.8640
52.2200 17.3900 -0.8849
52.2400 17.3967 -0.8818
52.2600 17.4033 -0.8738
52.2800 17.4099 -0.8763
52.3000 17.4166 -0.8790
52.3200 17.4233 -0.8720
52.3400 17.4300 -0.8853
52.3600 17.4366 -0.8791
52.3800 17.4433 -0.8661
52.4000 17.4500 -0.8869
52.4200 17.4567 -0.8812
52.4400 17.4633 -0.8710
52.4600 17.4699 -0.8889
52.4800 17.4766 -0.8762
52.5000 17.4833 -0.8758
52.5200 17.4900 -0.8877
52.5400 17.4967 -0.8773
52.5600 17.5034 -0.8819
52.5800 17.5101 -0.8833
52.6000 17.5168 -0.8794
52.6200 17.5234 -0.8857
52.6400 17.5300 -0.8884
52.6600 17.5366 -0.8782
52.6800 17.5433 -0.8850
52.7000 17.5500 -0.8847
52.7200 17.5567 -0.8824
52.7400 17.5634 -0.8849
52.7600 17.5701 -0.8855
52.7800 17.5767 -0.8884
52.8000 17.5833 -0.8858
52.8200 17.5899 -0.8823
52.8400 17.5966 -0.8898
52.8600 17.6033 -0.8832
52.8800 17.6100 -0.8903
52.9000 17.6167 -0.8874
52.9200 17.6234 -0.8897
52.9400 17.6300 -0.8930
52.9600 17.6367 -0.8878
52.9800 17.6433 -0.8892
53.0000 17.6499 -0.8920
53.0200 17.6566 -0.8842
53.0400 17.6633 -0.8895
53.0600 17.6700 -0.8963
53.0800 17.6767 -0.8893
53.1000 17.6833 -0.8882
53.1200 17.6900 -0.9012
53.1400 17.6967 -0.8879
53.1600 17.7033 -0.8942
53.1800 17.7099 -0.8961
53.2000 17.7166 -0.8822
53.2200 17.7233 -0.8972
53.2400 17.7300 -0.8950
53.2600 17.7367 -0.8910
53.2800 17.7434 -0.8971
53.3000 17.7501 -0.8966
53.3200 17.7568 -0.8918
53.3400 17.7633 -0.8996
53.3600 17.7700 -0.8956
53.3800 17.7766 -0.8920
53.4000 17.7833 -0.9024
53.4200 17.7901 -0.8970
53.4400 17.7968 -0.8967
53.4600 17.8034 -0.9023
53.4800 17.8101 -0.8943
53.5000 17.8167 -0.9028
53.5200 17.8233 -0.9026
53.5400 17.8299 -0.9012
53.5600 17.8366 -0.8988
53.5800 17.8433 -0.9011
53.6000 17.8500 -0.9012
53.6200 17.8567 -0.9028
53.6400 17.8633 -0.9050
53.6600 17.8700 -0.8974
53.6800 17.8767 -0.9050
53.7000 17.8833 -0.9042
53.7200 17.8899 -0.9033
53.7400 17.8966 -0.9087
53.7600 17.9033 -0.8970
53.7800 17.9100 -0.9100
53.8000 17.9167 -0.9078
53.8200 17.9233 -0.8943
53.8400 17.9300 -0.9151
53.8600 17.9367 -0.9086
53.8800 17.9433 -0.8996
53.9000 17.9499 -0.9125
53.9200 17.9566 -0.9074
53.9400 17.9633 -0.8992
53.9600 17.9700 -0.9157
53.9800 17.9767 -0.9075
54.0000 17.9834 -0.9082
54.0200 17.9901 -0.9151
54.0400 17.9967 -0.9046
54.0600 18.0034 -0.9093
54.0800 18.0100 -0.9197
54.1000 18.0166 -0.9050
54.1200 18.0233 -0.9097
54.1400 18.0300 -0.9182
54.1600 18.0367 -0.9128
54.1800 18.0434 -0.9116
54.2000 18.0501 -0.9205
54.2200 18.0568 -0.9067
54.2400 18.0634 -0.9172
54.2600 18.0700 -0.9199
54.2800 18.0766 -0.9064
54.3000 18.0833 -0.9204
54.3200 18.0900 -0.9246
54.3400 18.0967 -0.9088
54.3600 18.1034 -0.9170
54.3800 18.1100 -0.9258
54.4000 18.1167 -0.9136
54.4200 18.1233 -0.9163
54.4400 18.1299 -0.9258
54.4600 18.1366 -0.9112
54.4800 18.1433 -0.9187
54.5000 18.1500 -0.9283
54.5200 18.1567 -0.9160
54.5400 18.1633 -0.9238
54.5600 18.1700 -0.9270
54.5800 18.1767 -0.9196
54.6000 18.1833 -0.9193
54.6200 18.1899 -0.9305
54.6400 18.1966 -0.9179
54.6600 18.2033 -0.9197
54.6800 18.2100 -0.9321
54.7000 18.2167 -0.9228
54.7200 18.2234 -0.9236
54.7400 18.2301 -0.9308
54.7600 18.2368 -0.9232
54.7800 18.2434 -0.9261
54.8000 18.2500 -0.9298
54.8200 18.2566 -0.9240
54.8400 18.2633 -0.9313
54.8600 18.2700 -0.9345
54.8800 18.2767 -0.9188
54.9000 18.2834 -0.9362
54.9200 18.2901 -0.9357
54.9400 18.2967 -0.9241
54.9600 18.3034 -0.9332
54.9800 18.3100 -0.9309
55.0000 18.3166 -0.9252
55.0200 18.3233 -0.9370
55.0400 18.3300 -0.9347
55.0600 18.3367 -0.9294
55.0800 18.3433 -0.9388
55.1000 18.3500 -0.9335
55.1200 18.3567 -0.9289
55.1400 18.3633 -0.9407
55.1600 18.3699 -0.9337
55.1800 18.3765 -0.9300
55.2000 18.3832 -0.9438
55.2200 18.3899 -0.9360
55.2400 18.3966 -0.9361
55.2600 18.4033 -0.9424
55.2800 18.4100 -0.9402
55.3000 18.4167 -0.9354
55.3200 18.4233 -0.9444
55.3400 18.4299 -0.9397
55.3600 18.4366 -0.9368
55.3800 18.4433 -0.9411
55.4000 18.4500 -0.9434
55.4200 18.4567 -0.9415
55.4400 18.4634 -0.9418
55.4600 18.4701 -0.9410
55.4800 18.4768 -0.9415
55.5000 18.4834 -0.9406
55.5200 18.4900 -0.9436
55.5400 18.4966 -0.9424
55.5600 18.5033 -0.9454
55.5800 18.5100 -0.9414
55.6000 18.5167 -0.9429
55.6200 18.5234 -0.9456
55.6400 18.5300 -0.9450
55.6600 18.5367 -0.9461
55.6800 18.5434 -0.9507
55.7000 18.5500 -0.9437
55.7200 18.5566 -0.9451
55.7400 18.5633 -0.9519
55.7600 18.5700 -0.9465
55.7800 18.5767 -0.9466
55.8000 18.5834 -0.9512
55.8200 18.5900 -0.9494
55.8400 18.5967 -0.9450
55.8600 18.6034 -0.9525
55.8800 18.6100 -0.9457
55.9000 18.6166 -0.9503
55.9200 18.6232 -0.9518
55.9400 18.6300 -0.9493
55.9600 18.6367 -0.9494
55.9800 18.6434 -0.9550
56.0000 18.6500 -0.9506
56.0200 18.6567 -0.9510
56.0400 18.6634 -0.9549
56.0600 18.6700 -0.9513
56.0800 18.6766 -0.9521
56.1000 18.6833 -0.9557
56.1200 18.6900 -0.9506
56.1400 18.6967 -0.9570
56.1600 18.7034 -0.9531
56.1800 18.7101 -0.9488
56.2000 18.7168 -0.9569
56.2200 18.7234 -0.9573
56.2400 18.7300 -0.9523
56.2600 18.7366 -0.9598
56.2800 18.7433 -0.9576
56.3000 18.7500 -0.9561
56.3200 18.7567 -0.9605
56.3400 18.7634 -0.9526
56.3600 18.7701 -0.9558
56.3800 18.7767 -0.9642
56.4000 18.7834 -0.9592
56.4200 18.7900 -0.9597
56.4400 18.7966 -0.9626
56.4600 18.8033 -0.9585
56.4800 18.8100 -0.9640
56.5000 18.8167 -0.9610
56.5200 18.8234 -0.9635
56.5400 18.8300 -0.9623
56.5600 18.8367 -0.9639
56.5800 18.8434 -0.9636
56.6000 18.8500 -0.9626
56.6200 18.8566 -0.9655
56.6400 18.8632 -0.9683
56.6600 18.8699 -0.9600
56.6800 18.8766 -0.9677
56.7000 18.8833 -0.9689
56.7200 18.8900 -0.9669
56.7400 18.8967 -0.9663
56.7600 18.9034 -0.9710
56.7800 18.9100 -0.9688
56.8000 18.9166 -0.9668
56.8200 18.9233 -0.9698
56.8400 18.9300 -0.9710
56.8600 18.9367 -0.9702
56.8800 18.9434 -0.9721
56.9000 18.9501 -0.9708
56.9200 18.9568 -0.9738
56.9400 18.9634 -0.9787
56.9600 18.9700 -0.9713
56.9800 18.9766 -0.9696
57.0000 18.9833 -0.9777
57.0200 18.9900 -0.9756
57.0400 18.9967 -0.9709
57.0600 19.0034 -0.9815
57.0800 19.0101 -0.9735
57.1000 19.0167 -0.9769
57.1200 19.0234 -0.9835
57.1400 19.0300 -0.9765
57.1600 19.0366 -0.9810
57.1800 19.0432 -0.9830
57.2000 19.0499 -0.9743
57.2200 19.0566 -0.9880
57.2400 19.0633 -0.9874
57.2600 19.0700 -0.9728
57.2800 19.0767 -0.9830
57.3000 19.0834 -0.9906
57.3200 19.0900 -0.9784
57.3400 19.0966 -0.9908
57.3600 19.1032 -0.9826
57.3800 19.1099 -0.9806
57.4000 19.1167 -0.9896
57.4200 19.1233 -0.9855
57.4400 19.1300 -0.9852
57.4600 19.1367 -0.9921
57.4800 19.1434 -0.9909
57.5000 19.1500 -0.9854
57.5200 19.1566 -0.9923
57.5400 19.1633 -0.9890
57.5600 19.1700 -0.9864
57.5800 19.1767 -0.9896
57.6000 19.1834 -0.9900
57.6200 19.1901 -0.9924
57.6400 19.1967 -0.9920
57.6600 19.2034 -0.9919
57.6800 19.2100 -0.9971
57.7000 19.2166 -0.9907
57.7200 19.2233 -0.9908
57.7400 19.2300 -0.9961
57.7600 19.2367 -0.9932
57.7800 19.2434 -0.9911
57.8000 19.2501 -0.9937
57.8200 19.2568 -0.9936
57.8400 19.2634 -0.9990
57.8600 19.2700 -0.9978
57.8800 19.2766 -0.9947
57.9000 19.2832 -1.0009
57.9200 19.2899 -1.0008
57.9400 19.2967 -0.9941
57.9600 19.3033 -1.0050
57.9800 19.3100 -1.0034
58.0000 19.3167 -0.9956
58.0200 19.3234 -1.0072
58.0400 19.3300 -1.0054
58.0600 19.3366 -0.9992
58.0800 19.3432 -1.0122
58.1000 19.3499 -1.0053
58.1200 19.3566 -1.0014
58.1400 19.3633 -1.0110
58.1600 19.3700 -1.0058
58.1800 19.3767 -1.0069
58.2000 19.3834 -1.0150
58.2200 19.3900 -1.0103
58.2400 19.3966 -1.0055
58.2600 19.4033 -1.0169
58.2800 19.4100 -1.0045
58.3000 19.4167 -1.0088
58.3200 19.4234 -1.0210
58.3400 19.4301 -1.0057
58.3600 19.4368 -1.0125
58.3800 19.4434 -1.0234
58.4000 19.4500 -1.0148
58.4200 19.4566 -1.0162
58.4400 19.4633 -1.0176
58.4600 19.4700 -1.0197
58.4800 19.4767 -1.0176
58.5000 19.4834 -1.0213
58.5200 19.4901 -1.0198
58.5400 19.4967 -1.0208
58.5600 19.5034 -1.0246
58.5800 19.5100 -1.0191
58.6000 19.5166 -1.0225
58.6200 19.5233 -1.0254
58.6400 19.5300 -1.0237
58.6600 19.5367 -1.0221
58.6800 19.5434 -1.0296
58.7000 19.5500 -1.0269
58.7200 19.5567 -1.0208
58.7400 19.5634 -1.0347
58.7600 19.5700 -1.0268
58.7800 19.5766 -1.0262
58.8000 19.5832 -1.0380
58.8200 19.5899 -1.0310
58.8400 19.5966 -1.0265
58.8600 19.6033 -1.0372
58.8800 19.6100 -1.0279
58.9000 19.6167 -1.0371
58.9200 19.6234 -1.0406
58.9400 19.6300 -1.0241
58.9600 19.6366 -1.0405
58.9800 19.6432 -1.0378
59.0000 19.6500 -1.0265
59.0200 19.6567 -1.0455
59.0400 19.6634 -1.0359
59.0600 19.6701 -1.0292
59.0800 19.6767 -1.0500
59.1000 19.6834 -1.0359
59.1200 19.6901 -1.0384
59.1400 19.6967 -1.0497
59.1600 19.7033 -1.0353
59.1800 19.7100 -1.0366
59.2000 19.7167 -1.0540
59.2200 19.7234 -1.0368
59.2400 19.7301 -1.0363
59.2600 19.7367 -1.0565
59.2800 19.7434 -1.0392
59.3000 19.7500 -1.0510
59.3010 19.7503 -1.0538
