Raw Data
Time Displacement Force
(s) (mm) (N)
0.0000 0.0001 0.0485
0.0200 0.0001 0.0622
0.0400 0.0008 0.0893
0.0600 0.0041 0.0955
0.0800 0.0096 0.0593
0.1000 0.0154 0.0547
0.1200 0.0213 0.0701
0.1400 0.0279 0.0723
0.1600 0.0352 0.0577
0.1800 0.0426 0.0592
0.2000 0.0497 0.0553
0.2200 0.0566 0.0592
0.2400 0.0633 0.0603
0.2600 0.0700 0.0584
0.2800 0.0766 0.0685
0.3000 0.0833 0.0624
0.3200 0.0901 0.0594
0.3400 0.0968 0.0689
0.3600 0.1035 0.0626
0.3800 0.1101 0.0695
0.4000 0.1167 0.0737
0.4200 0.1234 0.0669
0.4400 0.1301 0.0726
0.4600 0.1368 0.0748
0.4800 0.1435 0.0703
0.5000 0.1502 0.0782
0.5200 0.1569 0.0786
0.5400 0.1635 0.0723
0.5600 0.1701 0.0845
0.5800 0.1767 0.0844
0.6000 0.1834 0.0742
0.6200 0.1901 0.0881
0.6400 0.1968 0.0894
0.6600 0.2035 0.0780
0.6800 0.2102 0.0952
0.7000 0.2168 0.0907
0.7200 0.2235 0.0784
0.7400 0.2301 0.0958
0.7600 0.2367 0.0984
0.7800 0.2434 0.0884
0.8000 0.2501 0.1037
0.8200 0.2568 0.0926
0.8400 0.2635 0.0912
0.8600 0.2701 0.1036
0.8800 0.2768 0.0972
0.9000 0.2835 0.0965
0.9200 0.2901 0.1045
0.9400 0.2967 0.0999
0.9600 0.3034 0.0958
0.9800 0.3101 0.1065
1.0000 0.3168 0.1021
1.0200 0.3234 0.0919
1.0400 0.3301 0.1051
1.0600 0.3368 0.1017
1.0800 0.3434 0.0972
1.1000 0.3500 0.1043
1.1200 0.3567 0.1012
1.1400 0.3634 0.0971
1.1600 0.3701 0.1067
1.1800 0.3768 0.1011
1.2000 0.3835 0.0922
1.2200 0.3902 0.1007
1.2400 0.3969 0.0955
1.2600 0.4035 0.0909
1.2800 0.4101 0.0972
1.3000 0.4168 0.0997
1.3200 0.4235 0.0931
1.3400 0.4301 0.0946
1.3600 0.4368 0.0916
1.3800 0.4435 0.0924
1.4000 0.4502 0.0897
1.4200 0.4569 0.0885
1.4400 0.4635 0.0905
1.4600 0.4701 0.0851
1.4800 0.4767 0.0903
1.5000 0.4833 0.0919
1.5200 0.4901 0.0807
1.5400 0.4968 0.0888
1.5600 0.5035 0.0833
1.5800 0.5101 0.0794
1.6000 0.5168 0.0884
1.6200 0.5235 0.0816
1.6400 0.5301 0.0742
1.6600 0.5367 0.0921
1.6800 0.5434 0.0790
1.7000 0.5501 0.0707
1.7200 0.5568 0.0860
1.7400 0.5635 0.0780
1.7600 0.5701 0.0700
1.7800 0.5768 0.0829
1.8000 0.5835 0.0693
1.8200 0.5901 0.0672
1.8400 0.5968 0.0812
1.8600 0.6034 0.0709
1.8800 0.6101 0.0697
1.9000 0.6168 0.0758
1.9200 0.6235 0.0679
1.9400 0.6302 0.0714
1.9600 0.6369 0.0702
1.9800 0.6435 0.0654
2.0000 0.6501 0.0764
2.0200 0.6567 0.0665
2.0400 0.6634 0.0606
2.0600 0.6701 0.0743
2.0800 0.6768 0.0656
2.1000 0.6835 0.0617
2.1200 0.6902 0.0743
2.1400 0.6969 0.0588
2.1600 0.7035 0.0663
2.1800 0.7101 0.0671
2.2000 0.7167 0.0591
2.2200 0.7234 0.0675
2.2400 0.7301 0.0724
2.2600 0.7368 0.0584
2.2800 0.7435 0.0590
2.3000 0.7501 0.0696
2.3200 0.7568 0.0603
2.3400 0.7635 0.0589
2.3600 0.7701 0.0681
2.3800 0.7767 0.0552
2.4000 0.7834 0.0649
2.4200 0.7901 0.0657
2.4400 0.7968 0.0565
2.4600 0.8035 0.0611
2.4800 0.8101 0.0665
2.5000 0.8169 0.0603
2.5200 0.8235 0.0562
2.5400 0.8301 0.0583
2.5600 0.8367 0.0605
2.5800 0.8434 0.0624
2.6000 0.8501 0.0542
2.6200 0.8569 0.0538
2.6400 0.8636 0.0673
2.6600 0.8702 0.0516
2.6800 0.8769 0.0535
2.7000 0.8835 0.0664
2.7200 0.8901 0.0580
2.7400 0.8967 0.0535
2.7600 0.9034 0.0587
2.7800 0.9101 0.0564
2.8000 0.9168 0.0498
2.8200 0.9235 0.0655
2.8400 0.9302 0.0518
2.8600 0.9369 0.0525
2.8800 0.9435 0.0616
2.9000 0.9501 0.0500
2.9200 0.9567 0.0542
2.9400 0.9634 0.0588
2.9600 0.9701 0.0488
2.9800 0.9768 0.0491
3.0000 0.9835 0.0543
3.0200 0.9902 0.0530
3.0400 0.9969 0.0442
3.0600 1.0035 0.0549
3.0800 1.0101 0.0464
3.1000 1.0167 0.0472
3.1200 1.0233 0.0556
3.1400 1.0301 0.0430
3.1600 1.0368 0.0440
3.1800 1.0435 0.0534
3.2000 1.0501 0.0455
3.2200 1.0568 0.0413
3.2400 1.0635 0.0545
3.2600 1.0701 0.0478
3.2800 1.0767 0.0390
3.3000 1.0834 0.0495
3.3200 1.0901 0.0446
3.3400 1.0968 0.0392
3.3600 1.1035 0.0500
3.3800 1.1102 0.0452
3.4000 1.1169 0.0389
3.4200 1.1236 0.0481
3.4400 1.1302 0.0422
3.4600 1.1368 0.0351
3.4800 1.1434 0.0508
3.5000 1.1501 0.0407
3.5200 1.1568 0.0367
3.5400 1.1635 0.0479
3.5600 1.1702 0.0437
3.5800 1.1769 0.0376
3.6000 1.1835 0.0431
3.6200 1.1901 0.0411
3.6400 1.1967 0.0417
3.6600 1.2034 0.0432
3.6800 1.2101 0.0393
3.7000 1.2168 0.0332
3.7200 1.2235 0.0442
3.7400 1.2302 0.0414
3.7600 1.2368 0.0364
3.7800 1.2435 0.0440
3.8000 1.2501 0.0414
3.8200 1.2567 0.0319
3.8400 1.2634 0.0498
3.8600 1.2701 0.0376
3.8800 1.2768 0.0326
3.9000 1.2835 0.0438
3.9200 1.2901 0.0389
3.9400 1.2968 0.0315
3.9600 1.3035 0.0431
3.9800 1.3101 0.0401
4.0000 1.3167 0.0319
4.0200 1.3234 0.0467
4.0400 1.3301 0.0392
4.0600 1.3368 0.0314
4.0800 1.3435 0.0424
4.1000 1.3502 0.0369
4.1200 1.3569 0.0294
4.1400 1.3635 0.0447
4.1600 1.3701 0.0374
4.1800 1.3767 0.0325
4.2000 1.3834 0.0442
4.2200 1.3901 0.0396
4.2400 1.3968 0.0271
4.2600 1.4035 0.0443
4.2800 1.4102 0.0351
4.3000 1.4169 0.0316
4.3200 1.4235 0.0441
4.3400 1.4301 0.0391
4.3600 1.4367 0.0326
4.3800 1.4434 0.0449
4.4000 1.4501 0.0334
4.4200 1.4568 0.0309
4.4400 1.4635 0.0390
4.4600 1.4701 0.0359
4.4800 1.4768 0.0297
4.5000 1.4835 0.0383
4.5200 1.4901 0.0320
4.5400 1.4967 0.0357
4.5600 1.5034 0.0388
4.5800 1.5101 0.0276
4.6000 1.5168 0.0330
4.6200 1.5235 0.0364
4.6400 1.5302 0.0282
4.6600 1.5368 0.0339
4.6800 1.5435 0.0351
4.7000 1.5501 0.0260
4.7200 1.5567 0.0360
4.7400 1.5634 0.0327
4.7600 1.5701 0.0275
4.7800 1.5768 0.0327
4.8000 1.5835 0.0309
4.8200 1.5902 0.0294
4.8400 1.5969 0.0319
4.8600 1.6035 0.0252
4.8800 1.6102 0.0315
4.9000 1.6168 0.0275
4.9200 1.6234 0.0275
4.9400 1.6301 0.0315
4.9600 1.6368 0.0310
4.9800 1.6435 0.0274
5.0000 1.6502 0.0295
5.0200 1.6569 0.0240
5.0400 1.6636 0.0253
5.0600 1.6702 0.0233
5.0800 1.6768 0.0240
5.1000 1.6834 0.0274
5.1200 1.6900 0.0241
5.1400 1.6968 0.0218
5.1600 1.7035 0.0260
5.1800 1.7102 0.0179
5.2000 1.7169 0.0279
5.2200 1.7235 0.0244
5.2400 1.7302 0.0138
5.2600 1.7367 0.0228
5.2800 1.7434 0.0257
5.3000 1.7500 0.0172
5.3200 1.7568 0.0257
5.3400 1.7635 0.0231
5.3600 1.7701 0.0125
5.3800 1.7768 0.0269
5.4000 1.7835 0.0246
5.4200 1.7901 0.0093
5.4400 1.7967 0.0247
5.4600 1.8034 0.0234
5.4800 1.8101 0.0029
5.5000 1.8168 0.0237
5.5200 1.8235 0.0248
5.5400 1.8302 0.0007
5.5600 1.8369 0.0286
5.5800 1.8436 0.0158
5.6000 1.8502 -0.0073
5.6200 1.8568 0.0357
5.6400 1.8634 0.0120
5.6600 1.8701 -0.0054
5.6800 1.8768 0.0350
5.7000 1.8835 0.0124
5.7200 1.8902 0.0016
5.7400 1.8969 0.0247
5.7600 1.9035 0.0035
5.7800 1.9101 0.0087
5.8000 1.9167 0.0273
5.8200 1.9234 0.0000
5.8400 1.9301 0.0115
5.8600 1.9368 0.0279
5.8800 1.9435 -0.0082
5.9000 1.9501 0.0180
5.9200 1.9568 0.0203
5.9400 1.9635 -0.0089
5.9600 1.9701 0.0162
5.9800 1.9767 0.0154
6.0000 1.9834 -0.0068
6.0200 1.9900 0.0232
6.0400 1.9968 0.0104
6.0600 2.0035 -0.0053
6.0800 2.0101 0.0209
6.1000 2.0168 0.0055
6.1200 2.0235 -0.0022
6.1400 2.0302 0.0172
6.1600 2.0368 -0.0004
6.1800 2.0434 0.0003
6.2000 2.0501 0.0176
6.2200 2.0568 0.0021
6.2400 2.0635 0.0009
6.2600 2.0702 0.0134
6.2800 2.0769 0.0032
6.3000 2.0835 -0.0027
6.3200 2.0902 0.0099
6.3400 2.0968 -0.0009
6.3600 2.1034 0.0012
6.3800 2.1101 0.0081
6.4000 2.1168 0.0004
6.4200 2.1235 -0.0033
6.4400 2.1302 0.0042
6.4600 2.1368 0.0045
6.4800 2.1435 -0.0003
6.5000 2.1502 -0.0006
6.5200 2.1568 0.0079
6.5400 2.1634 -0.0051
6.5600 2.1701 -0.0002
6.5800 2.1768 0.0022
6.6000 2.1835 -0.0030
6.6200 2.1902 0.0023
6.6400 2.1969 0.0008
6.6600 2.2036 -0.0045
6.6800 2.2102 -0.0019
6.7000 2.2168 0.0007
6.7200 2.2234 -0.0034
6.7400 2.2300 0.0010
6.7600 2.2367 -0.0002
6.7800 2.2434 -0.0080
6.8000 2.2501 -0.0048
6.8200 2.2568 0.0000
6.8400 2.2635 -0.0021
6.8600 2.2702 -0.0115
6.8800 2.2768 -0.0020
6.9000 2.2834 -0.0061
6.9200 2.2901 -0.0077
6.9400 2.2968 0.0036
6.9600 2.3035 -0.0084
6.9800 2.3102 -0.0091
7.0000 2.3168 -0.0022
7.0200 2.3235 -0.0057
7.0400 2.3302 -0.0142
7.0600 2.3368 0.0010
7.0800 2.3434 -0.0059
7.1000 2.3501 -0.0128
7.1200 2.3568 -0.0003
7.1400 2.3635 -0.0078
7.1600 2.3702 -0.0135
7.1800 2.3769 0.0039
7.2000 2.3836 -0.0140
7.2200 2.3902 -0.0143
7.2400 2.3968 0.0016
7.2600 2.4034 -0.0101
7.2800 2.4101 -0.0167
7.3000 2.4168 -0.0008
7.3200 2.4235 -0.0140
7.3400 2.4302 -0.0163
7.3600 2.4368 0.0030
7.3800 2.4435 -0.0147
7.4000 2.4502 -0.0179
7.4200 2.4568 0.0005
7.4400 2.4634 -0.0142
7.4600 2.4701 -0.0157
7.4800 2.4768 0.0000
7.5000 2.4835 -0.0156
7.5200 2.4901 -0.0180
7.5400 2.4968 -0.0028
7.5600 2.5035 -0.0153
7.5800 2.5102 -0.0205
7.6000 2.5168 -0.0046
7.6200 2.5234 -0.0129
7.6400 2.5301 -0.0203
7.6600 2.5368 -0.0076
7.6800 2.5435 -0.0134
7.7000 2.5502 -0.0208
7.7200 2.5569 -0.0057
7.7400 2.5636 -0.0182
7.7600 2.5702 -0.0220
7.7800 2.5768 -0.0042
7.8000 2.5834 -0.0155
7.8200 2.5901 -0.0248
7.8400 2.5968 -0.0026
7.8600 2.6035 -0.0189
7.8800 2.6102 -0.0290
7.9000 2.6169 -0.0042
7.9200 2.6235 -0.0147
7.9400 2.6302 -0.0301
7.9600 2.6368 -0.0076
7.9800 2.6434 -0.0194
8.0000 2.6501 -0.0281
8.0200 2.6568 -0.0086
8.0400 2.6635 -0.0179
8.0600 2.6701 -0.0307
8.0800 2.6768 -0.0061
8.1000 2.6835 -0.0181
8.1200 2.6902 -0.0335
8.1400 2.6968 -0.0089
8.1600 2.7034 -0.0157
8.1800 2.7100 -0.0301
8.2000 2.7167 -0.0131
8.2200 2.7235 -0.0233
8.2400 2.7302 -0.0273
8.2600 2.7369 -0.0077
8.2800 2.7435 -0.0301
8.3000 2.7502 -0.0315
8.3200 2.7568 -0.0046
8.3400 2.7634 -0.0309
8.3600 2.7700 -0.0275
8.3800 2.7767 -0.0080
8.4000 2.7835 -0.0333
8.4200 2.7902 -0.0283
8.4400 2.7968 -0.0127
8.4600 2.8035 -0.0333
8.4800 2.8102 -0.0302
8.5000 2.8168 -0.0113
8.5200 2.8234 -0.0337
8.5400 2.8301 -0.0295
8.5600 2.8368 -0.0131
8.5800 2.8435 -0.0317
8.6000 2.8502 -0.0346
8.6200 2.8569 -0.0162
8.6400 2.8635 -0.0296
8.6600 2.8702 -0.0325
8.6800 2.8768 -0.0270
8.7000 2.8834 -0.0241
8.7200 2.8901 -0.0288
8.7400 2.8968 -0.0274
8.7600 2.9035 -0.0297
8.7800 2.9101 -0.0265
8.8000 2.9168 -0.0305
8.8200 2.9235 -0.0331
8.8400 2.9302 -0.0244
8.8600 2.9368 -0.0322
8.8800 2.9434 -0.0348
8.9000 2.9500 -0.0262
8.9200 2.9567 -0.0345
8.9400 2.9634 -0.0340
8.9600 2.9701 -0.0280
8.9800 2.9768 -0.0364
9.0000 2.9835 -0.0353
9.0200 2.9902 -0.0321
9.0400 2.9968 -0.0334
9.0600 3.0034 -0.0311
9.0800 3.0101 -0.0344
9.1000 3.0168 -0.0325
9.1200 3.0235 -0.0297
9.1400 3.0302 -0.0358
9.1600 3.0369 -0.0322
9.1800 3.0436 -0.0318
9.2000 3.0502 -0.0371
9.2200 3.0569 -0.0334
9.2400 3.0634 -0.0323
9.2600 3.0701 -0.0380
9.2800 3.0768 -0.0312
9.3000 3.0835 -0.0374
9.3200 3.0902 -0.0385
9.3400 3.0969 -0.0322
9.3600 3.1036 -0.0354
9.3800 3.1102 -0.0419
9.4000 3.1168 -0.0323
9.4200 3.1234 -0.0357
9.4400 3.1300 -0.0397
9.4600 3.1367 -0.0341
9.4800 3.1435 -0.0361
9.5000 3.1501 -0.0388
9.5200 3.1568 -0.0337
9.5400 3.1635 -0.0385
9.5600 3.1702 -0.0366
9.5800 3.1768 -0.0326
9.6000 3.1834 -0.0373
9.6200 3.1901 -0.0390
9.6400 3.1967 -0.0353
9.6600 3.2034 -0.0384
9.6800 3.2101 -0.0423
9.7000 3.2168 -0.0357
9.7200 3.2235 -0.0405
9.7400 3.2301 -0.0398
9.7600 3.2368 -0.0427
9.7800 3.2434 -0.0405
9.8000 3.2500 -0.0330
9.8200 3.2567 -0.0401
9.8400 3.2635 -0.0407
9.8600 3.2702 -0.0380
9.8800 3.2769 -0.0380
9.9000 3.2836 -0.0433
9.9200 3.2902 -0.0384
9.9400 3.2968 -0.0370
9.9600 3.3034 -0.0470
9.9800 3.3100 -0.0315
10.0000 3.3168 -0.0431
10.0200 3.3235 -0.0444
10.0400 3.3302 -0.0404
10.0600 3.3369 -0.0399
10.0800 3.3435 -0.0448
10.1000 3.3502 -0.0401
10.1200 3.3568 -0.0409
10.1400 3.3634 -0.0444
10.1600 3.3701 -0.0347
10.1800 3.3767 -0.0455
10.2000 3.3834 -0.0436
10.2200 3.3901 -0.0377
10.2400 3.3968 -0.0477
10.2600 3.4035 -0.0422
10.2800 3.4102 -0.0431
10.3000 3.4168 -0.0474
10.3200 3.4234 -0.0419
10.3400 3.4300 -0.0420
10.3600 3.4367 -0.0528
10.3800 3.4434 -0.0430
10.4000 3.4501 -0.0430
10.4200 3.4568 -0.0555
10.4400 3.4635 -0.0397
10.4600 3.4702 -0.0435
10.4800 3.4768 -0.0488
10.5000 3.4834 -0.0461
10.5200 3.4901 -0.0449
10.5400 3.4968 -0.0429
10.5600 3.5035 -0.0422
10.5800 3.5102 -0.0513
10.6000 3.5168 -0.0498
10.6200 3.5235 -0.0431
10.6400 3.5302 -0.0482
10.6600 3.5369 -0.0584
10.6800 3.5435 -0.0443
10.7000 3.5501 -0.0457
10.7200 3.5567 -0.0510
10.7400 3.5634 -0.0488
10.7600 3.5702 -0.0457
10.7800 3.5768 -0.0510
10.8000 3.5835 -0.0491
10.8200 3.5902 -0.0521
10.8400 3.5968 -0.0512
10.8600 3.6034 -0.0477
10.8800 3.6101 -0.0492
10.9000 3.6168 -0.0555
10.9200 3.6235 -0.0498
10.9400 3.6302 -0.0472
10.9600 3.6368 -0.0576
10.9800 3.6435 -0.0538
11.0000 3.6502 -0.0468
11.0200 3.6568 -0.0568
11.0400 3.6634 -0.0497
11.0600 3.6700 -0.0451
11.0800 3.6767 -0.0598
11.1000 3.6834 -0.0471
11.1200 3.6901 -0.0510
11.1400 3.6968 -0.0631
11.1600 3.7035 -0.0447
11.1800 3.7101 -0.0493
11.2000 3.7168 -0.0653
11.2200 3.7234 -0.0479
11.2400 3.7300 -0.0500
11.2600 3.7367 -0.0616
11.2800 3.7434 -0.0456
11.3000 3.7502 -0.0550
11.3200 3.7569 -0.0635
11.3400 3.7636 -0.0414
11.3600 3.7703 -0.0612
11.3800 3.7769 -0.0641
11.4000 3.7835 -0.0455
11.4200 3.7901 -0.0550
11.4400 3.7968 -0.0635
11.4600 3.8035 -0.0502
11.4800 3.8102 -0.0577
11.5000 3.8169 -0.0587
11.5200 3.8235 -0.0536
11.5400 3.8302 -0.0623
11.5600 3.8369 -0.0549
11.5800 3.8435 -0.0551
11.6000 3.8501 -0.0620
11.6200 3.8567 -0.0519
11.6400 3.8634 -0.0571
11.6600 3.8701 -0.0579
11.6800 3.8768 -0.0567
11.7000 3.8835 -0.0564
11.7200 3.8902 -0.0625
11.7400 3.8968 -0.0573
11.7600 3.9034 -0.0613
11.7800 3.9100 -0.0567
11.8000 3.9167 -0.0589
11.8200 3.9234 -0.0637
11.8400 3.9301 -0.0537
11.8600 3.9368 -0.0649
11.8800 3.9435 -0.0635
11.9000 3.9502 -0.0518
11.9200 3.9568 -0.0689
11.9400 3.9634 -0.0638
11.9600 3.9701 -0.0488
11.9800 3.9767 -0.0708
12.0000 3.9835 -0.0642
12.0200 3.9902 -0.0504
12.0400 3.9968 -0.0707
12.0600 4.0035 -0.0677
12.0800 4.0102 -0.0482
12.1000 4.0169 -0.0762
12.1200 4.0235 -0.0623
12.1400 4.0301 -0.0483
12.1600 4.0368 -0.0801
12.1800 4.0435 -0.0601
12.2000 4.0502 -0.0506
12.2200 4.0568 -0.0815
12.2400 4.0635 -0.0559
12.2600 4.0702 -0.0566
12.2800 4.0769 -0.0804
12.3000 4.0835 -0.0598
12.3200 4.0901 -0.0532
12.3400 4.0967 -0.0782
12.3600 4.1034 -0.0578
12.3800 4.1101 -0.0647
12.4000 4.1168 -0.0770
12.4200 4.1235 -0.0575
12.4400 4.1302 -0.0642
12.4600 4.1368 -0.0734
12.4800 4.1434 -0.0636
12.5000 4.1500 -0.0658
12.5200 4.1567 -0.0698
12.5400 4.1634 -0.0634
12.5600 4.1701 -0.0674
12.5800 4.1768 -0.0709
12.6000 4.1835 -0.0621
12.6200 4.1902 -0.0740
12.6400 4.1968 -0.0704
12.6600 4.2035 -0.0633
12.6800 4.2101 -0.0705
12.7000 4.2167 -0.0645
12.7200 4.2234 -0.0697
12.7400 4.2301 -0.0708
12.7600 4.2368 -0.0643
12.7800 4.2435 -0.0665
12.8000 4.2502 -0.0711
12.8200 4.2569 -0.0714
12.8400 4.2635 -0.0750
12.8600 4.2701 -0.0670
12.8800 4.2767 -0.0693
12.9000 4.2834 -0.0756
12.9200 4.2902 -0.0632
12.9400 4.2969 -0.0744
12.9600 4.3035 -0.0829
12.9800 4.3102 -0.0621
13.0000 4.3169 -0.0698
13.0200 4.3235 -0.0773
13.0400 4.3301 -0.0683
13.0600 4.3367 -0.0698
13.0800 4.3435 -0.0744
13.1000 4.3502 -0.0697
13.1200 4.3568 -0.0757
13.1400 4.3635 -0.0707
13.1600 4.3702 -0.0708
13.1800 4.3768 -0.0745
13.2000 4.3835 -0.0796
13.2200 4.3901 -0.0681
13.2400 4.3967 -0.0709
13.2600 4.4034 -0.0788
13.2800 4.4101 -0.0676
13.3000 4.4168 -0.0773
13.3200 4.4235 -0.0740
13.3400 4.4302 -0.0702
13.3600 4.4369 -0.0767
13.3800 4.4435 -0.0754
13.4000 4.4501 -0.0745
13.4200 4.4567 -0.0686
13.4400 4.4634 -0.0799
13.4600 4.4702 -0.0755
13.4800 4.4769 -0.0668
13.5000 4.4835 -0.0790
13.5200 4.4902 -0.0776
13.5400 4.4969 -0.0722
13.5600 4.5035 -0.0707
13.5800 4.5101 -0.0817
13.6000 4.5168 -0.0747
13.6200 4.5235 -0.0768
13.6400 4.5302 -0.0776
13.6600 4.5368 -0.0765
13.6800 4.5435 -0.0772
13.7000 4.5502 -0.0754
13.7200 4.5568 -0.0744
13.7400 4.5635 -0.0808
13.7600 4.5701 -0.0801
13.7800 4.5767 -0.0737
13.8000 4.5834 -0.0759
13.8200 4.5901 -0.0823
13.8400 4.5968 -0.0736
13.8600 4.6035 -0.0750
13.8800 4.6102 -0.0809
13.9000 4.6169 -0.0834
13.9200 4.6235 -0.0782
13.9400 4.6301 -0.0768
13.9600 4.6367 -0.0864
13.9800 4.6434 -0.0770
14.0000 4.6501 -0.0760
14.0200 4.6568 -0.0854
14.0400 4.6635 -0.0809
14.0600 4.6702 -0.0797
14.0800 4.6768 -0.0826
14.1000 4.6835 -0.0793
14.1200 4.6901 -0.0850
14.1400 4.6967 -0.0847
14.1600 4.7034 -0.0794
14.1800 4.7101 -0.0766
14.2000 4.7168 -0.0851
14.2200 4.7235 -0.0810
14.2400 4.7302 -0.0829
14.2600 4.7368 -0.0846
14.2800 4.7435 -0.0779
14.3000 4.7501 -0.0860
14.3200 4.7567 -0.0865
14.3400 4.7634 -0.0779
14.3600 4.7702 -0.0859
14.3800 4.7769 -0.0869
14.4000 4.7836 -0.0803
14.4200 4.7903 -0.0834
14.4400 4.7969 -0.0884
14.4600 4.8035 -0.0846
14.4800 4.8101 -0.0888
14.5000 4.8167 -0.0797
14.5200 4.8234 -0.0885
14.5400 4.8301 -0.0926
14.5600 4.8368 -0.0807
14.5800 4.8435 -0.0846
14.6000 4.8501 -0.0934
14.6200 4.8568 -0.0852
14.6400 4.8635 -0.0876
14.6600 4.8701 -0.0930
14.6800 4.8767 -0.0845
14.7000 4.8834 -0.0871
14.7200 4.8901 -0.0956
14.7400 4.8968 -0.0865
14.7600 4.9035 -0.0874
14.7800 4.9101 -0.0912
14.8000 4.9168 -0.0869
14.8200 4.9235 -0.0942
14.8400 4.9301 -0.0911
14.8600 4.9367 -0.0848
14.8800 4.9434 -0.0945
14.9000 4.9501 -0.0931
14.9200 4.9568 -0.0882
14.9400 4.9635 -0.0879
14.9600 4.9702 -0.0945
14.9800 4.9769 -0.0932
15.0000 4.9835 -0.0909
15.0200 4.9901 -0.0950
15.0400 4.9967 -0.0879
15.0600 5.0034 -0.0982
15.0800 5.0101 -0.0924
15.1000 5.0168 -0.0906
15.1200 5.0234 -0.0924
15.1400 5.0301 -0.0982
15.1600 5.0368 -0.0911
15.1800 5.0435 -0.0925
15.2000 5.0501 -0.0979
15.2200 5.0568 -0.0874
15.2400 5.0635 -0.0952
15.2600 5.0702 -0.0993
15.2800 5.0768 -0.0858
15.3000 5.0835 -0.0958
15.3200 5.0902 -0.1047
15.3400 5.0969 -0.0883
15.3600 5.1035 -0.0949
15.3800 5.1101 -0.1072
15.4000 5.1167 -0.0888
15.4200 5.1233 -0.0962
15.4400 5.1301 -0.1037
15.4600 5.1368 -0.0881
15.4800 5.1435 -0.1026
15.5000 5.1501 -0.1008
15.5200 5.1568 -0.0919
15.5400 5.1635 -0.1047
15.5600 5.1701 -0.0995
15.5800 5.1767 -0.0863
15.6000 5.1834 -0.1065
15.6200 5.1901 -0.1025
15.6400 5.1968 -0.0915
15.6600 5.2035 -0.1040
15.6800 5.2102 -0.0993
15.7000 5.2169 -0.0956
15.7200 5.2235 -0.1086
15.7400 5.2302 -0.0964
15.7600 5.2368 -0.0966
15.7800 5.2435 -0.1028
15.8000 5.2502 -0.1011
15.8200 5.2569 -0.0948
15.8400 5.2635 -0.1032
15.8600 5.2702 -0.0997
15.8800 5.2769 -0.0984
15.9000 5.2835 -0.1014
15.9200 5.2901 -0.1040
15.9400 5.2967 -0.1018
15.9600 5.3034 -0.0946
15.9800 5.3101 -0.1040
16.0000 5.3168 -0.1059
16.0200 5.3235 -0.0948
16.0400 5.3302 -0.1067
16.0600 5.3368 -0.1030
16.0800 5.3435 -0.0946
16.1000 5.3501 -0.1098
16.1200 5.3567 -0.1028
16.1400 5.3634 -0.0928
16.1600 5.3701 -0.1088
16.1800 5.3768 -0.1055
16.2000 5.3835 -0.0951
16.2200 5.3902 -0.1111
16.2400 5.3968 -0.0993
16.2600 5.4035 -0.0986
16.2800 5.4102 -0.1151
16.3000 5.4168 -0.1018
16.3200 5.4234 -0.0949
16.3400 5.4301 -0.1174
16.3600 5.4368 -0.1008
16.3800 5.4435 -0.0995
16.4000 5.4502 -0.1128
16.4200 5.4569 -0.0995
16.4400 5.4635 -0.1072
16.4600 5.4701 -0.1115
16.4800 5.4767 -0.0912
16.5000 5.4834 -0.1052
16.5200 5.4901 -0.1112
16.5400 5.4968 -0.1011
16.5600 5.5035 -0.1038
16.5800 5.5102 -0.1076
16.6000 5.5169 -0.1029
16.6200 5.5235 -0.1132
16.6400 5.5301 -0.1073
16.6600 5.5367 -0.1014
16.6800 5.5434 -0.1100
16.7000 5.5500 -0.1104
16.7200 5.5567 -0.0987
16.7400 5.5634 -0.1099
16.7600 5.5701 -0.1102
16.7800 5.5768 -0.0959
16.8000 5.5835 -0.1072
16.8200 5.5902 -0.1175
16.8400 5.5968 -0.1073
16.8600 5.6034 -0.1013
16.8800 5.6101 -0.1123
16.9000 5.6168 -0.1005
16.9200 5.6235 -0.1090
16.9400 5.6302 -0.1216
16.9600 5.6369 -0.1008
16.9800 5.6435 -0.1071
17.0000 5.6501 -0.1186
17.0200 5.6567 -0.1016
17.0400 5.6634 -0.1076
17.0600 5.6701 -0.1164
17.0800 5.6768 -0.1017
17.1000 5.6835 -0.1068
17.1200 5.6902 -0.1174
17.1400 5.6969 -0.1042
17.1600 5.7035 -0.1191
17.1800 5.7101 -0.1089
17.2000 5.7167 -0.0960
17.2200 5.7234 -0.1204
17.2400 5.7301 -0.1153
17.2600 5.7368 -0.0988
17.2800 5.7435 -0.1156
17.3000 5.7502 -0.1135
17.3200 5.7569 -0.1023
17.3400 5.7635 -0.1205
17.3600 5.7701 -0.1113
17.3800 5.7768 -0.1017
17.4000 5.7834 -0.1201
17.4200 5.7901 -0.1054
17.4400 5.7968 -0.1080
17.4600 5.8035 -0.1158
17.4800 5.8102 -0.1081
17.5000 5.8168 -0.1110
17.5200 5.8235 -0.1203
17.5400 5.8301 -0.1073
17.5600 5.8367 -0.1111
17.5800 5.8433 -0.1192
17.6000 5.8501 -0.1069
17.6200 5.8568 -0.1218
17.6400 5.8635 -0.1163
17.6600 5.8702 -0.1087
17.6800 5.8768 -0.1201
17.7000 5.8835 -0.1126
17.7200 5.8901 -0.1112
17.7400 5.8968 -0.1139
17.7600 5.9034 -0.1075
17.7800 5.9101 -0.1194
17.8000 5.9168 -0.1159
17.8200 5.9235 -0.1111
17.8400 5.9302 -0.1199
17.8600 5.9369 -0.1191
17.8800 5.9436 -0.1071
17.9000 5.9502 -0.1184
17.9200 5.9568 -0.1165
17.9400 5.9634 -0.1116
17.9600 5.9701 -0.1240
17.9800 5.9768 -0.1110
18.0000 5.9835 -0.1127
18.0200 5.9902 -0.1297
18.0400 5.9969 -0.1069
18.0600 6.0035 -0.1154
18.0800 6.0101 -0.1233
18.1000 6.0167 -0.1189
18.1200 6.0234 -0.1117
18.1400 6.0301 -0.1180
18.1600 6.0368 -0.1247
18.1800 6.0435 -0.1195
18.2000 6.0502 -0.1120
18.2200 6.0568 -0.1201
18.2400 6.0635 -0.1268
18.2600 6.0701 -0.1113
18.2800 6.0768 -0.1248
18.3000 6.0834 -0.1235
18.3200 6.0900 -0.1085
18.3400 6.0967 -0.1261
18.3600 6.1034 -0.1221
18.3800 6.1101 -0.1100
18.4000 6.1168 -0.1230
18.4200 6.1235 -0.1245
18.4400 6.1302 -0.1141
18.4600 6.1368 -0.1272
18.4800 6.1434 -0.1188
18.5000 6.1501 -0.1063
18.5200 6.1568 -0.1324
18.5400 6.1635 -0.1213
18.5600 6.1702 -0.1157
18.5800 6.1769 -0.1242
18.6000 6.1835 -0.1254
18.6200 6.1902 -0.1176
18.6400 6.1967 -0.1185
18.6600 6.2034 -0.1230
18.6800 6.2101 -0.1240
18.7000 6.2168 -0.1191
18.7200 6.2235 -0.1212
18.7400 6.2302 -0.1208
18.7600 6.2369 -0.1212
18.7800 6.2435 -0.1267
18.8000 6.2502 -0.1231
18.8200 6.2568 -0.1132
18.8400 6.2634 -0.1293
18.8600 6.2701 -0.1214
18.8800 6.2768 -0.1208
18.9000 6.2835 -0.1298
18.9200 6.2901 -0.1198
18.9400 6.2968 -0.1210
18.9600 6.3035 -0.1296
18.9800 6.3101 -0.1192
19.0000 6.3167 -0.1237
19.0200 6.3234 -0.1311
19.0400 6.3300 -0.1155
19.0600 6.3367 -0.1261
19.0800 6.3434 -0.1351
19.1000 6.3501 -0.1152
19.1200 6.3568 -0.1237
19.1400 6.3635 -0.1306
19.1600 6.3701 -0.1155
19.1800 6.3767 -0.1297
19.2000 6.3834 -0.1216
19.2200 6.3901 -0.1197
19.2400 6.3969 -0.1296
19.2600 6.4035 -0.1233
19.2800 6.4102 -0.1187
19.3000 6.4169 -0.1357
19.3200 6.4235 -0.1274
19.3400 6.4302 -0.1155
19.3600 6.4368 -0.1254
19.3800 6.4434 -0.1262
19.4000 6.4501 -0.1223
19.4200 6.4568 -0.1312
19.4400 6.4635 -0.1207
19.4600 6.4702 -0.1229
19.4800 6.4769 -0.1308
19.5000 6.4836 -0.1277
19.5200 6.4902 -0.1237
19.5400 6.4968 -0.1287
19.5600 6.5034 -0.1259
19.5800 6.5100 -0.1238
19.6000 6.5168 -0.1273
19.6200 6.5235 -0.1247
19.6400 6.5302 -0.1269
19.6600 6.5369 -0.1314
19.6800 6.5435 -0.1211
19.7000 6.5501 -0.1349
19.7200 6.5567 -0.1295
19.7400 6.5633 -0.1194
19.7600 6.5700 -0.1303
19.7800 6.5767 -0.1298
19.8000 6.5835 -0.1257
19.8200 6.5901 -0.1319
19.8400 6.5968 -0.1295
19.8600 6.6035 -0.1194
19.8800 6.6101 -0.1378
19.9000 6.6168 -0.1280
19.9200 6.6234 -0.1228
19.9400 6.6301 -0.1345
19.9600 6.6368 -0.1264
19.9800 6.6435 -0.1292
20.0000 6.6502 -0.1320
20.0200 6.6569 -0.1224
20.0400 6.6636 -0.1366
20.0600 6.6702 -0.1310
20.0800 6.6768 -0.1177
20.1000 6.6834 -0.1354
20.1200 6.6901 -0.1354
20.1400 6.6968 -0.1186
20.1600 6.7035 -0.1362
20.1800 6.7102 -0.1367
20.2000 6.7169 -0.1210
20.2200 6.7235 -0.1384
20.2400 6.7302 -0.1313
20.2600 6.7368 -0.1257
20.2800 6.7434 -0.1371
20.3000 6.7501 -0.1215
20.3200 6.7568 -0.1308
20.3400 6.7635 -0.1351
20.3600 6.7701 -0.1277
20.3800 6.7768 -0.1301
20.4000 6.7835 -0.1346
20.4200 6.7901 -0.1291
20.4400 6.7968 -0.1359
20.4600 6.8034 -0.1341
20.4800 6.8101 -0.1222
20.5000 6.8168 -0.1400
20.5200 6.8235 -0.1322
20.5400 6.8301 -0.1258
20.5600 6.8368 -0.1451
20.5800 6.8435 -0.1318
20.6000 6.8502 -0.1310
20.6200 6.8568 -0.1393
20.6400 6.8634 -0.1307
20.6600 6.8701 -0.1338
20.6800 6.8768 -0.1421
20.7000 6.8835 -0.1323
20.7200 6.8902 -0.1313
20.7400 6.8969 -0.1444
20.7600 6.9036 -0.1334
20.7800 6.9102 -0.1395
20.8000 6.9168 -0.1365
20.8200 6.9234 -0.1279
20.8400 6.9301 -0.1389
20.8600 6.9368 -0.1375
20.8800 6.9435 -0.1333
20.9000 6.9502 -0.1411
20.9200 6.9569 -0.1386
20.9400 6.9635 -0.1319
20.9600 6.9702 -0.1434
20.9800 6.9768 -0.1418
21.0000 6.9834 -0.1324
21.0200 6.9901 -0.1366
21.0400 6.9968 -0.1398
21.0600 7.0035 -0.1391
21.0800 7.0101 -0.1424
21.1000 7.0168 -0.1350
21.1200 7.0235 -0.1374
21.1400 7.0302 -0.1417
21.1600 7.0368 -0.1398
21.1800 7.0434 -0.1390
21.2000 7.0500 -0.1412
21.2200 7.0567 -0.1372
21.2400 7.0634 -0.1351
21.2600 7.0701 -0.1451
21.2800 7.0768 -0.1370
21.3000 7.0835 -0.1402
21.3200 7.0901 -0.1474
21.3400 7.0968 -0.1307
21.3600 7.1034 -0.1416
21.3800 7.1101 -0.1505
21.4000 7.1168 -0.1367
21.4200 7.1235 -0.1386
21.4400 7.1302 -0.1427
21.4600 7.1368 -0.1369
21.4800 7.1435 -0.1438
21.5000 7.1502 -0.1444
21.5200 7.1568 -0.1405
21.5400 7.1634 -0.1393
21.5600 7.1701 -0.1450
21.5800 7.1768 -0.1398
21.6000 7.1835 -0.1432
21.6200 7.1902 -0.1417
21.6400 7.1969 -0.1457
21.6600 7.2035 -0.1416
21.6800 7.2102 -0.1401
21.7000 7.2168 -0.1487
21.7200 7.2234 -0.1388
21.7400 7.2300 -0.1407
21.7600 7.2368 -0.1535
21.7800 7.2435 -0.1422
21.8000 7.2502 -0.1440
21.8200 7.2568 -0.1473
21.8400 7.2635 -0.1417
21.8600 7.2702 -0.1439
21.8800 7.2768 -0.1511
21.9000 7.2834 -0.1392
21.9200 7.2901 -0.1408
21.9400 7.2968 -0.1480
21.9600 7.3035 -0.1402
21.9800 7.3101 -0.1488
22.0000 7.3168 -0.1490
22.0200 7.3235 -0.1427
22.0400 7.3301 -0.1467
22.0600 7.3368 -0.1518
22.0800 7.3434 -0.1417
22.1000 7.3501 -0.1454
22.1200 7.3568 -0.1498
22.1400 7.3635 -0.1406
22.1600 7.3702 -0.1510
22.1800 7.3768 -0.1473
22.2000 7.3835 -0.1431
22.2200 7.3902 -0.1527
22.2400 7.3968 -0.1403
22.2600 7.4034 -0.1467
22.2800 7.4101 -0.1524
22.3000 7.4168 -0.1431
22.3200 7.4235 -0.1441
22.3400 7.4302 -0.1554
22.3600 7.4369 -0.1442
22.3800 7.4435 -0.1482
22.4000 7.4502 -0.1521
22.4200 7.4568 -0.1429
22.4400 7.4634 -0.1491
22.4600 7.4700 -0.1478
22.4800 7.4767 -0.1443
22.5000 7.4834 -0.1494
22.5200 7.4901 -0.1505
22.5400 7.4968 -0.1496
22.5600 7.5035 -0.1456
22.5800 7.5102 -0.1526
22.6000 7.5168 -0.1528
22.6200 7.5234 -0.1444
22.6400 7.5300 -0.1469
22.6600 7.5367 -0.1558
22.6800 7.5434 -0.1473
22.7000 7.5502 -0.1494
22.7200 7.5568 -0.1536
22.7400 7.5635 -0.1462
22.7600 7.5702 -0.1543
22.7800 7.5768 -0.1557
22.8000 7.5834 -0.1473
22.8200 7.5901 -0.1478
22.8400 7.5968 -0.1585
22.8600 7.6035 -0.1456
22.8800 7.6102 -0.1536
22.9000 7.6168 -0.1574
22.9200 7.6235 -0.1424
22.9400 7.6302 -0.1538
22.9600 7.6369 -0.1565
22.9800 7.6435 -0.1449
23.0000 7.6501 -0.1543
23.0200 7.6568 -0.1521
23.0400 7.6635 -0.1471
23.0600 7.6702 -0.1567
23.0800 7.6768 -0.1549
23.1000 7.6835 -0.1464
23.1200 7.6902 -0.1624
23.1400 7.6968 -0.1530
23.1600 7.7034 -0.1454
23.1800 7.7101 -0.1622
23.2000 7.7167 -0.1533
23.2200 7.7235 -0.1491
23.2400 7.7302 -0.1635
23.2600 7.7368 -0.1477
23.2800 7.7435 -0.1481
23.3000 7.7502 -0.1661
23.3200 7.7568 -0.1491
23.3400 7.7634 -0.1470
23.3600 7.7700 -0.1643
23.3800 7.7767 -0.1461
23.4000 7.7834 -0.1505
23.4200 7.7901 -0.1684
23.4400 7.7968 -0.1478
23.4600 7.8034 -0.1543
23.4800 7.8101 -0.1610
23.5000 7.8168 -0.1480
23.5200 7.8234 -0.1556
23.5400 7.8301 -0.1597
23.5600 7.8368 -0.1490
23.5800 7.8435 -0.1564
23.6000 7.8502 -0.1593
23.6200 7.8569 -0.1562
23.6400 7.8635 -0.1557
23.6600 7.8702 -0.1626
23.6800 7.8769 -0.1552
23.7000 7.8835 -0.1587
23.7200 7.8901 -0.1568
23.7400 7.8968 -0.1560
23.7600 7.9035 -0.1570
23.7800 7.9102 -0.1601
23.8000 7.9169 -0.1542
23.8200 7.9236 -0.1545
23.8400 7.9302 -0.1604
23.8600 7.9368 -0.1577
23.8800 7.9434 -0.1539
23.9000 7.9500 -0.1598
23.9200 7.9567 -0.1562
23.9400 7.9635 -0.1568
23.9600 7.9702 -0.1616
23.9800 7.9768 -0.1560
24.0000 7.9835 -0.1541
24.0200 7.9902 -0.1661
24.0400 7.9969 -0.1611
24.0600 8.0035 -0.1511
24.0800 8.0101 -0.1646
24.1000 8.0167 -0.1613
24.1200 8.0234 -0.1529
24.1400 8.0301 -0.1639
24.1600 8.0368 -0.1631
24.1800 8.0435 -0.1533
24.2000 8.0502 -0.1627
24.2200 8.0568 -0.1565
24.2400 8.0634 -0.1578
24.2600 8.0701 -0.1631
24.2800 8.0767 -0.1565
24.3000 8.0835 -0.1620
24.3200 8.0902 -0.1651
24.3400 8.0969 -0.1532
24.3600 8.1035 -0.1670
24.3800 8.1102 -0.1616
24.4000 8.1168 -0.1559
24.4200 8.1234 -0.1619
24.4400 8.1301 -0.1587
24.4600 8.1367 -0.1603
24.4800 8.1435 -0.1680
24.5000 8.1502 -0.1610
24.5200 8.1569 -0.1610
24.5400 8.1636 -0.1637
24.5600 8.1702 -0.1575
24.5800 8.1768 -0.1631
24.6000 8.1834 -0.1659
24.6200 8.1901 -0.1525
24.6400 8.1967 -0.1645
24.6600 8.2034 -0.1651
24.6800 8.2101 -0.1583
24.7000 8.2168 -0.1679
24.7200 8.2235 -0.1637
24.7400 8.2302 -0.1579
24.7600 8.2368 -0.1680
24.7800 8.2434 -0.1622
24.8000 8.2500 -0.1598
24.8200 8.2567 -0.1657
24.8400 8.2634 -0.1618
24.8600 8.2701 -0.1676
24.8800 8.2768 -0.1681
24.9000 8.2835 -0.1605
24.9200 8.2902 -0.1660
24.9400 8.2968 -0.1672
24.9600 8.3034 -0.1614
24.9800 8.3101 -0.1679
25.0000 8.3167 -0.1622
25.0200 8.3235 -0.1693
25.0400 8.3301 -0.1641
25.0600 8.3368 -0.1626
25.0800 8.3435 -0.1705
25.1000 8.3502 -0.1717
25.1200 8.3569 -0.1625
25.1400 8.3635 -0.1696
25.1600 8.3701 -0.1654
25.1800 8.3767 -0.1649
25.2000 8.3834 -0.1689
25.2200 8.3901 -0.1638
25.2400 8.3968 -0.1645
25.2600 8.4035 -0.1713
25.2800 8.4102 -0.1628
25.3000 8.4169 -0.1698
25.3200 8.4235 -0.1712
25.3400 8.4301 -0.1619
25.3600 8.4367 -0.1648
25.3800 8.4435 -0.1723
25.4000 8.4502 -0.1623
25.4200 8.4568 -0.1683
25.4400 8.4635 -0.1672
25.4600 8.4702 -0.1650
25.4800 8.4768 -0.1692
25.5000 8.4834 -0.1682
25.5200 8.4900 -0.1659
25.5400 8.4967 -0.1692
25.5600 8.5034 -0.1664
25.5800 8.5101 -0.1620
25.6000 8.5168 -0.1732
25.6200 8.5234 -0.1660
25.6400 8.5301 -0.1651
25.6600 8.5368 -0.1725
25.6800 8.5434 -0.1695
25.7000 8.5501 -0.1638
25.7200 8.5567 -0.1720
25.7400 8.5634 -0.1664
25.7600 8.5702 -0.1685
25.7800 8.5769 -0.1729
25.8000 8.5836 -0.1666
25.8200 8.5902 -0.1710
25.8400 8.5969 -0.1743
25.8600 8.6035 -0.1648
25.8800 8.6101 -0.1707
25.9000 8.6167 -0.1665
25.9200 8.6235 -0.1658
25.9400 8.6302 -0.1743
25.9600 8.6369 -0.1702
25.9800 8.6436 -0.1668
26.0000 8.6502 -0.1706
26.0200 8.6569 -0.1674
26.0400 8.6635 -0.1737
26.0600 8.6701 -0.1734
26.0800 8.6767 -0.1684
26.1000 8.6834 -0.1696
26.1200 8.6901 -0.1710
26.1400 8.6968 -0.1689
26.1600 8.7035 -0.1694
26.1800 8.7102 -0.1739
26.2000 8.7168 -0.1723
26.2200 8.7235 -0.1714
26.2400 8.7300 -0.1700
26.2600 8.7367 -0.1721
26.2800 8.7434 -0.1740
26.3000 8.7501 -0.1694
26.3200 8.7568 -0.1667
26.3400 8.7635 -0.1766
26.3600 8.7701 -0.1734
26.3800 8.7768 -0.1683
26.4000 8.7834 -0.1770
26.4200 8.7901 -0.1726
26.4400 8.7967 -0.1648
26.4600 8.8034 -0.1772
26.4800 8.8102 -0.1709
26.5000 8.8169 -0.1711
26.5200 8.8235 -0.1763
26.5400 8.8302 -0.1709
26.5600 8.8369 -0.1689
26.5800 8.8435 -0.1750
26.6000 8.8501 -0.1707
26.6200 8.8568 -0.1761
26.6400 8.8635 -0.1764
26.6600 8.8701 -0.1713
26.6800 8.8768 -0.1724
26.7000 8.8835 -0.1759
26.7200 8.8902 -0.1738
26.7400 8.8969 -0.1782
26.7600 8.9035 -0.1764
26.7800 8.9101 -0.1659
26.8000 8.9167 -0.1739
26.8200 8.9234 -0.1772
26.8400 8.9301 -0.1723
26.8600 8.9368 -0.1789
26.8800 8.9435 -0.1725
26.9000 8.9502 -0.1716
26.9200 8.9569 -0.1725
26.9400 8.9635 -0.1771
26.9600 8.9701 -0.1783
26.9800 8.9767 -0.1683
27.0000 8.9834 -0.1793
27.0200 8.9901 -0.1756
27.0400 8.9968 -0.1761
27.0600 9.0035 -0.1774
27.0800 9.0102 -0.1751
27.1000 9.0168 -0.1742
27.1200 9.0235 -0.1797
27.1400 9.0301 -0.1717
27.1600 9.0367 -0.1794
27.1800 9.0434 -0.1815
27.2000 9.0501 -0.1709
27.2200 9.0568 -0.1792
27.2400 9.0635 -0.1847
27.2600 9.0702 -0.1716
27.2800 9.0769 -0.1787
27.3000 9.0835 -0.1781
27.3200 9.0901 -0.1729
27.3400 9.0967 -0.1791
27.3600 9.1034 -0.1792
27.3800 9.1102 -0.1747
27.4000 9.1169 -0.1787
27.4200 9.1235 -0.1739
27.4400 9.1302 -0.1776
27.4600 9.1369 -0.1834
27.4800 9.1435 -0.1795
27.5000 9.1501 -0.1769
27.5200 9.1567 -0.1764
27.5400 9.1634 -0.1763
27.5600 9.1701 -0.1881
27.5800 9.1768 -0.1792
27.6000 9.1835 -0.1747
27.6200 9.1902 -0.1808
27.6400 9.1969 -0.1784
27.6600 9.2035 -0.1769
27.6800 9.2101 -0.1843
27.7000 9.2167 -0.1762
27.7200 9.2234 -0.1800
27.7400 9.2301 -0.1830
27.7600 9.2368 -0.1750
27.7800 9.2435 -0.1836
27.8000 9.2502 -0.1828
27.8200 9.2568 -0.1802
27.8400 9.2635 -0.1831
27.8600 9.2701 -0.1847
27.8800 9.2767 -0.1730
27.9000 9.2834 -0.1884
27.9200 9.2902 -0.1829
27.9400 9.2969 -0.1794
27.9600 9.3035 -0.1850
27.9800 9.3102 -0.1789
28.0000 9.3169 -0.1788
28.0200 9.3235 -0.1900
28.0400 9.3301 -0.1817
28.0600 9.3368 -0.1795
28.0800 9.3434 -0.1872
28.1000 9.3502 -0.1810
28.1200 9.3568 -0.1796
28.1400 9.3635 -0.1928
28.1600 9.3702 -0.1804
28.1800 9.3769 -0.1818
28.2000 9.3835 -0.1895
28.2200 9.3901 -0.1786
28.2400 9.3967 -0.1848
28.2600 9.4034 -0.1875
28.2800 9.4101 -0.1801
28.3000 9.4168 -0.1829
28.3200 9.4235 -0.1899
28.3400 9.4302 -0.1791
28.3600 9.4369 -0.1850
28.3800 9.4435 -0.1903
28.4000 9.4501 -0.1805
28.4200 9.4567 -0.1845
28.4400 9.4634 -0.1910
28.4600 9.4701 -0.1798
28.4800 9.4768 -0.1863
28.5000 9.4835 -0.1895
28.5200 9.4902 -0.1829
28.5400 9.4968 -0.1863
28.5600 9.5035 -0.1926
28.5800 9.5101 -0.1871
28.6000 9.5167 -0.1830
28.6200 9.5234 -0.1917
28.6400 9.5301 -0.1856
28.6600 9.5368 -0.1883
28.6800 9.5435 -0.1927
28.7000 9.5502 -0.1831
28.7200 9.5569 -0.1910
28.7400 9.5635 -0.1913
28.7600 9.5701 -0.1857
28.7800 9.5768 -0.1847
28.8000 9.5834 -0.1936
28.8200 9.5901 -0.1883
28.8400 9.5968 -0.1883
28.8600 9.6035 -0.1895
28.8800 9.6102 -0.1891
28.9000 9.6169 -0.1908
28.9200 9.6235 -0.1907
28.9400 9.6301 -0.1911
28.9600 9.6367 -0.1861
28.9800 9.6434 -0.1860
29.0000 9.6501 -0.1915
29.0200 9.6568 -0.1879
29.0400 9.6635 -0.1911
29.0600 9.6702 -0.1901
29.0800 9.6769 -0.1902
29.1000 9.6835 -0.1901
29.1200 9.6901 -0.1919
29.1400 9.6967 -0.1869
29.1600 9.7034 -0.1870
29.1800 9.7101 -0.1953
29.2000 9.7168 -0.1877
29.2200 9.7234 -0.1946
29.2400 9.7301 -0.1930
29.2600 9.7368 -0.1846
29.2800 9.7435 -0.1973
29.3000 9.7501 -0.1927
29.3200 9.7568 -0.1844
29.3400 9.7634 -0.2006
29.3600 9.7701 -0.1877
29.3800 9.7768 -0.1884
29.4000 9.7835 -0.1987
29.4200 9.7902 -0.1913
29.4400 9.7969 -0.1909
29.4600 9.8035 -0.2022
29.4800 9.8101 -0.1881
29.5000 9.8167 -0.1893
29.5200 9.8234 -0.2008
29.5400 9.8301 -0.1886
29.5600 9.8368 -0.1942
29.5800 9.8435 -0.1984
29.6000 9.8502 -0.1835
29.6200 9.8569 -0.1981
29.6400 9.8635 -0.1994
29.6600 9.8701 -0.1823
29.6800 9.8767 -0.1956
29.7000 9.8834 -0.2018
29.7200 9.8901 -0.1879
29.7400 9.8968 -0.1949
29.7600 9.9035 -0.1992
29.7800 9.9101 -0.1881
29.8000 9.9168 -0.2000
29.8200 9.9235 -0.1957
29.8400 9.9301 -0.1891
29.8600 9.9367 -0.2003
29.8800 9.9433 -0.1894
29.9000 9.9501 -0.1926
29.9200 9.9568 -0.1995
29.9400 9.9635 -0.1954
29.9600 9.9701 -0.1934
29.9800 9.9768 -0.1971
30.0000 9.9835 -0.2013
30.0200 9.9901 -0.1895
30.0400 9.9967 -0.1930
30.0600 10.0034 -0.1988
30.0800 10.0101 -0.1970
30.1000 10.0168 -0.1964
30.1200 10.0235 -0.2030
30.1400 10.0302 -0.1936
30.1600 10.0369 -0.1920
30.1800 10.0435 -0.2019
30.2000 10.0502 -0.1984
30.2200 10.0568 -0.1928
30.2400 10.0634 -0.1996
30.2600 10.0701 -0.1947
30.2800 10.0768 -0.1966
30.3000 10.0835 -0.2005
30.3200 10.0902 -0.1967
30.3400 10.0969 -0.1998
30.3600 10.1035 -0.1959
30.3800 10.1101 -0.1957
30.4000 10.1167 -0.1994
30.4200 10.1234 -0.1938
30.4400 10.1301 -0.1956
30.4600 10.1368 -0.2024
30.4800 10.1435 -0.1924
30.5000 10.1501 -0.1995
30.5200 10.1568 -0.2015
30.5400 10.1635 -0.1953
30.5600 10.1701 -0.2021
30.5800 10.1767 -0.2065
30.6000 10.1834 -0.1901
30.6200 10.1901 -0.2012
30.6400 10.1968 -0.2049
30.6600 10.2035 -0.1954
30.6800 10.2101 -0.2035
30.7000 10.2168 -0.2034
30.7200 10.2235 -0.1947
30.7400 10.2302 -0.2042
30.7600 10.2368 -0.2003
30.7800 10.2434 -0.1954
30.8000 10.2501 -0.2008
30.8200 10.2568 -0.2063
30.8400 10.2635 -0.1969
30.8600 10.2702 -0.1971
30.8800 10.2769 -0.2050
30.9000 10.2836 -0.2053
30.9200 10.2902 -0.1956
30.9400 10.2968 -0.2007
30.9600 10.3034 -0.2046
30.9800 10.3101 -0.1978
31.0000 10.3168 -0.2020
31.0200 10.3235 -0.2047
31.0400 10.3302 -0.1941
31.0600 10.3369 -0.2057
31.0800 10.3435 -0.2055
31.1000 10.3501 -0.1930
31.1200 10.3567 -0.2075
31.1400 10.3634 -0.2025
31.1600 10.3701 -0.1950
31.1800 10.3768 -0.2085
31.2000 10.3835 -0.1996
31.2200 10.3901 -0.1927
31.2400 10.3968 -0.2086
31.2600 10.4035 -0.2005
31.2800 10.4101 -0.1958
31.3000 10.4167 -0.2102
31.3200 10.4234 -0.2021
31.3400 10.4301 -0.1908
31.3600 10.4368 -0.2102
31.3800 10.4435 -0.2015
31.4000 10.4501 -0.1951
31.4200 10.4569 -0.2139
31.4400 10.4635 -0.2005
31.4600 10.4702 -0.1949
31.4800 10.4767 -0.2148
31.5000 10.4834 -0.1981
31.5200 10.4901 -0.2018
31.5400 10.4968 -0.2143
31.5600 10.5035 -0.1935
31.5800 10.5102 -0.2072
31.6000 10.5169 -0.2153
31.6200 10.5235 -0.1954
31.6400 10.5302 -0.2060
31.6600 10.5368 -0.2118
31.6800 10.5434 -0.1944
31.7000 10.5501 -0.2041
31.7200 10.5568 -0.2147
31.7400 10.5635 -0.1921
31.7600 10.5702 -0.2053
31.7800 10.5769 -0.2153
31.8000 10.5836 -0.1977
31.8200 10.5902 -0.2090
31.8400 10.5968 -0.2083
31.8600 10.6034 -0.1955
31.8800 10.6101 -0.2121
31.9000 10.6168 -0.2113
31.9200 10.6235 -0.2010
31.9400 10.6302 -0.2115
31.9600 10.6369 -0.2042
31.9800 10.6435 -0.2063
32.0000 10.6501 -0.2116
32.0200 10.6567 -0.2010
32.0400 10.6633 -0.2037
32.0600 10.6700 -0.2121
32.0800 10.6768 -0.2031
32.1000 10.6835 -0.2068
32.1200 10.6901 -0.2141
32.1400 10.6968 -0.1974
32.1600 10.7035 -0.2059
32.1800 10.7101 -0.2147
32.2000 10.7167 -0.2023
32.2200 10.7234 -0.2062
32.2400 10.7301 -0.2063
32.2600 10.7368 -0.2080
32.2800 10.7435 -0.2096
32.3000 10.7502 -0.2072
32.3200 10.7569 -0.2102
32.3400 10.7636 -0.2114
32.3600 10.7702 -0.2024
32.3800 10.7768 -0.2118
32.4000 10.7834 -0.2098
32.4200 10.7901 -0.2055
32.4400 10.7968 -0.2169
32.4600 10.8035 -0.2098
32.4800 10.8102 -0.2037
32.5000 10.8169 -0.2139
32.5200 10.8235 -0.2086
32.5400 10.8301 -0.2115
32.5600 10.8367 -0.2155
32.5800 10.8433 -0.2021
32.6000 10.8500 -0.2099
32.6200 10.8568 -0.2184
32.6400 10.8635 -0.2018
32.6600 10.8702 -0.2145
32.6800 10.8769 -0.2156
32.7000 10.8835 -0.1983
32.7200 10.8902 -0.2147
32.7400 10.8968 -0.2163
32.7600 10.9034 -0.2023
32.7800 10.9101 -0.2224
32.8000 10.9168 -0.2118
32.8200 10.9235 -0.2025
32.8400 10.9301 -0.2273
32.8600 10.9368 -0.2077
32.8800 10.9435 -0.2088
32.9000 10.9502 -0.2258
32.9200 10.9568 -0.2061
32.9400 10.9634 -0.2117
32.9600 10.9701 -0.2256
32.9800 10.9768 -0.2040
33.0000 10.9835 -0.2141
33.0200 10.9902 -0.2212
33.0400 10.9969 -0.2074
33.0600 11.0035 -0.2159
33.0800 11.0102 -0.2201
33.1000 11.0168 -0.2083
33.1200 11.0234 -0.2148
33.1400 11.0301 -0.2146
33.1600 11.0368 -0.2122
33.1800 11.0435 -0.2223
33.2000 11.0502 -0.2109
33.2200 11.0569 -0.2134
33.2400 11.0636 -0.2202
33.2600 11.0702 -0.2161
33.2800 11.0768 -0.2181
33.3000 11.0834 -0.2150
33.3200 11.0901 -0.2134
33.3400 11.0968 -0.2199
33.3600 11.1035 -0.2165
33.3800 11.1101 -0.2105
33.4000 11.1168 -0.2176
33.4200 11.1235 -0.2117
33.4400 11.1302 -0.2138
33.4600 11.1368 -0.2252
33.4800 11.1434 -0.2090
33.5000 11.1501 -0.2187
33.5200 11.1568 -0.2196
33.5400 11.1635 -0.2087
33.5600 11.1701 -0.2190
33.5800 11.1768 -0.2228
33.6000 11.1835 -0.2061
33.6200 11.1902 -0.2189
33.6400 11.1968 -0.2222
33.6600 11.2034 -0.2075
33.6800 11.2101 -0.2219
33.7000 11.2168 -0.2215
33.7200 11.2235 -0.2073
33.7400 11.2302 -0.2238
33.7600 11.2369 -0.2146
33.7800 11.2436 -0.2159
33.8000 11.2502 -0.2276
33.8200 11.2568 -0.2141
33.8400 11.2634 -0.2152
33.8600 11.2701 -0.2252
33.8800 11.2768 -0.2118
33.9000 11.2835 -0.2196
33.9200 11.2902 -0.2223
33.9400 11.2969 -0.2101
33.9600 11.3035 -0.2252
33.9800 11.3102 -0.2197
34.0000 11.3168 -0.2098
34.0200 11.3234 -0.2239
34.0400 11.3300 -0.2180
34.0600 11.3367 -0.2122
34.0800 11.3435 -0.2272
34.1000 11.3501 -0.2165
34.1200 11.3569 -0.2146
34.1400 11.3636 -0.2260
34.1600 11.3702 -0.2155
34.1800 11.3767 -0.2216
34.2000 11.3833 -0.2201
34.2200 11.3900 -0.2130
34.2400 11.3967 -0.2212
34.2600 11.4035 -0.2198
34.2800 11.4102 -0.2203
34.3000 11.4168 -0.2208
34.3200 11.4235 -0.2212
34.3400 11.4302 -0.2222
34.3600 11.4368 -0.2230
34.3800 11.4434 -0.2169
34.4000 11.4501 -0.2229
34.4200 11.4568 -0.2235
34.4400 11.4635 -0.2179
34.4600 11.4702 -0.2214
34.4800 11.4769 -0.2220
34.5000 11.4836 -0.2190
34.5200 11.4902 -0.2253
34.5400 11.4968 -0.2190
34.5600 11.5034 -0.2180
34.5800 11.5101 -0.2240
34.6000 11.5168 -0.2253
34.6200 11.5235 -0.2208
34.6400 11.5302 -0.2301
34.6600 11.5369 -0.2211
34.6800 11.5435 -0.2121
34.7000 11.5502 -0.2325
34.7200 11.5568 -0.2206
34.7400 11.5634 -0.2140
34.7600 11.5700 -0.2367
34.7800 11.5768 -0.2198
34.8000 11.5835 -0.2108
34.8200 11.5901 -0.2410
34.8400 11.5968 -0.2177
34.8600 11.6035 -0.2154
34.8800 11.6101 -0.2406
34.9000 11.6168 -0.2198
34.9200 11.6234 -0.2174
34.9400 11.6300 -0.2361
34.9600 11.6367 -0.2153
34.9800 11.6435 -0.2232
35.0000 11.6501 -0.2390
35.0200 11.6568 -0.2188
35.0400 11.6635 -0.2199
35.0600 11.6702 -0.2365
35.0800 11.6768 -0.2209
35.1000 11.6834 -0.2255
35.1200 11.6901 -0.2310
35.1400 11.6968 -0.2230
35.1600 11.7035 -0.2255
35.1800 11.7102 -0.2272
35.2000 11.7169 -0.2251
35.2200 11.7235 -0.2306
35.2400 11.7302 -0.2298
35.2600 11.7368 -0.2233
35.2800 11.7434 -0.2251
35.3000 11.7501 -0.2320
35.3200 11.7568 -0.2315
35.3400 11.7635 -0.2267
35.3600 11.7702 -0.2292
35.3800 11.7768 -0.2287
35.4000 11.7835 -0.2237
35.4200 11.7902 -0.2335
35.4400 11.7968 -0.2342
35.4600 11.8034 -0.2220
35.4800 11.8101 -0.2280
35.5000 11.8168 -0.2359
35.5200 11.8235 -0.2272
35.5400 11.8302 -0.2284
35.5600 11.8368 -0.2333
35.5800 11.8435 -0.2238
35.6000 11.8502 -0.2318
35.6200 11.8568 -0.2326
35.6400 11.8634 -0.2247
35.6600 11.8700 -0.2254
35.6800 11.8767 -0.2308
35.7000 11.8834 -0.2249
35.7200 11.8901 -0.2374
35.7400 11.8968 -0.2300
35.7600 11.9035 -0.2234
35.7800 11.9101 -0.2339
35.8000 11.9168 -0.2314
35.8200 11.9234 -0.2184
35.8400 11.9300 -0.2333
35.8600 11.9368 -0.2330
35.8800 11.9435 -0.2241
35.9000 11.9502 -0.2320
35.9200 11.9568 -0.2283
35.9400 11.9635 -0.2320
35.9600 11.9702 -0.2322
35.9800 11.9768 -0.2219
36.0000 11.9834 -0.2295
36.0200 11.9901 -0.2291
36.0400 11.9968 -0.2296
36.0600 12.0035 -0.2295
36.0800 12.0102 -0.2247
36.1000 12.0169 -0.2357
36.1200 12.0236 -0.2299
36.1400 12.0302 -0.2234
36.1600 12.0368 -0.2392
36.1800 12.0434 -0.2291
36.2000 12.0500 -0.2216
36.2200 12.0567 -0.2346
36.2400 12.0635 -0.2301
36.2600 12.0702 -0.2283
36.2800 12.0769 -0.2337
36.3000 12.0835 -0.2280
36.3200 12.0902 -0.2286
36.3400 12.0968 -0.2329
36.3600 12.1034 -0.2245
36.3800 12.1100 -0.2315
36.4000 12.1167 -0.2330
36.4200 12.1234 -0.2289
36.4400 12.1301 -0.2315
36.4600 12.1368 -0.2299
36.4800 12.1435 -0.2280
36.5000 12.1502 -0.2342
36.5200 12.1568 -0.2290
36.5400 12.1634 -0.2355
36.5600 12.1701 -0.2328
36.5800 12.1768 -0.2268
36.6000 12.1835 -0.2273
36.6200 12.1902 -0.2358
36.6400 12.1968 -0.2305
36.6600 12.2036 -0.2305
36.6800 12.2102 -0.2330
36.7000 12.2169 -0.2299
36.7200 12.2235 -0.2331
36.7400 12.2301 -0.2336
36.7600 12.2368 -0.2299
36.7800 12.2435 -0.2392
36.8000 12.2502 -0.2334
36.8200 12.2569 -0.2244
36.8400 12.2635 -0.2394
36.8600 12.2702 -0.2343
36.8800 12.2768 -0.2274
36.9000 12.2834 -0.2387
36.9200 12.2900 -0.2317
36.9400 12.2967 -0.2270
36.9600 12.3035 -0.2348
36.9800 12.3101 -0.2330
37.0000 12.3168 -0.2331
37.0200 12.3235 -0.2367
37.0400 12.3302 -0.2372
37.0600 12.3368 -0.2301
37.0800 12.3434 -0.2306
37.1000 12.3500 -0.2355
37.1200 12.3567 -0.2350
37.1400 12.3634 -0.2356
37.1600 12.3701 -0.2384
37.1800 12.3768 -0.2236
37.2000 12.3835 -0.2357
37.2200 12.3902 -0.2412
37.2400 12.3968 -0.2267
37.2600 12.4034 -0.2327
37.2800 12.4101 -0.2452
37.3000 12.4167 -0.2261
37.3200 12.4235 -0.2301
37.3400 12.4302 -0.2466
37.3600 12.4368 -0.2341
37.3800 12.4435 -0.2254
37.4000 12.4502 -0.2393
37.4200 12.4568 -0.2397
37.4400 12.4635 -0.2305
37.4600 12.4701 -0.2322
37.4800 12.4768 -0.2368
37.5000 12.4835 -0.2399
37.5200 12.4902 -0.2333
37.5400 12.4969 -0.2262
37.5600 12.5035 -0.2438
37.5800 12.5102 -0.2429
37.6000 12.5169 -0.2292
37.6200 12.5234 -0.2364
37.6400 12.5300 -0.2407
37.6600 12.5367 -0.2332
37.6800 12.5434 -0.2353
37.7000 12.5501 -0.2343
37.7200 12.5568 -0.2346
37.7400 12.5635 -0.2426
37.7600 12.5702 -0.2320
37.7800 12.5768 -0.2382
37.8000 12.5834 -0.2395
37.8200 12.5900 -0.2346
37.8400 12.5967 -0.2340
37.8600 12.6034 -0.2420
37.8800 12.6101 -0.2376
37.9000 12.6168 -0.2352
37.9200 12.6235 -0.2323
37.9400 12.6302 -0.2365
37.9600 12.6368 -0.2468
37.9800 12.6434 -0.2379
38.0000 12.6501 -0.2343
38.0200 12.6567 -0.2351
38.0400 12.6635 -0.2351
38.0600 12.6702 -0.2440
38.0800 12.6769 -0.2428
38.1000 12.6835 -0.2359
38.1200 12.6902 -0.2367
38.1400 12.6969 -0.2451
38.1600 12.7035 -0.2415
38.1800 12.7101 -0.2375
38.2000 12.7167 -0.2400
38.2200 12.7234 -0.2419
38.2400 12.7301 -0.2306
38.2600 12.7368 -0.2378
38.2800 12.7435 -0.2530
38.3000 12.7502 -0.2389
38.3200 12.7569 -0.2352
38.3400 12.7635 -0.2456
38.3600 12.7701 -0.2389
38.3800 12.7767 -0.2380
38.4000 12.7835 -0.2412
38.4200 12.7902 -0.2399
38.4400 12.7968 -0.2454
38.4600 12.8035 -0.2437
38.4800 12.8102 -0.2330
38.5000 12.8168 -0.2460
38.5200 12.8235 -0.2507
38.5400 12.8301 -0.2310
38.5600 12.8367 -0.2451
38.5800 12.8434 -0.2462
38.6000 12.8501 -0.2386
38.6200 12.8568 -0.2450
38.6400 12.8635 -0.2435
38.6600 12.8701 -0.2313
38.6800 12.8768 -0.2556
38.7000 12.8834 -0.2467
38.7200 12.8901 -0.2223
38.7400 12.8967 -0.2543
38.7600 12.9034 -0.2550
38.7800 12.9102 -0.2256
38.8000 12.9169 -0.2455
38.8200 12.9236 -0.2502
38.8400 12.9302 -0.2437
38.8600 12.9369 -0.2491
38.8800 12.9434 -0.2430
38.9000 12.9501 -0.2390
38.9200 12.9567 -0.2485
38.9400 12.9635 -0.2447
38.9600 12.9702 -0.2422
38.9800 12.9769 -0.2503
39.0000 12.9835 -0.2431
39.0200 12.9902 -0.2440
39.0400 12.9968 -0.2458
39.0600 13.0034 -0.2446
39.0800 13.0101 -0.2500
39.1000 13.0167 -0.2489
39.1200 13.0234 -0.2381
39.1400 13.0301 -0.2492
39.1600 13.0368 -0.2566
39.1800 13.0435 -0.2409
39.2000 13.0502 -0.2395
39.2200 13.0568 -0.2517
39.2400 13.0635 -0.2532
39.2600 13.0700 -0.2421
39.2800 13.0767 -0.2433
39.3000 13.0834 -0.2511
39.3200 13.0901 -0.2462
39.3400 13.0968 -0.2447
39.3600 13.1035 -0.2491
39.3800 13.1102 -0.2510
39.4000 13.1168 -0.2477
39.4200 13.1235 -0.2447
39.4400 13.1301 -0.2438
39.4600 13.1367 -0.2526
39.4800 13.1435 -0.2487
39.5000 13.1502 -0.2453
39.5200 13.1568 -0.2456
39.5400 13.1635 -0.2510
39.5600 13.1702 -0.2506
39.5800 13.1768 -0.2523
39.6000 13.1835 -0.2467
39.6200 13.1901 -0.2477
39.6400 13.1967 -0.2563
39.6600 13.2034 -0.2474
39.6800 13.2101 -0.2444
39.7000 13.2168 -0.2551
39.7200 13.2235 -0.2492
39.7400 13.2302 -0.2436
39.7600 13.2369 -0.2590
39.7800 13.2435 -0.2474
39.8000 13.2501 -0.2424
39.8200 13.2567 -0.2595
39.8400 13.2634 -0.2464
39.8600 13.2701 -0.2421
39.8800 13.2768 -0.2588
39.9000 13.2836 -0.2550
39.9200 13.2902 -0.2418
39.9400 13.2969 -0.2568
39.9600 13.3035 -0.2528
39.9800 13.3101 -0.2394
40.0000 13.3167 -0.2576
40.0200 13.3234 -0.2498
40.0400 13.3301 -0.2423
40.0600 13.3368 -0.2604
40.0800 13.3434 -0.2560
40.1000 13.3501 -0.2392
40.1200 13.3568 -0.2612
40.1400 13.3634 -0.2543
40.1600 13.3701 -0.2413
40.1800 13.3767 -0.2530
40.2000 13.3834 -0.2491
40.2200 13.3901 -0.2503
40.2400 13.3968 -0.2629
40.2600 13.4035 -0.2423
40.2800 13.4102 -0.2450
40.3000 13.4169 -0.2670
40.3200 13.4235 -0.2524
40.3400 13.4301 -0.2440
40.3600 13.4367 -0.2607
40.3800 13.4435 -0.2438
40.4000 13.4502 -0.2530
40.4200 13.4569 -0.2672
40.4400 13.4636 -0.2470
40.4600 13.4702 -0.2505
40.4800 13.4769 -0.2616
40.5000 13.4835 -0.2443
40.5200 13.4901 -0.2535
40.5400 13.4967 -0.2617
40.5600 13.5034 -0.2441
40.5800 13.5101 -0.2582
40.6000 13.5168 -0.2599
40.6200 13.5235 -0.2442
40.6400 13.5301 -0.2584
40.6600 13.5368 -0.2638
40.6800 13.5434 -0.2377
40.7000 13.5500 -0.2521
40.7200 13.5567 -0.2634
40.7400 13.5634 -0.2514
40.7600 13.5701 -0.2475
40.7800 13.5768 -0.2562
40.8000 13.5835 -0.2509
40.8200 13.5902 -0.2570
40.8400 13.5968 -0.2566
40.8600 13.6035 -0.2521
40.8800 13.6101 -0.2556
40.9000 13.6167 -0.2553
40.9200 13.6234 -0.2487
40.9400 13.6302 -0.2583
40.9600 13.6369 -0.2589
40.9800 13.6435 -0.2509
41.0000 13.6502 -0.2576
41.0200 13.6569 -0.2588
41.0400 13.6635 -0.2467
41.0600 13.6701 -0.2596
41.0800 13.6768 -0.2531
41.1000 13.6834 -0.2528
41.1200 13.6901 -0.2578
41.1400 13.6968 -0.2512
41.1600 13.7035 -0.2607
41.1800 13.7102 -0.2589
41.2000 13.7169 -0.2512
41.2200 13.7235 -0.2546
41.2400 13.7301 -0.2566
41.2600 13.7367 -0.2509
41.2800 13.7434 -0.2576
41.3000 13.7501 -0.2553
41.3200 13.7568 -0.2520
41.3400 13.7635 -0.2620
41.3600 13.7702 -0.2507
41.3800 13.7768 -0.2589
41.4000 13.7835 -0.2628
41.4200 13.7901 -0.2470
41.4400 13.7967 -0.2536
41.4600 13.8034 -0.2644
41.4800 13.8101 -0.2516
41.5000 13.8168 -0.2554
41.5200 13.8235 -0.2651
41.5400 13.8302 -0.2455
41.5600 13.8368 -0.2571
41.5800 13.8435 -0.2617
41.6000 13.8501 -0.2474
41.6200 13.8567 -0.2595
41.6400 13.8634 -0.2624
41.6600 13.8701 -0.2476
41.6800 13.8768 -0.2616
41.7000 13.8835 -0.2584
41.7200 13.8902 -0.2527
41.7400 13.8969 -0.2617
41.7600 13.9035 -0.2609
41.7800 13.9101 -0.2516
41.8000 13.9167 -0.2650
41.8200 13.9234 -0.2543
41.8400 13.9301 -0.2571
41.8600 13.9369 -0.2686
41.8800 13.9435 -0.2458
41.9000 13.9502 -0.2592
41.9200 13.9568 -0.2685
41.9400 13.9635 -0.2474
41.9600 13.9701 -0.2617
41.9800 13.9768 -0.2702
42.0000 13.9835 -0.2484
42.0200 13.9902 -0.2575
42.0400 13.9968 -0.2667
42.0600 14.0035 -0.2513
42.0800 14.0101 -0.2683
42.1000 14.0168 -0.2630
42.1200 14.0235 -0.2455
42.1400 14.0301 -0.2726
42.1600 14.0367 -0.2660
42.1800 14.0434 -0.2511
42.2000 14.0501 -0.2629
42.2200 14.0568 -0.2695
42.2400 14.0635 -0.2551
42.2600 14.0702 -0.2615
42.2800 14.0769 -0.2642
42.3000 14.0835 -0.2545
42.3200 14.0901 -0.2667
42.3400 14.0967 -0.2655
42.3600 14.1034 -0.2533
42.3800 14.1101 -0.2649
42.4000 14.1169 -0.2697
42.4200 14.1236 -0.2643
42.4400 14.1302 -0.2602
42.4600 14.1369 -0.2656
42.4800 14.1435 -0.2625
42.5000 14.1501 -0.2588
42.5200 14.1567 -0.2688
42.5400 14.1634 -0.2634
42.5600 14.1702 -0.2578
42.5800 14.1769 -0.2675
42.6000 14.1835 -0.2623
42.6200 14.1902 -0.2647
42.6400 14.1969 -0.2679
42.6600 14.2035 -0.2630
42.6800 14.2101 -0.2558
42.7000 14.2167 -0.2672
42.7200 14.2233 -0.2692
42.7400 14.2301 -0.2619
42.7600 14.2368 -0.2669
42.7800 14.2435 -0.2707
42.8000 14.2502 -0.2606
42.8200 14.2569 -0.2566
42.8400 14.2635 -0.2781
42.8600 14.2701 -0.2676
42.8800 14.2767 -0.2529
42.9000 14.2834 -0.2714
42.9200 14.2901 -0.2632
42.9400 14.2968 -0.2609
42.9600 14.3035 -0.2799
42.9800 14.3102 -0.2583
43.0000 14.3168 -0.2597
43.0200 14.3235 -0.2787
43.0400 14.3301 -0.2602
43.0600 14.3367 -0.2547
43.0800 14.3434 -0.2838
43.1000 14.3501 -0.2583
43.1200 14.3568 -0.2630
43.1400 14.3635 -0.2822
43.1600 14.3702 -0.2555
43.1800 14.3769 -0.2663
43.2000 14.3835 -0.2794
43.2200 14.3901 -0.2580
43.2400 14.3968 -0.2627
43.2600 14.4034 -0.2733
43.2800 14.4101 -0.2642
43.3000 14.4168 -0.2709
43.3200 14.4235 -0.2730
43.3400 14.4302 -0.2650
43.3600 14.4369 -0.2736
43.3800 14.4435 -0.2670
43.4000 14.4501 -0.2667
43.4200 14.4567 -0.2757
43.4400 14.4634 -0.2653
43.4600 14.4701 -0.2663
43.4800 14.4768 -0.2717
43.5000 14.4834 -0.2665
43.5200 14.4901 -0.2716
43.5400 14.4968 -0.2765
43.5600 14.5035 -0.2681
43.5800 14.5101 -0.2698
43.6000 14.5167 -0.2763
43.6200 14.5234 -0.2685
43.6400 14.5301 -0.2704
43.6600 14.5368 -0.2722
43.6800 14.5435 -0.2628
43.7000 14.5501 -0.2778
43.7200 14.5568 -0.2763
43.7400 14.5635 -0.2650
43.7600 14.5701 -0.2742
43.7800 14.5767 -0.2715
43.8000 14.5834 -0.2623
43.8200 14.5901 -0.2805
43.8400 14.5968 -0.2764
43.8600 14.6035 -0.2604
43.8800 14.6102 -0.2740
43.9000 14.6169 -0.2786
43.9200 14.6235 -0.2726
43.9400 14.6301 -0.2783
43.9600 14.6367 -0.2721
43.9800 14.6434 -0.2644
44.0000 14.6501 -0.2803
44.0200 14.6568 -0.2756
44.0400 14.6635 -0.2642
44.0600 14.6702 -0.2822
44.0800 14.6769 -0.2796
44.1000 14.6835 -0.2608
44.1200 14.6901 -0.2800
44.1400 14.6967 -0.2817
44.1600 14.7034 -0.2649
44.1800 14.7101 -0.2788
44.2000 14.7168 -0.2800
44.2200 14.7235 -0.2616
44.2400 14.7302 -0.2778
44.2600 14.7368 -0.2873
44.2800 14.7435 -0.2622
44.3000 14.7501 -0.2770
44.3200 14.7567 -0.2809
44.3400 14.7633 -0.2593
44.3600 14.7700 -0.2851
44.3800 14.7768 -0.2807
44.4000 14.7835 -0.2580
44.4200 14.7902 -0.2821
44.4400 14.7968 -0.2814
44.4600 14.8035 -0.2610
44.4800 14.8101 -0.2885
44.5000 14.8167 -0.2773
44.5200 14.8234 -0.2639
44.5400 14.8301 -0.2878
44.5600 14.8368 -0.2751
44.5800 14.8435 -0.2617
44.6000 14.8502 -0.2907
44.6200 14.8569 -0.2720
44.6400 14.8636 -0.2693
44.6600 14.8702 -0.2874
44.6800 14.8768 -0.2688
44.7000 14.8835 -0.2697
44.7200 14.8901 -0.2869
44.7400 14.8968 -0.2700
44.7600 14.9035 -0.2760
44.7800 14.9102 -0.2798
44.8000 14.9169 -0.2712
44.8200 14.9236 -0.2811
44.8400 14.9302 -0.2838
44.8600 14.9367 -0.2685
44.8800 14.9434 -0.2769
44.9000 14.9500 -0.2788
44.9200 14.9567 -0.2704
44.9400 14.9634 -0.2825
44.9600 14.9701 -0.2767
44.9800 14.9768 -0.2765
45.0000 14.9835 -0.2812
45.0200 14.9901 -0.2755
45.0400 14.9967 -0.2743
45.0600 15.0034 -0.2812
45.0800 15.0101 -0.2765
45.1000 15.0168 -0.2766
45.1200 15.0235 -0.2807
45.1400 15.0301 -0.2795
45.1600 15.0368 -0.2769
45.1800 15.0435 -0.2767
45.2000 15.0502 -0.2785
45.2200 15.0568 -0.2842
45.2400 15.0635 -0.2751
45.2600 15.0702 -0.2763
45.2800 15.0768 -0.2852
45.3000 15.0835 -0.2795
45.3200 15.0902 -0.2737
45.3400 15.0969 -0.2851
45.3600 15.1036 -0.2817
45.3800 15.1102 -0.2836
45.4000 15.1168 -0.2827
45.4200 15.1234 -0.2726
45.4400 15.1301 -0.2801
45.4600 15.1368 -0.2878
45.4800 15.1435 -0.2800
45.5000 15.1502 -0.2818
45.5200 15.1569 -0.2822
45.5400 15.1635 -0.2825
45.5600 15.1701 -0.2836
45.5800 15.1767 -0.2815
45.6000 15.1834 -0.2853
45.6200 15.1901 -0.2874
45.6400 15.1968 -0.2764
45.6600 15.2035 -0.2824
45.6800 15.2102 -0.2877
45.7000 15.2168 -0.2797
45.7200 15.2235 -0.2853
45.7400 15.2301 -0.2816
45.7600 15.2368 -0.2802
45.7800 15.2434 -0.2870
45.8000 15.2500 -0.2832
45.8200 15.2567 -0.2801
45.8400 15.2634 -0.2896
45.8600 15.2701 -0.2853
45.8800 15.2768 -0.2819
45.9000 15.2835 -0.2872
45.9200 15.2901 -0.2883
45.9400 15.2967 -0.2866
45.9600 15.3034 -0.2823
45.9800 15.3101 -0.2798
46.0000 15.3168 -0.2911
46.0200 15.3235 -0.2924
46.0400 15.3302 -0.2826
46.0600 15.3369 -0.2805
46.0800 15.3435 -0.2925
46.1000 15.3502 -0.2919
46.1200 15.3568 -0.2852
46.1400 15.3634 -0.2845
46.1600 15.3701 -0.2861
46.1800 15.3768 -0.2882
46.2000 15.3835 -0.2882
46.2200 15.3902 -0.2922
46.2400 15.3969 -0.2891
46.2600 15.4035 -0.2868
46.2800 15.4102 -0.2840
46.3000 15.4168 -0.2864
46.3200 15.4234 -0.2934
46.3400 15.4301 -0.2915
46.3600 15.4368 -0.2840
46.3800 15.4435 -0.2856
46.4000 15.4502 -0.2946
46.4200 15.4569 -0.2884
46.4400 15.4635 -0.2926
46.4600 15.4701 -0.2955
46.4800 15.4767 -0.2770
46.5000 15.4833 -0.2925
46.5200 15.4900 -0.2974
46.5400 15.4967 -0.2854
46.5600 15.5035 -0.2871
46.5800 15.5101 -0.2959
46.6000 15.5168 -0.2878
46.6200 15.5235 -0.2873
46.6400 15.5301 -0.2970
46.6600 15.5367 -0.2913
46.6800 15.5434 -0.2882
46.7000 15.5501 -0.2916
46.7200 15.5568 -0.2865
46.7400 15.5635 -0.2926
46.7600 15.5701 -0.2993
46.7800 15.5768 -0.2821
46.8000 15.5836 -0.2837
46.8200 15.5902 -0.3032
46.8400 15.5968 -0.2858
46.8600 15.6034 -0.2899
46.8800 15.6101 -0.2939
46.9000 15.6168 -0.2863
46.9200 15.6235 -0.2930
46.9400 15.6302 -0.2909
46.9600 15.6369 -0.2914
46.9800 15.6435 -0.2969
47.0000 15.6502 -0.2935
47.0200 15.6567 -0.2781
47.0400 15.6634 -0.2975
47.0600 15.6701 -0.2953
47.0800 15.6768 -0.2898
47.1000 15.6835 -0.2930
47.1200 15.6902 -0.2845
47.1400 15.6968 -0.2899
47.1600 15.7035 -0.2966
47.1800 15.7102 -0.2941
47.2000 15.7168 -0.2960
47.2200 15.7234 -0.2814
47.2400 15.7301 -0.2903
47.2600 15.7368 -0.3019
47.2800 15.7435 -0.2915
47.3000 15.7501 -0.2906
47.3200 15.7568 -0.2975
47.3400 15.7635 -0.2800
47.3600 15.7702 -0.2940
47.3800 15.7768 -0.3064
47.4000 15.7834 -0.2840
47.4200 15.7901 -0.2907
47.4400 15.7968 -0.2945
47.4600 15.8035 -0.2822
47.4800 15.8102 -0.3087
47.5000 15.8168 -0.2923
47.5200 15.8235 -0.2811
47.5400 15.8302 -0.3028
47.5600 15.8368 -0.2949
47.5800 15.8434 -0.2832
47.6000 15.8501 -0.3075
47.6200 15.8568 -0.2875
47.6400 15.8635 -0.2842
47.6600 15.8702 -0.3109
47.6800 15.8769 -0.2927
47.7000 15.8836 -0.2925
47.7200 15.8902 -0.2968
47.7400 15.8968 -0.2851
47.7600 15.9034 -0.3022
47.7800 15.9101 -0.3055
47.8000 15.9168 -0.2899
47.8200 15.9235 -0.2934
47.8400 15.9302 -0.2921
47.8600 15.9368 -0.2925
47.8800 15.9435 -0.3060
47.9000 15.9502 -0.2958
47.9200 15.9568 -0.2814
47.9400 15.9634 -0.3002
47.9600 15.9700 -0.2973
47.9800 15.9767 -0.2928
48.0000 15.9835 -0.2983
48.0200 15.9902 -0.2939
48.0400 15.9968 -0.2862
48.0600 16.0035 -0.2981
48.0800 16.0102 -0.3048
48.1000 16.0168 -0.2904
48.1200 16.0234 -0.2886
48.1400 16.0301 -0.2979
48.1600 16.0368 -0.2942
48.1800 16.0435 -0.3004
48.2000 16.0502 -0.2984
48.2200 16.0569 -0.2886
48.2400 16.0636 -0.2949
48.2600 16.0702 -0.3068
48.2800 16.0768 -0.2944
48.3000 16.0834 -0.2965
48.3200 16.0901 -0.3027
48.3400 16.0968 -0.2889
48.3600 16.1035 -0.2975
48.3800 16.1102 -0.3116
48.4000 16.1169 -0.2908
48.4200 16.1236 -0.2976
48.4400 16.1302 -0.3041
48.4600 16.1368 -0.2910
48.4800 16.1434 -0.3023
48.5000 16.1500 -0.2979
48.5200 16.1567 -0.2926
48.5400 16.1635 -0.3016
48.5600 16.1701 -0.3014
48.5800 16.1768 -0.2965
48.6000 16.1835 -0.3010
48.6200 16.1902 -0.3015
48.6400 16.1968 -0.3006
48.6600 16.2034 -0.2994
48.6800 16.2100 -0.3003
48.7000 16.2167 -0.2971
48.7200 16.2235 -0.3053
48.7400 16.2301 -0.2977
48.7600 16.2368 -0.3011
48.7800 16.2435 -0.3026
48.8000 16.2502 -0.2981
48.8200 16.2568 -0.3017
48.8400 16.2634 -0.3015
48.8600 16.2701 -0.2937
48.8800 16.2768 -0.3072
48.9000 16.2835 -0.3044
48.9200 16.2902 -0.2949
48.9400 16.2969 -0.3044
48.9600 16.3036 -0.3028
48.9800 16.3102 -0.2995
49.0000 16.3168 -0.3089
49.0200 16.3234 -0.2998
49.0400 16.3301 -0.2996
49.0600 16.3368 -0.3044
49.0800 16.3435 -0.2998
49.1000 16.3502 -0.3039
49.1200 16.3569 -0.3059
49.1400 16.3635 -0.3003
49.1600 16.3702 -0.3025
49.1800 16.3768 -0.3062
49.2000 16.3834 -0.3046
49.2200 16.3900 -0.3053
49.2400 16.3967 -0.2972
49.2600 16.4035 -0.3045
49.2800 16.4101 -0.3093
49.3000 16.4168 -0.3026
49.3200 16.4235 -0.3002
49.3400 16.4301 -0.3091
49.3600 16.4368 -0.2972
49.3800 16.4434 -0.3049
49.4000 16.4500 -0.3056
49.4200 16.4567 -0.3013
49.4400 16.4634 -0.3087
49.4600 16.4701 -0.3048
49.4800 16.4768 -0.3022
49.5000 16.4835 -0.3122
49.5200 16.4902 -0.3031
49.5400 16.4968 -0.3024
49.5600 16.5034 -0.3095
49.5800 16.5101 -0.3066
49.6000 16.5168 -0.3034
49.6200 16.5235 -0.3088
49.6400 16.5302 -0.3007
49.6600 16.5369 -0.3057
49.6800 16.5435 -0.3126
49.7000 16.5502 -0.3052
49.7200 16.5568 -0.3001
49.7400 16.5634 -0.3068
49.7600 16.5701 -0.3057
49.7800 16.5768 -0.3102
49.8000 16.5835 -0.3106
49.8200 16.5902 -0.2992
49.8400 16.5968 -0.3073
49.8600 16.6035 -0.3137
49.8800 16.6102 -0.3049
49.9000 16.6168 -0.3098
49.9200 16.6235 -0.3130
49.9400 16.6301 -0.2974
49.9600 16.6368 -0.3046
49.9800 16.6435 -0.3096
50.0000 16.6502 -0.3084
50.0200 16.6568 -0.3044
50.0400 16.6635 -0.3041
50.0600 16.6702 -0.3085
50.0800 16.6768 -0.3139
50.1000 16.6834 -0.2999
50.1200 16.6900 -0.3028
50.1400 16.6967 -0.3117
50.1600 16.7034 -0.3085
50.1800 16.7101 -0.3058
50.2000 16.7168 -0.3106
50.2200 16.7235 -0.3095
50.2400 16.7302 -0.3099
50.2600 16.7368 -0.3045
50.2800 16.7434 -0.3150
50.3000 16.7501 -0.3108
50.3200 16.7567 -0.3053
50.3400 16.7635 -0.3078
50.3600 16.7701 -0.3108
50.3800 16.7768 -0.3077
50.4000 16.7835 -0.3153
50.4200 16.7902 -0.3137
50.4400 16.7969 -0.3037
50.4600 16.8035 -0.3165
50.4800 16.8101 -0.3132
50.5000 16.8168 -0.3091
50.5200 16.8235 -0.3156
50.5400 16.8302 -0.3163
50.5600 16.8369 -0.3073
50.5800 16.8436 -0.3126
50.6000 16.8502 -0.3189
50.6200 16.8569 -0.3107
50.6400 16.8634 -0.3141
50.6600 16.8700 -0.3081
50.6800 16.8767 -0.3155
50.7000 16.8835 -0.3207
50.7200 16.8902 -0.3032
50.7400 16.8968 -0.3143
50.7600 16.9035 -0.3202
50.7800 16.9102 -0.3171
50.8000 16.9168 -0.3101
50.8200 16.9234 -0.3164
50.8400 16.9301 -0.3059
50.8600 16.9367 -0.3127
50.8800 16.9434 -0.3280
50.9000 16.9501 -0.3065
50.9200 16.9568 -0.3077
50.9400 16.9635 -0.3220
50.9600 16.9701 -0.2997
50.9800 16.9768 -0.3179
51.0000 16.9834 -0.3309
51.0200 16.9901 -0.3042
51.0400 16.9967 -0.3079
51.0600 17.0035 -0.3229
51.0800 17.0102 -0.3083
51.1000 17.0169 -0.3196
51.1200 17.0236 -0.3259
51.1400 17.0302 -0.3010
51.1600 17.0369 -0.3199
51.1800 17.0434 -0.3230
51.2000 17.0501 -0.3001
51.2200 17.0567 -0.3230
51.2400 17.0635 -0.3214
51.2600 17.0702 -0.3010
51.2800 17.0769 -0.3256
51.3000 17.0835 -0.3224
51.3200 17.0902 -0.2985
51.3400 17.0968 -0.3245
51.3600 17.1034 -0.3247
51.3800 17.1101 -0.2982
51.4000 17.1167 -0.3296
51.4200 17.1234 -0.3203
51.4400 17.1301 -0.2972
51.4600 17.1368 -0.3288
51.4800 17.1435 -0.3242
51.5000 17.1502 -0.2995
51.5200 17.1568 -0.3313
51.5400 17.1634 -0.3177
51.5600 17.1700 -0.2993
51.5800 17.1767 -0.3309
51.6000 17.1834 -0.3186
51.6200 17.1901 -0.3060
51.6400 17.1968 -0.3301
51.6600 17.2035 -0.3138
51.6800 17.2102 -0.3081
51.7000 17.2168 -0.3305
51.7200 17.2234 -0.3234
51.7400 17.2300 -0.3062
51.7600 17.2367 -0.3215
51.7800 17.2434 -0.3240
51.8000 17.2501 -0.3126
51.8200 17.2568 -0.3193
51.8400 17.2635 -0.3234
51.8600 17.2702 -0.3178
51.8800 17.2769 -0.3222
51.9000 17.2835 -0.3253
51.9200 17.2901 -0.3119
51.9400 17.2968 -0.3186
51.9600 17.3035 -0.3266
51.9800 17.3102 -0.3187
52.0000 17.3169 -0.3231
52.0200 17.3235 -0.3214
52.0400 17.3302 -0.3131
52.0600 17.3369 -0.3223
52.0800 17.3434 -0.3241
52.1000 17.3500 -0.3192
52.1200 17.3567 -0.3202
52.1400 17.3634 -0.3182
52.1600 17.3701 -0.3167
52.1800 17.3768 -0.3278
52.2000 17.3835 -0.3214
52.2200 17.3902 -0.3211
52.2400 17.3968 -0.3263
52.2600 17.4034 -0.3200
52.2800 17.4100 -0.3177
52.3000 17.4167 -0.3229
52.3200 17.4234 -0.3163
52.3400 17.4301 -0.3245
52.3600 17.4368 -0.3283
52.3800 17.4434 -0.3151
52.4000 17.4501 -0.3224
52.4200 17.4568 -0.3294
52.4400 17.4634 -0.3151
52.4600 17.4701 -0.3206
52.4800 17.4767 -0.3220
52.5000 17.4835 -0.3248
52.5200 17.4902 -0.3286
52.5400 17.4968 -0.3174
52.5600 17.5035 -0.3221
52.5800 17.5102 -0.3300
52.6000 17.5169 -0.3249
52.6200 17.5235 -0.3222
52.6400 17.5301 -0.3250
52.6600 17.5367 -0.3229
52.6800 17.5434 -0.3217
52.7000 17.5502 -0.3234
52.7200 17.5569 -0.3258
52.7400 17.5635 -0.3288
52.7600 17.5702 -0.3218
52.7800 17.5769 -0.3227
52.8000 17.5835 -0.3296
52.8200 17.5901 -0.3198
52.8400 17.5967 -0.3295
52.8600 17.6034 -0.3235
52.8800 17.6102 -0.3217
52.9000 17.6168 -0.3301
52.9200 17.6235 -0.3234
52.9400 17.6302 -0.3181
52.9600 17.6368 -0.3382
52.9800 17.6435 -0.3219
53.0000 17.6501 -0.3184
53.0200 17.6567 -0.3318
53.0400 17.6634 -0.3209
53.0600 17.6701 -0.3246
53.0800 17.6768 -0.3307
53.1000 17.6835 -0.3150
53.1200 17.6901 -0.3290
53.1400 17.6968 -0.3361
53.1600 17.7035 -0.3170
53.1800 17.7101 -0.3276
53.2000 17.7167 -0.3295
53.2200 17.7234 -0.3160
53.2400 17.7302 -0.3352
53.2600 17.7368 -0.3279
53.2800 17.7435 -0.3155
53.3000 17.7502 -0.3390
53.3200 17.7569 -0.3247
53.3400 17.7635 -0.3197
53.3600 17.7701 -0.3366
53.3800 17.7767 -0.3214
53.4000 17.7835 -0.3168
53.4200 17.7902 -0.3391
53.4400 17.7969 -0.3254
53.4600 17.8035 -0.3241
53.4800 17.8102 -0.3364
53.5000 17.8168 -0.3238
53.5200 17.8235 -0.3329
53.5400 17.8301 -0.3334
53.5600 17.8367 -0.3177
53.5800 17.8434 -0.3371
53.6000 17.8501 -0.3316
53.6200 17.8568 -0.3211
53.6400 17.8635 -0.3348
53.6600 17.8702 -0.3334
53.6800 17.8768 -0.3274
53.7000 17.8835 -0.3338
53.7200 17.8900 -0.3297
53.7400 17.8967 -0.3306
53.7600 17.9034 -0.3293
53.7800 17.9101 -0.3328
53.8000 17.9168 -0.3345
53.8200 17.9235 -0.3307
53.8400 17.9302 -0.3352
53.8600 17.9368 -0.3340
53.8800 17.9435 -0.3270
53.9000 17.9501 -0.3349
53.9200 17.9567 -0.3349
53.9400 17.9634 -0.3268
53.9600 17.9701 -0.3376
53.9800 17.9768 -0.3322
54.0000 17.9835 -0.3330
54.0200 17.9902 -0.3398
54.0400 17.9969 -0.3240
54.0600 18.0035 -0.3340
54.0800 18.0101 -0.3456
54.1000 18.0167 -0.3247
54.1200 18.0234 -0.3346
54.1400 18.0301 -0.3428
54.1600 18.0368 -0.3267
54.1800 18.0435 -0.3331
54.2000 18.0502 -0.3370
54.2200 18.0569 -0.3366
54.2400 18.0635 -0.3351
54.2600 18.0701 -0.3320
54.2800 18.0767 -0.3330
54.3000 18.0834 -0.3356
54.3200 18.0902 -0.3361
54.3400 18.0968 -0.3302
54.3600 18.1035 -0.3376
54.3800 18.1102 -0.3335
54.4000 18.1169 -0.3365
54.4200 18.1235 -0.3329
54.4400 18.1301 -0.3339
54.4600 18.1367 -0.3380
54.4800 18.1434 -0.3333
54.5000 18.1501 -0.3338
54.5200 18.1568 -0.3427
54.5400 18.1635 -0.3375
54.5600 18.1701 -0.3305
54.5800 18.1768 -0.3396
54.6000 18.1834 -0.3357
54.6200 18.1901 -0.3296
54.6400 18.1967 -0.3432
54.6600 18.2034 -0.3308
54.6800 18.2101 -0.3330
54.7000 18.2168 -0.3473
54.7200 18.2235 -0.3336
54.7400 18.2302 -0.3310
54.7600 18.2369 -0.3463
54.7800 18.2435 -0.3355
54.8000 18.2501 -0.3274
54.8200 18.2567 -0.3497
54.8400 18.2634 -0.3356
54.8600 18.2702 -0.3325
54.8800 18.2769 -0.3484
54.9000 18.2836 -0.3357
54.9200 18.2902 -0.3299
54.9400 18.2969 -0.3503
54.9600 18.3035 -0.3339
54.9800 18.3101 -0.3350
55.0000 18.3167 -0.3485
55.0200 18.3234 -0.3346
55.0400 18.3301 -0.3387
55.0600 18.3368 -0.3462
55.0800 18.3435 -0.3357
55.1000 18.3502 -0.3429
55.1200 18.3569 -0.3415
55.1400 18.3635 -0.3396
55.1600 18.3701 -0.3452
55.1800 18.3767 -0.3382
55.2000 18.3833 -0.3368
55.2200 18.3901 -0.3513
55.2400 18.3968 -0.3411
55.2600 18.4035 -0.3371
55.2800 18.4101 -0.3462
55.3000 18.4168 -0.3463
55.3200 18.4235 -0.3407
55.3400 18.4301 -0.3440
55.3600 18.4367 -0.3450
55.3800 18.4434 -0.3471
55.4000 18.4501 -0.3452
55.4200 18.4569 -0.3449
55.4400 18.4635 -0.3426
55.4600 18.4702 -0.3460
55.4800 18.4769 -0.3463
55.5000 18.4835 -0.3438
55.5200 18.4902 -0.3473
55.5400 18.4968 -0.3446
55.5600 18.5035 -0.3439
55.5800 18.5101 -0.3417
55.6000 18.5168 -0.3558
55.6200 18.5235 -0.3423
55.6400 18.5302 -0.3412
55.6600 18.5369 -0.3545
55.6800 18.5435 -0.3423
55.7000 18.5501 -0.3508
55.7200 18.5567 -0.3535
55.7400 18.5634 -0.3414
55.7600 18.5701 -0.3555
55.7800 18.5768 -0.3506
55.8000 18.5835 -0.3457
55.8200 18.5902 -0.3553
55.8400 18.5969 -0.3551
55.8600 18.6035 -0.3384
55.8800 18.6101 -0.3593
55.9000 18.6167 -0.3550
55.9200 18.6234 -0.3391
55.9400 18.6301 -0.3614
55.9600 18.6368 -0.3577
55.9800 18.6435 -0.3394
56.0000 18.6502 -0.3613
56.0200 18.6568 -0.3537
56.0400 18.6635 -0.3429
56.0600 18.6701 -0.3593
56.0800 18.6767 -0.3565
56.1000 18.6834 -0.3440
56.1200 18.6901 -0.3581
56.1400 18.6968 -0.3564
56.1600 18.7035 -0.3452
56.1800 18.7102 -0.3584
56.2000 18.7169 -0.3522
56.2200 18.7235 -0.3516
56.2400 18.7301 -0.3577
56.2600 18.7367 -0.3500
56.2800 18.7434 -0.3483
56.3000 18.7501 -0.3583
56.3200 18.7568 -0.3536
56.3400 18.7635 -0.3472
56.3600 18.7702 -0.3551
56.3800 18.7769 -0.3554
56.4000 18.7835 -0.3496
56.4200 18.7901 -0.3551
56.4400 18.7967 -0.3491
56.4600 18.8034 -0.3516
56.4800 18.8101 -0.3524
56.5000 18.8168 -0.3563
56.5200 18.8235 -0.3509
56.5400 18.8302 -0.3498
56.5600 18.8368 -0.3590
56.5800 18.8435 -0.3520
56.6000 18.8501 -0.3513
56.6200 18.8567 -0.3619
56.6400 18.8633 -0.3460
56.6600 18.8700 -0.3441
56.6800 18.8768 -0.3642
56.7000 18.8835 -0.3562
56.7200 18.8902 -0.3460
56.7400 18.8968 -0.3627
56.7600 18.9035 -0.3491
56.7800 18.9101 -0.3483
56.8000 18.9167 -0.3670
56.8200 18.9234 -0.3436
56.8400 18.9301 -0.3506
56.8600 18.9369 -0.3670
56.8800 18.9436 -0.3443
56.9000 18.9502 -0.3576
56.9200 18.9569 -0.3649
56.9400 18.9635 -0.3487
56.9600 18.9701 -0.3568
56.9800 18.9767 -0.3610
57.0000 18.9834 -0.3491
57.0200 18.9901 -0.3598
57.0400 18.9968 -0.3557
57.0600 19.0035 -0.3518
57.0800 19.0102 -0.3615
57.1000 19.0169 -0.3545
57.1200 19.0235 -0.3622
57.1400 19.0301 -0.3567
57.1600 19.0367 -0.3537
57.1800 19.0434 -0.3609
57.2000 19.0501 -0.3524
57.2200 19.0568 -0.3538
57.2400 19.0635 -0.3651
57.2600 19.0702 -0.3546
57.2800 19.0769 -0.3577
57.3000 19.0835 -0.3606
57.3200 19.0901 -0.3565
57.3400 19.0967 -0.3599
57.3600 19.1034 -0.3626
57.3800 19.1101 -0.3493
57.4000 19.1168 -0.3621
57.4200 19.1235 -0.3715
57.4400 19.1301 -0.3494
57.4600 19.1368 -0.3546
57.4800 19.1435 -0.3670
57.5000 19.1501 -0.3530
57.5200 19.1567 -0.3641
57.5400 19.1634 -0.3589
57.5600 19.1701 -0.3497
57.5800 19.1768 -0.3713
57.6000 19.1835 -0.3673
57.6200 19.1902 -0.3518
57.6400 19.1969 -0.3652
57.6600 19.2035 -0.3653
57.6800 19.2102 -0.3593
57.7000 19.2168 -0.3675
57.7200 19.2234 -0.3570
57.7400 19.2301 -0.3666
57.7600 19.2368 -0.3671
57.7800 19.2435 -0.3610
57.8000 19.2502 -0.3613
57.8200 19.2569 -0.3671
57.8400 19.2636 -0.3714
57.8600 19.2702 -0.3608
57.8800 19.2767 -0.3595
57.9000 19.2834 -0.3726
57.9200 19.2901 -0.3665
57.9400 19.2968 -0.3640
57.9600 19.3035 -0.3700
57.9800 19.3102 -0.3634
58.0000 19.3168 -0.3679
58.0200 19.3235 -0.3767
58.0400 19.3301 -0.3595
58.0600 19.3367 -0.3726
58.0800 19.3434 -0.3712
58.1000 19.3501 -0.3561
58.1200 19.3568 -0.3727
58.1400 19.3635 -0.3771
58.1600 19.3701 -0.3608
58.1800 19.3768 -0.3733
58.2000 19.3835 -0.3744
58.2200 19.3901 -0.3635
58.2400 19.3968 -0.3764
58.2600 19.4034 -0.3753
58.2800 19.4101 -0.3603
58.3000 19.4168 -0.3790
58.3200 19.4235 -0.3753
58.3400 19.4302 -0.3674
58.3600 19.4369 -0.3760
58.3800 19.4436 -0.3765
58.4000 19.4502 -0.3732
58.4200 19.4567 -0.3716
58.4400 19.4634 -0.3760
58.4600 19.4701 -0.3704
58.4800 19.4768 -0.3723
58.5000 19.4835 -0.3774
58.5200 19.4902 -0.3758
58.5400 19.4969 -0.3774
58.5600 19.5035 -0.3821
58.5800 19.5101 -0.3733
58.6000 19.5168 -0.3727
58.6200 19.5234 -0.3802
58.6400 19.5301 -0.3759
58.6600 19.5368 -0.3733
58.6800 19.5435 -0.3792
58.7000 19.5502 -0.3738
58.7200 19.5568 -0.3767
58.7400 19.5635 -0.3828
58.7600 19.5701 -0.3735
58.7800 19.5767 -0.3722
58.8000 19.5834 -0.3832
58.8200 19.5900 -0.3779
58.8400 19.5968 -0.3781
58.8600 19.6035 -0.3799
58.8800 19.6101 -0.3744
58.9000 19.6168 -0.3806
58.9200 19.6235 -0.3852
58.9400 19.6301 -0.3757
58.9600 19.6367 -0.3836
58.9800 19.6434 -0.3783
59.0000 19.6501 -0.3780
59.0200 19.6568 -0.3823
59.0400 19.6635 -0.3831
59.0600 19.6702 -0.3895
59.0800 19.6769 -0.3779
59.1000 19.6835 -0.3831
59.1200 19.6902 -0.3867
59.1400 19.6968 -0.3796
59.1600 19.7034 -0.3852
59.1800 19.7101 -0.3851
59.2000 19.7168 -0.3801
59.2200 19.7235 -0.3969
59.2400 19.7302 -0.3872
59.2600 19.7369 -0.3771
59.2800 19.7435 -0.3947
59.3000 19.7501 -0.4029
