Raw Data
Time Displacement Force
(s) (mm) (N)
0.0000 0.0000 -0.6432
0.0200 0.0001 -0.6570
0.0400 0.0008 -0.6030
0.0600 0.0040 -0.5839
0.0800 0.0095 -0.6663
0.1000 0.0153 -0.6542
0.1200 0.0211 -0.6023
0.1400 0.0278 -0.6109
0.1600 0.0351 -0.6019
0.1800 0.0425 -0.5642
0.2000 0.0497 -0.5762
0.2200 0.0565 -0.5483
0.2400 0.0633 -0.5202
0.2600 0.0699 -0.5264
0.2800 0.0766 -0.5059
0.3000 0.0833 -0.4822
0.3200 0.0900 -0.4899
0.3400 0.0967 -0.4750
0.3600 0.1034 -0.4679
0.3800 0.1100 -0.4704
0.4000 0.1167 -0.4551
0.4200 0.1234 -0.4501
0.4400 0.1301 -0.4533
0.4600 0.1368 -0.4422
0.4800 0.1434 -0.4279
0.5000 0.1501 -0.4196
0.5200 0.1568 -0.4057
0.5400 0.1634 -0.3948
0.5600 0.1700 -0.3811
0.5800 0.1766 -0.3653
0.6000 0.1833 -0.3581
0.6200 0.1901 -0.3426
0.6400 0.1968 -0.3293
0.6600 0.2034 -0.3153
0.6800 0.2101 -0.2895
0.7000 0.2168 -0.2894
0.7200 0.2234 -0.2608
0.7400 0.2300 -0.2359
0.7600 0.2367 -0.2340
0.7800 0.2433 -0.2046
0.8000 0.2500 -0.1816
0.8200 0.2567 -0.1785
0.8400 0.2634 -0.1471
0.8600 0.2701 -0.1326
0.8800 0.2768 -0.1286
0.9000 0.2834 -0.0982
0.9200 0.2900 -0.0737
0.9400 0.2966 -0.0705
0.9600 0.3033 -0.0525
0.9800 0.3100 -0.0550
1.0000 0.3167 -0.0521
1.0200 0.3234 -0.0294
1.0400 0.3301 -0.0187
1.0600 0.3367 -0.0003
1.0800 0.3434 0.0275
1.1000 0.3500 0.0454
1.1200 0.3566 0.0661
1.1400 0.3633 0.0848
1.1600 0.3700 0.0814
1.1800 0.3767 0.0839
1.2000 0.3834 0.0870
1.2200 0.3901 0.0867
1.2400 0.3968 0.0859
1.2600 0.4035 0.0914
1.2800 0.4101 0.0915
1.3000 0.4167 0.0941
1.3200 0.4234 0.0963
1.3400 0.4301 0.0967
1.3600 0.4368 0.0911
1.3800 0.4435 0.1004
1.4000 0.4502 0.1020
1.4200 0.4568 0.0969
1.4400 0.4634 0.0999
1.4600 0.4700 0.0995
1.4800 0.4766 0.1022
1.5000 0.4833 0.1056
1.5200 0.4900 0.1019
1.5400 0.4967 0.0970
1.5600 0.5034 0.0959
1.5800 0.5101 0.1076
1.6000 0.5167 0.0971
1.6200 0.5234 0.0966
1.6400 0.5300 0.1090
1.6600 0.5366 0.0978
1.6800 0.5433 0.0937
1.7000 0.5500 0.1030
1.7200 0.5567 0.0975
1.7400 0.5634 0.0926
1.7600 0.5701 0.1091
1.7800 0.5768 0.0906
1.8000 0.5834 0.0933
1.8200 0.5901 0.1074
1.8400 0.5967 0.0903
1.8600 0.6034 0.0901
1.8800 0.6100 0.1075
1.9000 0.6167 0.0845
1.9200 0.6234 0.0880
1.9400 0.6301 0.1066
1.9600 0.6368 0.0844
1.9800 0.6434 0.0842
2.0000 0.6500 0.1023
2.0200 0.6567 0.0803
2.0400 0.6633 0.0876
2.0600 0.6701 0.0991
2.0800 0.6768 0.0745
2.1000 0.6834 0.0798
2.1200 0.6901 0.1018
2.1400 0.6967 0.0729
2.1600 0.7034 0.0804
2.1800 0.7100 0.0944
2.2000 0.7167 0.0654
2.2200 0.7233 0.0834
2.2400 0.7301 0.0923
2.2600 0.7368 0.0682
2.2800 0.7434 0.0796
2.3000 0.7501 0.0888
2.3200 0.7568 0.0632
2.3400 0.7634 0.0819
2.3600 0.7700 0.0790
2.3800 0.7767 0.0669
2.4000 0.7833 0.0830
2.4200 0.7900 0.0745
2.4400 0.7967 0.0587
2.4600 0.8034 0.0906
2.4800 0.8101 0.0781
2.5000 0.8168 0.0571
2.5200 0.8235 0.0827
2.5400 0.8301 0.0793
2.5600 0.8367 0.0538
2.5800 0.8433 0.0918
2.6000 0.8501 0.0726
2.6200 0.8568 0.0396
2.6400 0.8635 0.0957
2.6600 0.8702 0.0750
2.6800 0.8768 0.0311
2.7000 0.8834 0.0919
2.7200 0.8900 0.0850
2.7400 0.8966 0.0324
2.7600 0.9033 0.0859
2.7800 0.9101 0.0821
2.8000 0.9168 0.0287
2.8200 0.9235 0.0865
2.8400 0.9301 0.0823
2.8600 0.9368 0.0222
2.8800 0.9435 0.0817
2.9000 0.9501 0.0837
2.9200 0.9567 0.0397
2.9400 0.9633 0.0696
2.9600 0.9700 0.0813
2.9800 0.9767 0.0406
3.0000 0.9834 0.0662
3.0200 0.9901 0.0707
3.0400 0.9968 0.0500
3.0600 1.0034 0.0683
3.0800 1.0100 0.0667
3.1000 1.0166 0.0450
3.1200 1.0233 0.0663
3.1400 1.0300 0.0626
3.1600 1.0367 0.0530
3.1800 1.0434 0.0632
3.2000 1.0501 0.0645
3.2200 1.0568 0.0516
3.2400 1.0634 0.0548
3.2600 1.0700 0.0662
3.2800 1.0767 0.0583
3.3000 1.0833 0.0503
3.3200 1.0901 0.0550
3.3400 1.0968 0.0630
3.3600 1.1035 0.0511
3.3800 1.1101 0.0503
3.4000 1.1168 0.0591
3.4200 1.1235 0.0482
3.4400 1.1301 0.0505
3.4600 1.1367 0.0610
3.4800 1.1433 0.0485
3.5000 1.1500 0.0513
3.5200 1.1568 0.0636
3.5400 1.1635 0.0437
3.5600 1.1701 0.0498
3.5800 1.1768 0.0639
3.6000 1.1834 0.0425
3.6200 1.1900 0.0548
3.6400 1.1967 0.0560
3.6600 1.2033 0.0458
3.6800 1.2100 0.0607
3.7000 1.2168 0.0526
3.7200 1.2234 0.0352
3.7400 1.2301 0.0632
3.7600 1.2367 0.0522
3.7800 1.2434 0.0394
3.8000 1.2501 0.0577
3.8200 1.2567 0.0510
3.8400 1.2633 0.0436
3.8600 1.2700 0.0544
3.8800 1.2767 0.0543
3.9000 1.2834 0.0417
3.9200 1.2901 0.0566
3.9400 1.2968 0.0495
3.9600 1.3035 0.0409
3.9800 1.3101 0.0534
4.0000 1.3167 0.0515
4.0200 1.3233 0.0448
4.0400 1.3300 0.0535
4.0600 1.3367 0.0475
4.0800 1.3434 0.0446
4.1000 1.3501 0.0484
4.1200 1.3568 0.0512
4.1400 1.3635 0.0421
4.1600 1.3701 0.0456
4.1800 1.3767 0.0449
4.2000 1.3833 0.0455
4.2200 1.3900 0.0498
4.2400 1.3968 0.0435
4.2600 1.4035 0.0398
4.2800 1.4101 0.0459
4.3000 1.4168 0.0471
4.3200 1.4235 0.0405
4.3400 1.4301 0.0450
4.3600 1.4367 0.0511
4.3800 1.4433 0.0424
4.4000 1.4500 0.0413
4.4200 1.4567 0.0476
4.4400 1.4634 0.0411
4.4600 1.4701 0.0456
4.4800 1.4768 0.0426
4.5000 1.4834 0.0426
4.5200 1.4901 0.0406
4.5400 1.4967 0.0511
4.5600 1.5033 0.0449
4.5800 1.5100 0.0410
4.6000 1.5167 0.0454
4.6200 1.5234 0.0439
4.6400 1.5301 0.0416
4.6600 1.5368 0.0498
4.6800 1.5434 0.0342
4.7000 1.5501 0.0426
4.7200 1.5567 0.0470
4.7400 1.5633 0.0342
4.7600 1.5701 0.0395
4.7800 1.5768 0.0522
4.8000 1.5835 0.0315
4.8200 1.5902 0.0377
4.8400 1.5968 0.0472
4.8600 1.6035 0.0365
4.8800 1.6101 0.0362
4.9000 1.6167 0.0494
4.9200 1.6233 0.0326
4.9400 1.6300 0.0397
4.9600 1.6367 0.0448
4.9800 1.6434 0.0330
5.0000 1.6501 0.0372
5.0200 1.6568 0.0433
5.0400 1.6635 0.0347
5.0600 1.6701 0.0346
5.0800 1.6767 0.0431
5.1000 1.6833 0.0349
5.1200 1.6900 0.0366
5.1400 1.6967 0.0432
5.1600 1.7034 0.0301
5.1800 1.7101 0.0341
5.2000 1.7168 0.0448
5.2200 1.7235 0.0287
5.2400 1.7301 0.0298
5.2600 1.7367 0.0373
5.2800 1.7433 0.0267
5.3000 1.7500 0.0371
5.3200 1.7567 0.0426
5.3400 1.7634 0.0216
5.3600 1.7701 0.0345
5.3800 1.7767 0.0373
5.4000 1.7834 0.0178
5.4200 1.7900 0.0351
5.4400 1.7967 0.0407
5.4600 1.8033 0.0209
5.4800 1.8100 0.0380
5.5000 1.8167 0.0350
5.5200 1.8234 0.0207
5.5400 1.8301 0.0324
5.5600 1.8368 0.0328
5.5800 1.8435 0.0205
5.6000 1.8501 0.0317
5.6200 1.8567 0.0278
5.6400 1.8633 0.0239
5.6600 1.8700 0.0353
5.6800 1.8767 0.0195
5.7000 1.8834 0.0248
5.7200 1.8901 0.0283
5.7400 1.8968 0.0217
5.7600 1.9035 0.0270
5.7800 1.9101 0.0246
5.8000 1.9167 0.0178
5.8200 1.9233 0.0342
5.8400 1.9300 0.0230
5.8600 1.9367 0.0172
5.8800 1.9434 0.0306
5.9000 1.9501 0.0266
5.9200 1.9567 0.0122
5.9400 1.9634 0.0351
5.9600 1.9700 0.0169
5.9800 1.9767 0.0171
6.0000 1.9833 0.0341
6.0200 1.9900 0.0111
6.0400 1.9967 0.0255
6.0600 2.0034 0.0343
6.0800 2.0101 0.0019
6.1000 2.0168 0.0240
6.1200 2.0235 0.0354
6.1400 2.0301 0.0014
6.1600 2.0367 0.0210
6.1800 2.0433 0.0332
6.2000 2.0500 0.0020
6.2200 2.0567 0.0247
6.2400 2.0634 0.0282
6.2600 2.0701 0.0009
6.2800 2.0768 0.0282
6.3000 2.0835 0.0192
6.3200 2.0901 0.0083
6.3400 2.0967 0.0230
6.3600 2.1033 0.0207
6.3800 2.1100 0.0113
6.4000 2.1167 0.0161
6.4200 2.1234 0.0113
6.4400 2.1301 0.0214
6.4600 2.1368 0.0159
6.4800 2.1435 0.0108
6.5000 2.1501 0.0209
6.5200 2.1567 0.0094
6.5400 2.1634 0.0109
6.5600 2.1700 0.0253
6.5800 2.1767 0.0005
6.6000 2.1834 0.0202
6.6200 2.1901 0.0192
6.6400 2.1968 0.0003
6.6600 2.2035 0.0191
6.6800 2.2101 0.0193
6.7000 2.2167 -0.0027
6.7200 2.2233 0.0241
6.7400 2.2299 0.0169
6.7600 2.2367 -0.0029
6.7800 2.2434 0.0261
6.8000 2.2501 0.0034
6.8200 2.2568 0.0013
6.8400 2.2634 0.0306
6.8600 2.2701 0.0008
6.8800 2.2767 0.0032
6.9000 2.2833 0.0298
6.9200 2.2900 -0.0042
6.9400 2.2967 0.0075
6.9600 2.3034 0.0234
6.9800 2.3101 -0.0037
7.0000 2.3168 0.0087
7.0200 2.3235 0.0202
7.0400 2.3301 -0.0068
7.0600 2.3367 0.0164
7.0800 2.3434 0.0176
7.1000 2.3500 -0.0091
7.1200 2.3567 0.0152
7.1400 2.3634 0.0150
7.1600 2.3701 -0.0076
7.1800 2.3768 0.0140
7.2000 2.3835 0.0083
7.2200 2.3901 -0.0091
7.2400 2.3967 0.0134
7.2600 2.4033 0.0101
7.2800 2.4100 -0.0052
7.3000 2.4167 0.0108
7.3200 2.4234 0.0052
7.3400 2.4301 -0.0029
7.3600 2.4368 0.0110
7.3800 2.4434 0.0033
7.4000 2.4501 -0.0019
7.4200 2.4567 0.0013
7.4400 2.4633 0.0112
7.4600 2.4700 0.0001
7.4800 2.4767 0.0033
7.5000 2.4834 0.0109
7.5200 2.4900 0.0003
7.5400 2.4967 -0.0064
7.5600 2.5034 0.0138
7.5800 2.5101 -0.0025
7.6000 2.5167 -0.0108
7.6200 2.5233 0.0121
7.6400 2.5300 0.0068
7.6600 2.5367 -0.0117
7.6800 2.5434 0.0076
7.7000 2.5501 0.0058
7.7200 2.5568 -0.0089
7.7400 2.5635 0.0026
7.7600 2.5702 0.0002
7.7800 2.5768 -0.0083
7.8000 2.5833 0.0056
7.8200 2.5900 -0.0011
7.8400 2.5967 -0.0071
7.8600 2.6034 0.0090
7.8800 2.6101 -0.0030
7.9000 2.6168 -0.0063
7.9200 2.6235 0.0075
7.9400 2.6301 -0.0054
7.9600 2.6367 -0.0116
7.9800 2.6433 0.0110
8.0000 2.6500 -0.0099
8.0200 2.6567 -0.0074
8.0400 2.6634 0.0097
8.0600 2.6701 -0.0075
8.0800 2.6768 -0.0107
8.1000 2.6834 0.0116
8.1200 2.6901 -0.0108
8.1400 2.6967 -0.0093
8.1600 2.7033 0.0034
8.1800 2.7100 -0.0035
8.2000 2.7167 -0.0021
8.2200 2.7234 -0.0022
8.2400 2.7301 -0.0065
8.2600 2.7368 0.0010
8.2800 2.7435 -0.0054
8.3000 2.7501 -0.0106
8.3200 2.7567 0.0021
8.3400 2.7633 -0.0052
8.3600 2.7700 -0.0061
8.3800 2.7767 -0.0055
8.4000 2.7834 -0.0067
8.4200 2.7901 -0.0008
8.4400 2.7968 -0.0105
8.4600 2.8034 -0.0145
8.4800 2.8101 -0.0002
8.5000 2.8168 -0.0044
8.5200 2.8234 -0.0110
8.5400 2.8300 0.0012
8.5600 2.8367 -0.0116
8.5800 2.8434 -0.0142
8.6000 2.8501 0.0031
8.6200 2.8568 -0.0214
8.6400 2.8635 -0.0094
8.6600 2.8701 0.0060
8.6800 2.8768 -0.0205
8.7000 2.8834 -0.0092
8.7200 2.8900 0.0092
8.7400 2.8967 -0.0172
8.7600 2.9034 -0.0075
8.7800 2.9101 -0.0043
8.8000 2.9168 -0.0176
8.8200 2.9234 -0.0075
8.8400 2.9301 -0.0046
8.8600 2.9367 -0.0227
8.8800 2.9433 -0.0028
8.9000 2.9499 -0.0038
8.9200 2.9566 -0.0203
8.9400 2.9634 -0.0051
8.9600 2.9700 -0.0093
8.9800 2.9767 -0.0174
9.0000 2.9834 -0.0075
9.0200 2.9901 -0.0120
9.0400 2.9967 -0.0170
9.0600 3.0034 -0.0030
9.0800 3.0100 -0.0137
9.1000 3.0167 -0.0188
9.1200 3.0234 -0.0096
9.1400 3.0301 -0.0106
9.1600 3.0368 -0.0197
9.1800 3.0435 -0.0112
9.2000 3.0502 -0.0141
9.2200 3.0568 -0.0179
9.2400 3.0634 -0.0172
9.2600 3.0700 -0.0073
9.2800 3.0767 -0.0140
9.3000 3.0834 -0.0192
9.3200 3.0901 -0.0119
9.3400 3.0968 -0.0151
9.3600 3.1035 -0.0152
9.3800 3.1101 -0.0160
9.4000 3.1168 -0.0177
9.4200 3.1233 -0.0122
9.4400 3.1300 -0.0095
9.4600 3.1367 -0.0172
9.4800 3.1434 -0.0195
9.5000 3.1501 -0.0113
9.5200 3.1568 -0.0216
9.5400 3.1634 -0.0170
9.5600 3.1701 -0.0128
9.5800 3.1768 -0.0246
9.6000 3.1834 -0.0179
9.6200 3.1900 -0.0124
9.6400 3.1967 -0.0179
9.6600 3.2034 -0.0191
9.6800 3.2100 -0.0173
9.7000 3.2167 -0.0193
9.7200 3.2234 -0.0165
9.7400 3.2301 -0.0211
9.7600 3.2367 -0.0178
9.7800 3.2433 -0.0209
9.8000 3.2500 -0.0199
9.8200 3.2567 -0.0195
9.8400 3.2634 -0.0169
9.8600 3.2701 -0.0235
9.8800 3.2768 -0.0166
9.9000 3.2835 -0.0234
9.9200 3.2902 -0.0232
9.9400 3.2968 -0.0136
9.9600 3.3034 -0.0221
9.9800 3.3100 -0.0226
10.0000 3.3167 -0.0149
10.0200 3.3235 -0.0290
10.0400 3.3302 -0.0247
10.0600 3.3368 -0.0146
10.0800 3.3435 -0.0219
10.1000 3.3501 -0.0250
10.1200 3.3567 -0.0203
10.1400 3.3634 -0.0285
10.1600 3.3700 -0.0210
10.1800 3.3767 -0.0147
10.2000 3.3833 -0.0318
10.2200 3.3900 -0.0227
10.2400 3.3967 -0.0232
10.2600 3.4034 -0.0229
10.2800 3.4101 -0.0247
10.3000 3.4167 -0.0283
10.3200 3.4233 -0.0201
10.3400 3.4299 -0.0219
10.3600 3.4366 -0.0283
10.3800 3.4434 -0.0147
10.4000 3.4501 -0.0315
10.4200 3.4567 -0.0325
10.4400 3.4634 -0.0177
10.4600 3.4701 -0.0263
10.4800 3.4767 -0.0339
10.5000 3.4834 -0.0188
10.5200 3.4900 -0.0287
10.5400 3.4967 -0.0288
10.5600 3.5034 -0.0189
10.5800 3.5101 -0.0386
10.6000 3.5168 -0.0268
10.6200 3.5234 -0.0204
10.6400 3.5301 -0.0398
10.6600 3.5368 -0.0208
10.6800 3.5434 -0.0238
10.7000 3.5500 -0.0380
10.7200 3.5567 -0.0162
10.7400 3.5634 -0.0298
10.7600 3.5701 -0.0370
10.7800 3.5768 -0.0154
10.8000 3.5835 -0.0370
10.8200 3.5902 -0.0378
10.8400 3.5968 -0.0129
10.8600 3.6034 -0.0436
10.8800 3.6100 -0.0293
10.9000 3.6167 -0.0128
10.9200 3.6234 -0.0475
10.9400 3.6301 -0.0317
10.9600 3.6368 -0.0130
10.9800 3.6434 -0.0481
11.0000 3.6501 -0.0241
11.0200 3.6567 -0.0203
11.0400 3.6633 -0.0437
11.0600 3.6699 -0.0217
11.0800 3.6766 -0.0261
11.1000 3.6833 -0.0430
11.1200 3.6900 -0.0218
11.1400 3.6967 -0.0275
11.1600 3.7034 -0.0413
11.1800 3.7101 -0.0209
11.2000 3.7167 -0.0317
11.2200 3.7234 -0.0407
11.2400 3.7300 -0.0208
11.2600 3.7367 -0.0296
11.2800 3.7434 -0.0375
11.3000 3.7501 -0.0241
11.3200 3.7568 -0.0320
11.3400 3.7635 -0.0353
11.3600 3.7702 -0.0317
11.3800 3.7768 -0.0296
11.4000 3.7834 -0.0374
11.4200 3.7900 -0.0266
11.4400 3.7967 -0.0324
11.4600 3.8034 -0.0376
11.4800 3.8101 -0.0291
11.5000 3.8168 -0.0289
11.5200 3.8235 -0.0399
11.5400 3.8301 -0.0324
11.5600 3.8368 -0.0284
11.5800 3.8434 -0.0416
11.6000 3.8500 -0.0302
11.6200 3.8567 -0.0270
11.6400 3.8634 -0.0457
11.6600 3.8700 -0.0303
11.6800 3.8767 -0.0281
11.7000 3.8834 -0.0443
11.7200 3.8901 -0.0319
11.7400 3.8967 -0.0322
11.7600 3.9034 -0.0455
11.7800 3.9100 -0.0323
11.8000 3.9166 -0.0280
11.8200 3.9233 -0.0464
11.8400 3.9300 -0.0325
11.8600 3.9367 -0.0335
11.8800 3.9434 -0.0452
11.9000 3.9501 -0.0373
11.9200 3.9567 -0.0304
11.9400 3.9634 -0.0472
11.9600 3.9700 -0.0407
11.9800 3.9767 -0.0323
12.0000 3.9834 -0.0453
12.0200 3.9901 -0.0417
12.0400 3.9968 -0.0270
12.0600 4.0035 -0.0475
12.0800 4.0101 -0.0398
12.1000 4.0168 -0.0335
12.1200 4.0234 -0.0474
12.1400 4.0300 -0.0348
12.1600 4.0367 -0.0307
12.1800 4.0434 -0.0522
12.2000 4.0501 -0.0393
12.2200 4.0568 -0.0320
12.2400 4.0635 -0.0523
12.2600 4.0702 -0.0376
12.2800 4.0768 -0.0322
12.3000 4.0834 -0.0535
12.3200 4.0900 -0.0358
12.3400 4.0966 -0.0311
12.3600 4.1033 -0.0510
12.3800 4.1100 -0.0413
12.4000 4.1167 -0.0352
12.4200 4.1234 -0.0463
12.4400 4.1301 -0.0401
12.4600 4.1368 -0.0338
12.4800 4.1434 -0.0519
12.5000 4.1500 -0.0429
12.5200 4.1566 -0.0373
12.5400 4.1633 -0.0445
12.5600 4.1701 -0.0457
12.5800 4.1767 -0.0404
12.6000 4.1834 -0.0474
12.6200 4.1901 -0.0415
12.6400 4.1968 -0.0444
12.6600 4.2034 -0.0401
12.6800 4.2100 -0.0468
12.7000 4.2167 -0.0416
12.7200 4.2234 -0.0431
12.7400 4.2301 -0.0451
12.7600 4.2368 -0.0414
12.7800 4.2435 -0.0459
12.8000 4.2502 -0.0516
12.8200 4.2568 -0.0427
12.8400 4.2634 -0.0431
12.8600 4.2700 -0.0475
12.8800 4.2767 -0.0438
12.9000 4.2834 -0.0440
12.9200 4.2901 -0.0515
12.9400 4.2968 -0.0440
12.9600 4.3035 -0.0412
12.9800 4.3102 -0.0521
13.0000 4.3168 -0.0479
13.0200 4.3234 -0.0452
13.0400 4.3300 -0.0469
13.0600 4.3367 -0.0440
13.0800 4.3434 -0.0442
13.1000 4.3501 -0.0540
13.1200 4.3568 -0.0434
13.1400 4.3634 -0.0497
13.1600 4.3701 -0.0455
13.1800 4.3768 -0.0479
13.2000 4.3834 -0.0569
13.2200 4.3900 -0.0381
13.2400 4.3966 -0.0455
13.2600 4.4033 -0.0615
13.2800 4.4100 -0.0463
13.3000 4.4167 -0.0395
13.3200 4.4234 -0.0578
13.3400 4.4301 -0.0531
13.3600 4.4368 -0.0399
13.3800 4.4434 -0.0619
13.4000 4.4500 -0.0543
13.4200 4.4566 -0.0378
13.4400 4.4633 -0.0571
13.4600 4.4701 -0.0553
13.4800 4.4768 -0.0515
13.5000 4.4834 -0.0552
13.5200 4.4901 -0.0471
13.5400 4.4968 -0.0518
13.5600 4.5034 -0.0597
13.5800 4.5101 -0.0475
13.6000 4.5167 -0.0517
13.6200 4.5234 -0.0550
13.6400 4.5301 -0.0476
13.6600 4.5368 -0.0619
13.6800 4.5434 -0.0562
13.7000 4.5501 -0.0404
13.7200 4.5568 -0.0643
13.7400 4.5634 -0.0528
13.7600 4.5700 -0.0522
13.7800 4.5766 -0.0589
13.8000 4.5833 -0.0467
13.8200 4.5901 -0.0508
13.8400 4.5967 -0.0637
13.8600 4.6034 -0.0491
13.8800 4.6101 -0.0538
13.9000 4.6168 -0.0653
13.9200 4.6234 -0.0420
13.9400 4.6300 -0.0555
13.9600 4.6366 -0.0686
13.9800 4.6433 -0.0424
14.0000 4.6500 -0.0576
14.0200 4.6567 -0.0631
14.0400 4.6634 -0.0458
14.0600 4.6701 -0.0653
14.0800 4.6768 -0.0628
14.1000 4.6834 -0.0446
14.1200 4.6900 -0.0580
14.1400 4.6966 -0.0632
14.1600 4.7034 -0.0464
14.1800 4.7101 -0.0661
14.2000 4.7168 -0.0655
14.2200 4.7234 -0.0494
14.2400 4.7301 -0.0622
14.2600 4.7368 -0.0693
14.2800 4.7434 -0.0542
14.3000 4.7500 -0.0630
14.3200 4.7566 -0.0598
14.3400 4.7633 -0.0564
14.3600 4.7701 -0.0667
14.3800 4.7768 -0.0679
14.4000 4.7835 -0.0534
14.4200 4.7902 -0.0624
14.4400 4.7969 -0.0683
14.4600 4.8035 -0.0577
14.4800 4.8100 -0.0633
14.5000 4.8167 -0.0648
14.5200 4.8233 -0.0538
14.5400 4.8300 -0.0635
14.5600 4.8367 -0.0704
14.5800 4.8434 -0.0515
14.6000 4.8501 -0.0659
14.6200 4.8567 -0.0670
14.6400 4.8634 -0.0563
14.6600 4.8700 -0.0697
14.6800 4.8766 -0.0648
14.7000 4.8833 -0.0512
14.7200 4.8900 -0.0738
14.7400 4.8967 -0.0635
14.7600 4.9034 -0.0538
14.7800 4.9101 -0.0706
14.8000 4.9168 -0.0704
14.8200 4.9234 -0.0556
14.8400 4.9300 -0.0658
14.8600 4.9367 -0.0688
14.8800 4.9434 -0.0571
14.9000 4.9501 -0.0670
14.9200 4.9568 -0.0690
14.9400 4.9634 -0.0560
14.9600 4.9702 -0.0709
14.9800 4.9768 -0.0661
15.0000 4.9835 -0.0564
15.0200 4.9900 -0.0708
15.0400 4.9966 -0.0640
15.0600 5.0033 -0.0543
15.0800 5.0100 -0.0708
15.1000 5.0167 -0.0652
15.1200 5.0234 -0.0575
15.1400 5.0301 -0.0745
15.1600 5.0368 -0.0639
15.1800 5.0435 -0.0582
15.2000 5.0501 -0.0752
15.2200 5.0567 -0.0659
15.2400 5.0634 -0.0579
15.2600 5.0701 -0.0745
15.2800 5.0768 -0.0620
15.3000 5.0834 -0.0605
15.3200 5.0901 -0.0718
15.3400 5.0968 -0.0674
15.3600 5.1034 -0.0619
15.3800 5.1100 -0.0704
15.4000 5.1166 -0.0629
15.4200 5.1233 -0.0640
15.4400 5.1300 -0.0693
15.4600 5.1367 -0.0689
15.4800 5.1434 -0.0662
15.5000 5.1501 -0.0674
15.5200 5.1568 -0.0643
15.5400 5.1634 -0.0659
15.5600 5.1700 -0.0697
15.5800 5.1767 -0.0691
15.6000 5.1833 -0.0595
15.6200 5.1901 -0.0666
15.6400 5.1968 -0.0780
15.6600 5.2035 -0.0631
15.6800 5.2101 -0.0695
15.7000 5.2168 -0.0740
15.7200 5.2235 -0.0632
15.7400 5.2301 -0.0649
15.7600 5.2367 -0.0798
15.7800 5.2434 -0.0606
15.8000 5.2501 -0.0697
15.8200 5.2568 -0.0771
15.8400 5.2635 -0.0617
15.8600 5.2701 -0.0750
15.8800 5.2768 -0.0788
15.9000 5.2834 -0.0605
15.9200 5.2900 -0.0745
15.9400 5.2966 -0.0774
15.9600 5.3033 -0.0640
15.9800 5.3100 -0.0750
16.0000 5.3168 -0.0748
16.0200 5.3234 -0.0643
16.0400 5.3301 -0.0804
16.0600 5.3368 -0.0756
16.0800 5.3434 -0.0664
16.1000 5.3500 -0.0813
16.1200 5.3566 -0.0685
16.1400 5.3633 -0.0700
16.1600 5.3701 -0.0778
16.1800 5.3768 -0.0773
16.2000 5.3834 -0.0726
16.2200 5.3901 -0.0743
16.2400 5.3968 -0.0756
16.2600 5.4034 -0.0791
16.2800 5.4101 -0.0718
16.3000 5.4167 -0.0796
16.3200 5.4234 -0.0737
16.3400 5.4300 -0.0741
16.3600 5.4367 -0.0773
16.3800 5.4434 -0.0752
16.4000 5.4501 -0.0706
16.4200 5.4568 -0.0847
16.4400 5.4635 -0.0778
16.4600 5.4701 -0.0716
16.4800 5.4766 -0.0826
16.5000 5.4833 -0.0778
16.5200 5.4900 -0.0686
16.5400 5.4968 -0.0894
16.5600 5.5035 -0.0741
16.5800 5.5101 -0.0750
16.6000 5.5168 -0.0857
16.6200 5.5234 -0.0769
16.6400 5.5300 -0.0725
16.6600 5.5366 -0.0828
16.6800 5.5433 -0.0757
16.7000 5.5500 -0.0769
16.7200 5.5567 -0.0894
16.7400 5.5633 -0.0734
16.7600 5.5700 -0.0763
16.7800 5.5768 -0.0866
16.8000 5.5835 -0.0775
16.8200 5.5901 -0.0761
16.8400 5.5967 -0.0870
16.8600 5.6033 -0.0755
16.8800 5.6100 -0.0782
16.9000 5.6167 -0.0872
16.9200 5.6234 -0.0784
16.9400 5.6301 -0.0768
16.9600 5.6368 -0.0909
16.9800 5.6435 -0.0749
17.0000 5.6501 -0.0784
17.0200 5.6567 -0.0867
17.0400 5.6633 -0.0838
17.0600 5.6701 -0.0780
17.0800 5.6768 -0.0846
17.1000 5.6835 -0.0823
17.1200 5.6901 -0.0847
17.1400 5.6968 -0.0787
17.1600 5.7034 -0.0833
17.1800 5.7100 -0.0868
17.2000 5.7167 -0.0802
17.2200 5.7233 -0.0798
17.2400 5.7301 -0.0862
17.2600 5.7368 -0.0830
17.2800 5.7435 -0.0787
17.3000 5.7501 -0.0915
17.3200 5.7568 -0.0785
17.3400 5.7635 -0.0865
17.3600 5.7701 -0.0910
17.3800 5.7767 -0.0739
17.4000 5.7833 -0.0848
17.4200 5.7900 -0.0955
17.4400 5.7967 -0.0765
17.4600 5.8034 -0.0812
17.4800 5.8101 -0.0908
17.5000 5.8168 -0.0877
17.5200 5.8234 -0.0846
17.5400 5.8300 -0.0856
17.5600 5.8366 -0.0817
17.5800 5.8433 -0.0944
17.6000 5.8500 -0.0789
17.6200 5.8567 -0.0787
17.6400 5.8634 -0.1002
17.6600 5.8701 -0.0840
17.6800 5.8768 -0.0815
17.7000 5.8834 -0.0950
17.7200 5.8901 -0.0849
17.7400 5.8967 -0.0854
17.7600 5.9034 -0.0998
17.7800 5.9101 -0.0743
17.8000 5.9167 -0.0805
17.8200 5.9234 -0.1099
17.8400 5.9301 -0.0825
17.8600 5.9368 -0.0751
17.8800 5.9435 -0.1052
17.9000 5.9501 -0.0896
17.9200 5.9567 -0.0833
17.9400 5.9633 -0.0952
17.9600 5.9700 -0.0879
17.9800 5.9768 -0.0880
18.0000 5.9835 -0.0973
18.0200 5.9902 -0.0810
18.0400 5.9968 -0.0927
18.0600 6.0035 -0.0987
18.0800 6.0101 -0.0815
18.1000 6.0167 -0.0906
18.1200 6.0233 -0.0948
18.1400 6.0300 -0.0830
18.1600 6.0367 -0.0935
18.1800 6.0434 -0.0938
18.2000 6.0501 -0.0927
18.2200 6.0568 -0.0945
18.2400 6.0635 -0.0893
18.2600 6.0701 -0.0928
18.2800 6.0767 -0.0876
18.3000 6.0833 -0.1012
18.3200 6.0900 -0.0909
18.3400 6.0967 -0.0837
18.3600 6.1034 -0.1008
18.3800 6.1101 -0.0961
18.4000 6.1168 -0.0821
18.4200 6.1235 -0.0986
18.4400 6.1301 -0.0995
18.4600 6.1367 -0.0852
18.4800 6.1433 -0.0953
18.5000 6.1500 -0.0977
18.5200 6.1567 -0.0837
18.5400 6.1634 -0.1057
18.5600 6.1701 -0.0893
18.5800 6.1768 -0.0862
18.6000 6.1835 -0.1031
18.6200 6.1901 -0.0961
18.6400 6.1967 -0.0862
18.6600 6.2033 -0.0996
18.6800 6.2100 -0.0994
18.7000 6.2167 -0.0919
18.7200 6.2235 -0.0985
18.7400 6.2301 -0.0977
18.7600 6.2368 -0.0867
18.7800 6.2435 -0.1034
18.8000 6.2501 -0.1015
18.8200 6.2567 -0.0870
18.8400 6.2633 -0.0993
18.8600 6.2700 -0.1015
18.8800 6.2767 -0.0903
18.9000 6.2834 -0.0978
18.9200 6.2901 -0.1080
18.9400 6.2967 -0.0857
18.9600 6.3034 -0.0987
18.9800 6.3101 -0.1073
19.0000 6.3167 -0.0893
19.0200 6.3233 -0.1048
19.0400 6.3300 -0.1093
19.0600 6.3367 -0.0839
19.0800 6.3434 -0.1045
19.1000 6.3501 -0.1065
19.1200 6.3567 -0.0852
19.1400 6.3634 -0.1073
19.1600 6.3700 -0.1139
19.1800 6.3767 -0.0885
19.2000 6.3833 -0.1022
19.2200 6.3900 -0.1057
19.2400 6.3968 -0.0967
19.2600 6.4035 -0.1051
19.2800 6.4101 -0.1056
19.3000 6.4168 -0.0977
19.3200 6.4235 -0.1073
19.3400 6.4301 -0.1026
19.3600 6.4367 -0.0954
19.3800 6.4433 -0.1095
19.4000 6.4500 -0.1026
19.4200 6.4567 -0.1018
19.4400 6.4634 -0.1089
19.4600 6.4701 -0.1004
19.4800 6.4768 -0.1046
19.5000 6.4835 -0.1080
19.5200 6.4901 -0.1034
19.5400 6.4967 -0.1069
19.5600 6.5033 -0.1034
19.5800 6.5100 -0.1071
19.6000 6.5167 -0.1076
19.6200 6.5234 -0.1084
19.6400 6.5301 -0.1077
19.6600 6.5368 -0.1103
19.6800 6.5435 -0.1064
19.7000 6.5501 -0.1095
19.7200 6.5567 -0.1073
19.7400 6.5633 -0.1040
19.7600 6.5699 -0.1102
19.7800 6.5767 -0.1090
19.8000 6.5834 -0.1039
19.8200 6.5901 -0.1153
19.8400 6.5967 -0.1035
19.8600 6.6034 -0.1055
19.8800 6.6101 -0.1153
19.9000 6.6167 -0.1053
19.9200 6.6233 -0.1075
19.9400 6.6300 -0.1136
19.9600 6.6367 -0.1048
19.9800 6.6434 -0.1098
20.0000 6.6501 -0.1138
20.0200 6.6568 -0.1017
20.0400 6.6635 -0.1164
20.0600 6.6702 -0.1120
20.0800 6.6767 -0.1019
20.1000 6.6834 -0.1195
20.1200 6.6900 -0.1156
20.1400 6.6967 -0.1027
20.1600 6.7035 -0.1184
20.1800 6.7101 -0.1051
20.2000 6.7168 -0.1108
20.2200 6.7235 -0.1217
20.2400 6.7301 -0.1036
20.2600 6.7367 -0.1095
20.2800 6.7433 -0.1253
20.3000 6.7500 -0.1010
20.3200 6.7567 -0.1115
20.3400 6.7634 -0.1234
20.3600 6.7701 -0.1070
20.3800 6.7767 -0.1124
20.4000 6.7834 -0.1132
20.4200 6.7901 -0.1120
20.4400 6.7967 -0.1179
20.4600 6.8033 -0.1120
20.4800 6.8100 -0.1083
20.5000 6.8167 -0.1181
20.5200 6.8234 -0.1098
20.5400 6.8301 -0.1139
20.5600 6.8368 -0.1157
20.5800 6.8435 -0.1109
20.6000 6.8501 -0.1214
20.6200 6.8567 -0.1141
20.6400 6.8633 -0.1048
20.6600 6.8700 -0.1242
20.6800 6.8767 -0.1128
20.7000 6.8834 -0.1077
20.7200 6.8901 -0.1207
20.7400 6.8968 -0.1155
20.7600 6.9035 -0.1093
20.7800 6.9101 -0.1211
20.8000 6.9167 -0.1131
20.8200 6.9233 -0.1124
20.8400 6.9300 -0.1161
20.8600 6.9367 -0.1135
20.8800 6.9434 -0.1162
20.9000 6.9501 -0.1147
20.9200 6.9568 -0.1118
20.9400 6.9635 -0.1237
20.9600 6.9701 -0.1135
20.9800 6.9768 -0.1138
21.0000 6.9834 -0.1223
21.0200 6.9900 -0.1110
21.0400 6.9967 -0.1175
21.0600 7.0034 -0.1223
21.0800 7.0101 -0.1104
21.1000 7.0168 -0.1152
21.1200 7.0235 -0.1232
21.1400 7.0301 -0.1127
21.1600 7.0367 -0.1214
21.1800 7.0433 -0.1193
21.2000 7.0499 -0.1152
21.2200 7.0566 -0.1148
21.2400 7.0634 -0.1234
21.2600 7.0701 -0.1233
21.2800 7.0767 -0.1138
21.3000 7.0834 -0.1171
21.3200 7.0901 -0.1239
21.3400 7.0967 -0.1157
21.3600 7.1033 -0.1191
21.3800 7.1100 -0.1204
21.4000 7.1167 -0.1226
21.4200 7.1234 -0.1182
21.4400 7.1301 -0.1185
21.4600 7.1368 -0.1232
21.4800 7.1435 -0.1228
21.5000 7.1501 -0.1195
21.5200 7.1568 -0.1228
21.5400 7.1634 -0.1212
21.5600 7.1700 -0.1197
21.5800 7.1767 -0.1221
21.6000 7.1834 -0.1212
21.6200 7.1901 -0.1194
21.6400 7.1968 -0.1250
21.6600 7.2035 -0.1176
21.6800 7.2101 -0.1183
21.7000 7.2167 -0.1308
21.7200 7.2233 -0.1169
21.7400 7.2300 -0.1185
21.7600 7.2367 -0.1314
21.7800 7.2434 -0.1185
21.8000 7.2501 -0.1182
21.8200 7.2568 -0.1373
21.8400 7.2634 -0.1122
21.8600 7.2701 -0.1233
21.8800 7.2767 -0.1367
21.9000 7.2833 -0.1127
21.9200 7.2900 -0.1227
21.9400 7.2967 -0.1332
21.9600 7.3034 -0.1162
21.9800 7.3100 -0.1249
22.0000 7.3167 -0.1326
22.0200 7.3234 -0.1194
22.0400 7.3301 -0.1245
22.0600 7.3367 -0.1367
22.0800 7.3433 -0.1217
22.1000 7.3500 -0.1227
22.1200 7.3567 -0.1347
22.1400 7.3634 -0.1169
22.1600 7.3701 -0.1279
22.1800 7.3768 -0.1314
22.2000 7.3835 -0.1211
22.2200 7.3901 -0.1245
22.2400 7.3968 -0.1349
22.2600 7.4034 -0.1278
22.2800 7.4100 -0.1255
22.3000 7.4167 -0.1290
22.3200 7.4234 -0.1296
22.3400 7.4301 -0.1209
22.3600 7.4368 -0.1363
22.3800 7.4434 -0.1293
22.4000 7.4501 -0.1228
22.4200 7.4567 -0.1349
22.4400 7.4633 -0.1297
22.4600 7.4700 -0.1204
22.4800 7.4766 -0.1390
22.5000 7.4834 -0.1292
22.5200 7.4900 -0.1242
22.5400 7.4967 -0.1380
22.5600 7.5034 -0.1286
22.5800 7.5101 -0.1252
22.6000 7.5167 -0.1423
22.6200 7.5233 -0.1310
22.6400 7.5299 -0.1222
22.6600 7.5366 -0.1427
22.6800 7.5434 -0.1284
22.7000 7.5501 -0.1265
22.7200 7.5568 -0.1459
22.7400 7.5635 -0.1266
22.7600 7.5701 -0.1278
22.7800 7.5767 -0.1463
22.8000 7.5833 -0.1272
22.8200 7.5900 -0.1319
22.8400 7.5967 -0.1452
22.8600 7.6034 -0.1252
22.8800 7.6101 -0.1273
22.9000 7.6168 -0.1511
22.9200 7.6235 -0.1222
22.9400 7.6301 -0.1340
22.9600 7.6368 -0.1440
22.9800 7.6434 -0.1257
23.0000 7.6500 -0.1293
23.0200 7.6567 -0.1465
23.0400 7.6634 -0.1304
23.0600 7.6701 -0.1340
23.0800 7.6768 -0.1413
23.1000 7.6835 -0.1330
23.1200 7.6902 -0.1359
23.1400 7.6968 -0.1392
23.1600 7.7034 -0.1316
23.1800 7.7100 -0.1347
23.2000 7.7167 -0.1398
23.2200 7.7234 -0.1363
23.2400 7.7301 -0.1353
23.2600 7.7368 -0.1438
23.2800 7.7434 -0.1369
23.3000 7.7501 -0.1286
23.3200 7.7567 -0.1426
23.3400 7.7633 -0.1347
23.3600 7.7700 -0.1337
23.3800 7.7767 -0.1413
23.4000 7.7834 -0.1349
23.4200 7.7900 -0.1303
23.4400 7.7967 -0.1457
23.4600 7.8034 -0.1379
23.4800 7.8101 -0.1361
23.5000 7.8167 -0.1411
23.5200 7.8233 -0.1319
23.5400 7.8300 -0.1357
23.5600 7.8367 -0.1458
23.5800 7.8434 -0.1329
23.6000 7.8501 -0.1420
23.6200 7.8568 -0.1395
23.6400 7.8635 -0.1316
23.6600 7.8702 -0.1421
23.6800 7.8768 -0.1388
23.7000 7.8834 -0.1367
23.7200 7.8900 -0.1378
23.7400 7.8967 -0.1359
23.7600 7.9034 -0.1360
23.7800 7.9101 -0.1433
23.8000 7.9168 -0.1342
23.8200 7.9235 -0.1356
23.8400 7.9302 -0.1483
23.8600 7.9368 -0.1329
23.8800 7.9434 -0.1377
23.9000 7.9500 -0.1492
23.9200 7.9567 -0.1326
23.9400 7.9634 -0.1464
23.9600 7.9701 -0.1409
23.9800 7.9767 -0.1336
24.0000 7.9834 -0.1454
24.0200 7.9901 -0.1426
24.0400 7.9968 -0.1359
24.0600 8.0034 -0.1522
24.0800 8.0100 -0.1399
24.1000 8.0167 -0.1347
24.1200 8.0234 -0.1508
24.1400 8.0301 -0.1408
24.1600 8.0367 -0.1391
24.1800 8.0434 -0.1482
24.2000 8.0501 -0.1371
24.2200 8.0567 -0.1436
24.2400 8.0633 -0.1511
24.2600 8.0700 -0.1380
24.2800 8.0767 -0.1448
24.3000 8.0834 -0.1521
24.3200 8.0901 -0.1376
24.3400 8.0968 -0.1439
24.3600 8.1035 -0.1526
24.3800 8.1101 -0.1371
24.4000 8.1168 -0.1488
24.4200 8.1234 -0.1490
24.4400 8.1300 -0.1383
24.4600 8.1367 -0.1491
24.4800 8.1434 -0.1506
24.5000 8.1501 -0.1374
24.5200 8.1568 -0.1513
24.5400 8.1635 -0.1447
24.5600 8.1701 -0.1449
24.5800 8.1768 -0.1496
24.6000 8.1834 -0.1482
24.6200 8.1900 -0.1456
24.6400 8.1966 -0.1503
24.6600 8.2033 -0.1422
24.6800 8.2100 -0.1475
24.7000 8.2167 -0.1489
24.7200 8.2234 -0.1427
24.7400 8.2301 -0.1507
24.7600 8.2368 -0.1503
24.7800 8.2434 -0.1471
24.8000 8.2500 -0.1491
24.8200 8.2566 -0.1476
24.8400 8.2634 -0.1490
24.8600 8.2701 -0.1564
24.8800 8.2767 -0.1482
24.9000 8.2834 -0.1457
24.9200 8.2901 -0.1532
24.9400 8.2968 -0.1472
24.9600 8.3034 -0.1447
24.9800 8.3100 -0.1545
25.0000 8.3167 -0.1447
25.0200 8.3234 -0.1537
25.0400 8.3301 -0.1559
25.0600 8.3368 -0.1431
25.0800 8.3434 -0.1550
25.1000 8.3501 -0.1585
25.1200 8.3568 -0.1393
25.1400 8.3634 -0.1549
25.1600 8.3700 -0.1567
25.1800 8.3766 -0.1399
25.2000 8.3834 -0.1555
25.2200 8.3901 -0.1578
25.2400 8.3968 -0.1375
25.2600 8.4035 -0.1580
25.2800 8.4101 -0.1575
25.3000 8.4168 -0.1391
25.3200 8.4234 -0.1609
25.3400 8.4300 -0.1558
25.3600 8.4367 -0.1416
25.3800 8.4434 -0.1608
25.4000 8.4501 -0.1548
25.4200 8.4568 -0.1443
25.4400 8.4634 -0.1611
25.4600 8.4701 -0.1539
25.4800 8.4768 -0.1457
25.5000 8.4834 -0.1572
25.5200 8.4900 -0.1556
25.5400 8.4966 -0.1406
25.5600 8.5033 -0.1622
25.5800 8.5100 -0.1579
25.6000 8.5167 -0.1455
25.6200 8.5234 -0.1585
25.6400 8.5301 -0.1603
25.6600 8.5368 -0.1483
25.6800 8.5434 -0.1545
25.7000 8.5500 -0.1561
25.7200 8.5566 -0.1494
25.7400 8.5634 -0.1566
25.7600 8.5701 -0.1574
25.7800 8.5768 -0.1463
25.8000 8.5835 -0.1587
25.8200 8.5902 -0.1583
25.8400 8.5968 -0.1483
25.8600 8.6034 -0.1584
25.8800 8.6100 -0.1599
25.9000 8.6167 -0.1474
25.9200 8.6234 -0.1563
25.9400 8.6301 -0.1605
25.9600 8.6368 -0.1465
25.9800 8.6435 -0.1606
26.0000 8.6501 -0.1600
26.0200 8.6568 -0.1505
26.0400 8.6634 -0.1585
26.0600 8.6700 -0.1610
26.0800 8.6767 -0.1522
26.1000 8.6834 -0.1612
26.1200 8.6900 -0.1574
26.1400 8.6967 -0.1521
26.1600 8.7034 -0.1597
26.1800 8.7101 -0.1640
26.2000 8.7168 -0.1483
26.2200 8.7234 -0.1656
26.2400 8.7300 -0.1627
26.2600 8.7366 -0.1500
26.2800 8.7433 -0.1619
26.3000 8.7500 -0.1636
26.3200 8.7567 -0.1524
26.3400 8.7634 -0.1632
26.3600 8.7701 -0.1645
26.3800 8.7768 -0.1521
26.4000 8.7834 -0.1651
26.4200 8.7900 -0.1641
26.4400 8.7967 -0.1544
26.4600 8.8034 -0.1620
26.4800 8.8101 -0.1582
26.5000 8.8168 -0.1582
26.5200 8.8235 -0.1674
26.5400 8.8301 -0.1585
26.5600 8.8368 -0.1577
26.5800 8.8434 -0.1676
26.6000 8.8501 -0.1621
26.6200 8.8567 -0.1531
26.6400 8.8634 -0.1689
26.6600 8.8701 -0.1638
26.6800 8.8768 -0.1590
26.7000 8.8834 -0.1614
26.7200 8.8901 -0.1639
26.7400 8.8968 -0.1608
26.7600 8.9034 -0.1652
26.7800 8.9100 -0.1629
26.8000 8.9166 -0.1541
26.8200 8.9233 -0.1630
26.8400 8.9301 -0.1689
26.8600 8.9367 -0.1552
26.8800 8.9434 -0.1649
26.9000 8.9501 -0.1680
26.9200 8.9568 -0.1566
26.9400 8.9634 -0.1681
26.9600 8.9700 -0.1661
26.9800 8.9766 -0.1551
27.0000 8.9833 -0.1700
27.0200 8.9901 -0.1642
27.0400 8.9967 -0.1583
27.0600 9.0034 -0.1741
27.0800 9.0101 -0.1631
27.1000 9.0168 -0.1593
27.1200 9.0234 -0.1727
27.1400 9.0300 -0.1665
27.1600 9.0367 -0.1538
27.1800 9.0433 -0.1740
27.2000 9.0501 -0.1650
27.2200 9.0567 -0.1619
27.2400 9.0634 -0.1683
27.2600 9.0701 -0.1680
27.2800 9.0768 -0.1636
27.3000 9.0834 -0.1694
27.3200 9.0900 -0.1625
27.3400 9.0967 -0.1650
27.3600 9.1034 -0.1687
27.3800 9.1101 -0.1649
27.4000 9.1168 -0.1630
27.4200 9.1235 -0.1693
27.4400 9.1301 -0.1657
27.4600 9.1368 -0.1629
27.4800 9.1434 -0.1702
27.5000 9.1500 -0.1647
27.5200 9.1567 -0.1636
27.5400 9.1634 -0.1639
27.5600 9.1701 -0.1674
27.5800 9.1768 -0.1639
27.6000 9.1834 -0.1666
27.6200 9.1901 -0.1654
27.6400 9.1968 -0.1670
27.6600 9.2034 -0.1629
27.6800 9.2100 -0.1687
27.7000 9.2166 -0.1649
27.7200 9.2233 -0.1646
27.7400 9.2300 -0.1684
27.7600 9.2367 -0.1673
27.7800 9.2434 -0.1648
27.8000 9.2501 -0.1754
27.8200 9.2568 -0.1661
27.8400 9.2634 -0.1654
27.8600 9.2700 -0.1704
27.8800 9.2767 -0.1618
27.9000 9.2834 -0.1662
27.9200 9.2901 -0.1717
27.9400 9.2968 -0.1613
27.9600 9.3035 -0.1703
27.9800 9.3102 -0.1725
28.0000 9.3168 -0.1598
28.0200 9.3234 -0.1737
28.0400 9.3300 -0.1693
28.0600 9.3367 -0.1624
28.0800 9.3434 -0.1735
28.1000 9.3501 -0.1699
28.1200 9.3568 -0.1621
28.1400 9.3634 -0.1759
28.1600 9.3701 -0.1652
28.1800 9.3768 -0.1682
28.2000 9.3834 -0.1732
28.2200 9.3900 -0.1645
28.2400 9.3966 -0.1656
28.2600 9.4033 -0.1746
28.2800 9.4100 -0.1636
28.3000 9.4167 -0.1682
28.3200 9.4234 -0.1744
28.3400 9.4301 -0.1659
28.3600 9.4368 -0.1721
28.3800 9.4434 -0.1744
28.4000 9.4500 -0.1636
28.4200 9.4566 -0.1735
28.4400 9.4633 -0.1688
28.4600 9.4700 -0.1652
28.4800 9.4767 -0.1797
28.5000 9.4834 -0.1727
28.5200 9.4901 -0.1649
28.5400 9.4968 -0.1785
28.5600 9.5034 -0.1712
28.5800 9.5100 -0.1631
28.6000 9.5167 -0.1801
28.6200 9.5234 -0.1733
28.6400 9.5301 -0.1663
28.6600 9.5368 -0.1767
28.6800 9.5434 -0.1736
28.7000 9.5501 -0.1654
28.7200 9.5568 -0.1819
28.7400 9.5635 -0.1711
28.7600 9.5701 -0.1683
28.7800 9.5767 -0.1766
28.8000 9.5834 -0.1740
28.8200 9.5901 -0.1717
28.8400 9.5968 -0.1769
28.8600 9.6035 -0.1728
28.8800 9.6102 -0.1775
28.9000 9.6168 -0.1756
28.9200 9.6235 -0.1759
28.9400 9.6300 -0.1773
28.9600 9.6366 -0.1751
28.9800 9.6433 -0.1725
29.0000 9.6500 -0.1772
29.0200 9.6567 -0.1739
29.0400 9.6634 -0.1744
29.0600 9.6701 -0.1764
29.0800 9.6768 -0.1756
29.1000 9.6834 -0.1733
29.1200 9.6900 -0.1762
29.1400 9.6966 -0.1794
29.1600 9.7033 -0.1730
29.1800 9.7100 -0.1754
29.2000 9.7167 -0.1771
29.2200 9.7234 -0.1727
29.2400 9.7301 -0.1718
29.2600 9.7367 -0.1826
29.2800 9.7434 -0.1766
29.3000 9.7501 -0.1751
29.3200 9.7567 -0.1821
29.3400 9.7634 -0.1765
29.3600 9.7701 -0.1735
29.3800 9.7768 -0.1822
29.4000 9.7834 -0.1738
29.4200 9.7901 -0.1728
29.4400 9.7968 -0.1861
29.4600 9.8035 -0.1728
29.4800 9.8100 -0.1753
29.5000 9.8166 -0.1828
29.5200 9.8233 -0.1712
29.5400 9.8300 -0.1673
29.5600 9.8368 -0.1896
29.5800 9.8435 -0.1746
29.6000 9.8501 -0.1712
29.6200 9.8568 -0.1905
29.6400 9.8635 -0.1732
29.6600 9.8701 -0.1664
29.6800 9.8767 -0.1946
29.7000 9.8833 -0.1735
29.7200 9.8900 -0.1705
29.7400 9.8967 -0.1891
29.7600 9.9034 -0.1753
29.7800 9.9101 -0.1723
29.8000 9.9168 -0.1934
29.8200 9.9234 -0.1704
29.8400 9.9300 -0.1808
29.8600 9.9366 -0.1885
29.8800 9.9433 -0.1647
29.9000 9.9500 -0.1821
29.9200 9.9567 -0.1967
29.9400 9.9634 -0.1653
29.9600 9.9701 -0.1809
29.9800 9.9767 -0.1931
30.0000 9.9834 -0.1761
30.0200 9.9900 -0.1784
30.0400 9.9966 -0.1880
30.0600 10.0033 -0.1723
30.0800 10.0101 -0.1844
30.1000 10.0168 -0.1891
30.1200 10.0234 -0.1749
30.1400 10.0301 -0.1870
30.1600 10.0368 -0.1810
30.1800 10.0435 -0.1843
30.2000 10.0501 -0.1861
30.2200 10.0567 -0.1828
30.2400 10.0634 -0.1844
30.2600 10.0701 -0.1855
30.2800 10.0768 -0.1779
30.3000 10.0834 -0.1889
30.3200 10.0901 -0.1811
30.3400 10.0968 -0.1824
30.3600 10.1035 -0.1887
30.3800 10.1101 -0.1811
30.4000 10.1167 -0.1810
30.4200 10.1233 -0.1915
30.4400 10.1300 -0.1819
30.4600 10.1367 -0.1833
30.4800 10.1434 -0.1909
30.5000 10.1501 -0.1775
30.5200 10.1568 -0.1844
30.5400 10.1634 -0.1906
30.5600 10.1700 -0.1802
30.5800 10.1766 -0.1891
30.6000 10.1833 -0.1836
30.6200 10.1900 -0.1801
30.6400 10.1968 -0.1913
30.6600 10.2034 -0.1838
30.6800 10.2101 -0.1820
30.7000 10.2167 -0.1887
30.7200 10.2234 -0.1860
30.7400 10.2301 -0.1803
30.7600 10.2367 -0.1902
30.7800 10.2434 -0.1829
30.8000 10.2501 -0.1809
30.8200 10.2567 -0.1905
30.8400 10.2634 -0.1800
30.8600 10.2701 -0.1819
30.8800 10.2768 -0.1927
30.9000 10.2835 -0.1823
30.9200 10.2901 -0.1846
30.9400 10.2967 -0.1884
30.9600 10.3033 -0.1861
30.9800 10.3100 -0.1849
31.0000 10.3168 -0.1899
31.0200 10.3235 -0.1826
31.0400 10.3301 -0.1851
31.0600 10.3368 -0.1887
31.0800 10.3434 -0.1884
31.1000 10.3500 -0.1881
31.1200 10.3567 -0.1864
31.1400 10.3633 -0.1871
31.1600 10.3700 -0.1826
31.1800 10.3767 -0.1892
31.2000 10.3834 -0.1879
31.2200 10.3901 -0.1873
31.2400 10.3968 -0.1856
31.2600 10.4034 -0.1903
31.2800 10.4101 -0.1867
31.3000 10.4167 -0.1917
31.3200 10.4233 -0.1853
31.3400 10.4300 -0.1882
31.3600 10.4367 -0.1897
31.3800 10.4434 -0.1853
31.4000 10.4501 -0.1866
31.4200 10.4568 -0.1962
31.4400 10.4635 -0.1853
31.4600 10.4701 -0.1897
31.4800 10.4767 -0.1912
31.5000 10.4833 -0.1867
31.5200 10.4900 -0.1856
31.5400 10.4967 -0.1922
31.5600 10.5035 -0.1903
31.5800 10.5101 -0.1868
31.6000 10.5168 -0.1931
31.6200 10.5235 -0.1922
31.6400 10.5301 -0.1858
31.6600 10.5367 -0.1930
31.6800 10.5433 -0.1916
31.7000 10.5500 -0.1840
31.7200 10.5568 -0.1950
31.7400 10.5635 -0.1906
31.7600 10.5701 -0.1896
31.7800 10.5768 -0.1916
31.8000 10.5835 -0.1902
31.8200 10.5901 -0.1887
31.8400 10.5967 -0.1935
31.8600 10.6033 -0.1863
31.8800 10.6100 -0.1888
31.9000 10.6167 -0.1948
31.9200 10.6234 -0.1893
31.9400 10.6301 -0.1917
31.9600 10.6368 -0.1977
31.9800 10.6435 -0.1901
32.0000 10.6501 -0.1895
32.0200 10.6566 -0.1980
32.0400 10.6633 -0.1930
32.0600 10.6700 -0.1852
32.0800 10.6767 -0.2016
32.1000 10.6834 -0.1961
32.1200 10.6901 -0.1900
32.1400 10.6967 -0.1955
32.1600 10.7034 -0.1961
32.1800 10.7101 -0.1916
32.2000 10.7167 -0.1990
32.2200 10.7233 -0.1927
32.2400 10.7300 -0.1920
32.2600 10.7368 -0.2049
32.2800 10.7435 -0.1908
32.3000 10.7501 -0.1930
32.3200 10.7568 -0.2048
32.3400 10.7635 -0.1930
32.3600 10.7701 -0.1949
32.3800 10.7767 -0.2055
32.4000 10.7833 -0.1896
32.4200 10.7900 -0.1966
32.4400 10.7967 -0.2039
32.4600 10.8034 -0.1937
32.4800 10.8101 -0.1930
32.5000 10.8168 -0.2057
32.5200 10.8235 -0.1948
32.5400 10.8301 -0.1936
32.5600 10.8367 -0.2012
32.5800 10.8433 -0.1936
32.6000 10.8500 -0.2008
32.6200 10.8567 -0.2015
32.6400 10.8634 -0.1991
32.6600 10.8701 -0.1993
32.6800 10.8768 -0.2000
32.7000 10.8834 -0.2003
32.7200 10.8901 -0.2005
32.7400 10.8967 -0.2011
32.7600 10.9033 -0.1975
32.7800 10.9100 -0.1949
32.8000 10.9167 -0.2014
32.8200 10.9234 -0.2023
32.8400 10.9301 -0.2065
32.8600 10.9367 -0.1980
32.8800 10.9434 -0.1944
32.9000 10.9501 -0.1978
32.9200 10.9567 -0.2094
32.9400 10.9633 -0.1967
32.9600 10.9700 -0.1955
32.9800 10.9767 -0.2028
33.0000 10.9834 -0.1964
33.0200 10.9901 -0.2004
33.0400 10.9968 -0.2091
33.0600 11.0035 -0.1947
33.0800 11.0101 -0.1999
33.1000 11.0167 -0.2051
33.1200 11.0233 -0.1962
33.1400 11.0300 -0.2084
33.1600 11.0368 -0.2027
33.1800 11.0435 -0.1913
33.2000 11.0501 -0.2112
33.2200 11.0568 -0.1996
33.2400 11.0635 -0.1971
33.2600 11.0701 -0.2132
33.2800 11.0767 -0.1950
33.3000 11.0833 -0.1964
33.3200 11.0900 -0.2110
33.3400 11.0967 -0.1997
33.3600 11.1034 -0.1990
33.3800 11.1101 -0.2115
33.4000 11.1167 -0.1952
33.4200 11.1234 -0.2033
33.4400 11.1301 -0.2091
33.4600 11.1367 -0.1946
33.4800 11.1433 -0.1988
33.5000 11.1500 -0.2070
33.5200 11.1567 -0.1987
33.5400 11.1634 -0.2026
33.5600 11.1701 -0.2044
33.5800 11.1768 -0.2010
33.6000 11.1834 -0.2019
33.6200 11.1901 -0.2014
33.6400 11.1967 -0.2029
33.6600 11.2033 -0.2026
33.6800 11.2100 -0.2026
33.7000 11.2168 -0.2028
33.7200 11.2235 -0.2028
33.7400 11.2302 -0.2053
33.7600 11.2368 -0.2023
33.7800 11.2435 -0.2047
33.8000 11.2501 -0.2098
33.8200 11.2567 -0.1996
33.8400 11.2633 -0.2055
33.8600 11.2700 -0.2059
33.8800 11.2767 -0.2010
33.9000 11.2834 -0.2016
33.9200 11.2901 -0.2116
33.9400 11.2968 -0.2016
33.9600 11.3035 -0.2060
33.9800 11.3101 -0.2074
34.0000 11.3167 -0.2053
34.0200 11.3233 -0.2039
34.0400 11.3300 -0.2113
34.0600 11.3367 -0.2040
34.0800 11.3434 -0.2052
34.1000 11.3501 -0.2134
34.1200 11.3568 -0.2063
34.1400 11.3635 -0.2076
34.1600 11.3701 -0.2153
34.1800 11.3767 -0.2051
34.2000 11.3833 -0.2093
34.2200 11.3899 -0.2136
34.2400 11.3967 -0.2057
34.2600 11.4034 -0.2121
34.2800 11.4101 -0.2106
34.3000 11.4167 -0.2105
34.3200 11.4234 -0.2101
34.3400 11.4301 -0.2089
34.3600 11.4367 -0.2085
34.3800 11.4433 -0.2178
34.4000 11.4500 -0.2067
34.4200 11.4567 -0.2092
34.4400 11.4634 -0.2180
34.4600 11.4701 -0.2095
34.4800 11.4768 -0.2027
34.5000 11.4835 -0.2197
34.5200 11.4902 -0.2127
34.5400 11.4968 -0.2072
34.5600 11.5034 -0.2131
34.5800 11.5100 -0.2117
34.6000 11.5167 -0.2079
34.6200 11.5234 -0.2182
34.6400 11.5301 -0.2091
34.6600 11.5368 -0.2119
34.6800 11.5435 -0.2135
34.7000 11.5501 -0.2089
34.7200 11.5567 -0.2133
34.7400 11.5633 -0.2175
34.7600 11.5700 -0.2017
34.7800 11.5767 -0.2120
34.8000 11.5834 -0.2249
34.8200 11.5901 -0.2055
34.8400 11.5967 -0.2143
34.8600 11.6034 -0.2166
34.8800 11.6101 -0.2015
34.9000 11.6167 -0.2160
34.9200 11.6233 -0.2195
34.9400 11.6300 -0.2026
34.9600 11.6367 -0.2136
34.9800 11.6434 -0.2182
35.0000 11.6501 -0.2083
35.0200 11.6568 -0.2114
35.0400 11.6635 -0.2167
35.0600 11.6701 -0.2078
35.0800 11.6768 -0.2098
35.1000 11.6834 -0.2160
35.1200 11.6900 -0.2163
35.1400 11.6967 -0.2066
35.1600 11.7034 -0.2135
35.1800 11.7101 -0.2141
35.2000 11.7168 -0.2091
35.2200 11.7235 -0.2170
35.2400 11.7301 -0.2197
35.2600 11.7367 -0.2022
35.2800 11.7433 -0.2082
35.3000 11.7500 -0.2266
35.3200 11.7567 -0.2028
35.3400 11.7634 -0.2114
35.3600 11.7701 -0.2200
35.3800 11.7768 -0.2020
35.4000 11.7835 -0.2146
35.4200 11.7901 -0.2223
35.4400 11.7968 -0.2033
35.4600 11.8034 -0.2170
35.4800 11.8100 -0.2200
35.5000 11.8167 -0.2024
35.5200 11.8234 -0.2129
35.5400 11.8301 -0.2261
35.5600 11.8368 -0.2035
35.5800 11.8435 -0.2126
35.6000 11.8501 -0.2203
35.6200 11.8568 -0.2147
35.6400 11.8633 -0.2086
35.6600 11.8700 -0.2138
35.6800 11.8766 -0.2155
35.7000 11.8834 -0.2126
35.7200 11.8901 -0.2112
35.7400 11.8968 -0.2214
35.7600 11.9034 -0.2128
35.7800 11.9101 -0.2083
35.8000 11.9167 -0.2208
35.8200 11.9233 -0.2127
35.8400 11.9300 -0.2093
35.8600 11.9367 -0.2201
35.8800 11.9434 -0.2134
35.9000 11.9501 -0.2105
35.9200 11.9568 -0.2186
35.9400 11.9635 -0.2184
35.9600 11.9701 -0.2125
35.9800 11.9768 -0.2118
36.0000 11.9834 -0.2178
36.0200 11.9900 -0.2146
36.0400 11.9967 -0.2148
36.0600 12.0034 -0.2182
36.0800 12.0101 -0.2156
36.1000 12.0168 -0.2122
36.1200 12.0235 -0.2209
36.1400 12.0302 -0.2191
36.1600 12.0368 -0.2148
36.1800 12.0433 -0.2186
36.2000 12.0500 -0.2091
36.2200 12.0567 -0.2172
36.2400 12.0634 -0.2259
36.2600 12.0701 -0.2120
36.2800 12.0768 -0.2189
36.3000 12.0834 -0.2206
36.3200 12.0901 -0.2114
36.3400 12.0968 -0.2220
36.3600 12.1034 -0.2243
36.3800 12.1100 -0.2085
36.4000 12.1167 -0.2137
36.4200 12.1234 -0.2238
36.4400 12.1300 -0.2123
36.4600 12.1367 -0.2183
36.4800 12.1434 -0.2274
36.5000 12.1501 -0.2170
36.5200 12.1568 -0.2138
36.5400 12.1634 -0.2282
36.5600 12.1700 -0.2125
36.5800 12.1767 -0.2153
36.6000 12.1834 -0.2225
36.6200 12.1901 -0.2198
36.6400 12.1968 -0.2155
36.6600 12.2035 -0.2273
36.6800 12.2101 -0.2177
36.7000 12.2168 -0.2201
36.7200 12.2234 -0.2255
36.7400 12.2300 -0.2137
36.7600 12.2367 -0.2169
36.7800 12.2434 -0.2298
36.8000 12.2501 -0.2197
36.8200 12.2568 -0.2175
36.8400 12.2634 -0.2315
36.8600 12.2701 -0.2212
36.8800 12.2767 -0.2177
36.9000 12.2833 -0.2328
36.9200 12.2900 -0.2178
36.9400 12.2967 -0.2150
36.9600 12.3034 -0.2351
36.9800 12.3101 -0.2159
37.0000 12.3167 -0.2229
37.0200 12.3234 -0.2293
37.0400 12.3301 -0.2164
37.0600 12.3367 -0.2252
37.0800 12.3433 -0.2305
37.1000 12.3500 -0.2085
37.1200 12.3567 -0.2248
37.1400 12.3634 -0.2290
37.1600 12.3701 -0.2189
37.1800 12.3768 -0.2277
37.2000 12.3835 -0.2231
37.2200 12.3901 -0.2114
37.2400 12.3968 -0.2372
37.2600 12.4034 -0.2249
37.2800 12.4100 -0.2167
37.3000 12.4167 -0.2338
37.3200 12.4234 -0.2204
37.3400 12.4301 -0.2219
37.3600 12.4368 -0.2374
37.3800 12.4435 -0.2185
37.4000 12.4501 -0.2159
37.4200 12.4568 -0.2399
37.4400 12.4634 -0.2176
37.4600 12.4700 -0.2226
37.4800 12.4767 -0.2351
37.5000 12.4834 -0.2188
37.5200 12.4901 -0.2244
37.5400 12.4968 -0.2330
37.5600 12.5035 -0.2204
37.5800 12.5102 -0.2317
37.6000 12.5168 -0.2310
37.6200 12.5234 -0.2175
37.6400 12.5300 -0.2344
37.6600 12.5367 -0.2287
37.6800 12.5434 -0.2159
37.7000 12.5501 -0.2353
37.7200 12.5568 -0.2276
37.7400 12.5634 -0.2244
37.7600 12.5701 -0.2355
37.7800 12.5767 -0.2221
37.8000 12.5833 -0.2272
37.8200 12.5899 -0.2275
37.8400 12.5966 -0.2220
37.8600 12.6033 -0.2305
37.8800 12.6100 -0.2249
37.9000 12.6167 -0.2289
37.9200 12.6234 -0.2318
37.9400 12.6301 -0.2281
37.9600 12.6368 -0.2341
37.9800 12.6434 -0.2235
38.0000 12.6500 -0.2304
38.0200 12.6567 -0.2373
38.0400 12.6634 -0.2282
38.0600 12.6701 -0.2272
38.0800 12.6768 -0.2392
38.1000 12.6835 -0.2184
38.1200 12.6902 -0.2354
38.1400 12.6968 -0.2423
38.1600 12.7034 -0.2176
38.1800 12.7100 -0.2325
38.2000 12.7167 -0.2458
38.2200 12.7234 -0.2137
38.2400 12.7301 -0.2411
38.2600 12.7368 -0.2393
38.2800 12.7435 -0.2161
38.3000 12.7501 -0.2377
38.3200 12.7568 -0.2395
38.3400 12.7634 -0.2219
38.3600 12.7700 -0.2352
38.3800 12.7767 -0.2290
38.4000 12.7834 -0.2314
38.4200 12.7901 -0.2376
38.4400 12.7967 -0.2243
38.4600 12.8034 -0.2334
38.4800 12.8101 -0.2392
38.5000 12.8168 -0.2219
38.5200 12.8234 -0.2327
38.5400 12.8300 -0.2381
38.5600 12.8367 -0.2249
38.5800 12.8434 -0.2338
38.6000 12.8500 -0.2317
38.6200 12.8567 -0.2320
38.6400 12.8634 -0.2272
38.6600 12.8701 -0.2299
38.6800 12.8767 -0.2405
38.7000 12.8834 -0.2303
38.7200 12.8900 -0.2201
38.7400 12.8967 -0.2410
38.7600 12.9034 -0.2336
38.7800 12.9101 -0.2219
38.8000 12.9168 -0.2378
38.8200 12.9235 -0.2367
38.8400 12.9301 -0.2192
38.8600 12.9368 -0.2400
38.8800 12.9434 -0.2407
38.9000 12.9500 -0.2184
38.9200 12.9567 -0.2359
38.9400 12.9634 -0.2371
38.9600 12.9701 -0.2236
38.9800 12.9768 -0.2336
39.0000 12.9835 -0.2379
39.0200 12.9901 -0.2302
39.0400 12.9968 -0.2362
39.0600 13.0034 -0.2239
39.0800 13.0100 -0.2349
39.1000 13.0167 -0.2495
39.1200 13.0233 -0.2214
39.1400 13.0300 -0.2280
39.1600 13.0367 -0.2535
39.1800 13.0434 -0.2196
39.2000 13.0501 -0.2297
39.2200 13.0568 -0.2566
39.2400 13.0634 -0.2244
39.2600 13.0700 -0.2189
39.2800 13.0766 -0.2516
39.3000 13.0833 -0.2235
39.3200 13.0901 -0.2345
39.3400 13.0968 -0.2482
39.3600 13.1034 -0.2218
39.3800 13.1101 -0.2325
39.4000 13.1168 -0.2444
39.4200 13.1234 -0.2317
39.4400 13.1300 -0.2303
39.4600 13.1367 -0.2367
39.4800 13.1434 -0.2335
39.5000 13.1501 -0.2346
39.5200 13.1568 -0.2326
39.5400 13.1634 -0.2389
39.5600 13.1701 -0.2377
39.5800 13.1768 -0.2359
39.6000 13.1834 -0.2349
39.6200 13.1900 -0.2323
39.6400 13.1967 -0.2348
39.6600 13.2034 -0.2397
39.6800 13.2101 -0.2239
39.7000 13.2168 -0.2352
39.7200 13.2234 -0.2450
39.7400 13.2301 -0.2254
39.7600 13.2368 -0.2326
39.7800 13.2434 -0.2524
39.8000 13.2500 -0.2217
39.8200 13.2567 -0.2364
39.8400 13.2634 -0.2416
39.8600 13.2701 -0.2255
39.8800 13.2768 -0.2379
39.9000 13.2835 -0.2420
39.9200 13.2901 -0.2240
39.9400 13.2968 -0.2422
39.9600 13.3034 -0.2420
39.9800 13.3100 -0.2168
40.0000 13.3166 -0.2442
40.0200 13.3233 -0.2420
40.0400 13.3300 -0.2242
40.0600 13.3367 -0.2402
40.0800 13.3434 -0.2349
40.1000 13.3500 -0.2294
40.1200 13.3567 -0.2472
40.1400 13.3634 -0.2321
40.1600 13.3700 -0.2273
40.1800 13.3767 -0.2483
40.2000 13.3834 -0.2326
40.2200 13.3901 -0.2321
40.2400 13.3968 -0.2499
40.2600 13.4035 -0.2258
40.2800 13.4102 -0.2368
40.3000 13.4168 -0.2435
40.3200 13.4234 -0.2302
40.3400 13.4300 -0.2395
40.3600 13.4367 -0.2429
40.3800 13.4434 -0.2298
40.4000 13.4501 -0.2435
40.4200 13.4568 -0.2425
40.4400 13.4635 -0.2331
40.4600 13.4701 -0.2435
40.4800 13.4768 -0.2381
40.5000 13.4834 -0.2401
40.5200 13.4900 -0.2435
40.5400 13.4966 -0.2361
40.5600 13.5033 -0.2387
40.5800 13.5100 -0.2427
40.6000 13.5167 -0.2358
40.6200 13.5234 -0.2423
40.6400 13.5301 -0.2394
40.6600 13.5368 -0.2415
40.6800 13.5434 -0.2395
40.7000 13.5500 -0.2382
40.7200 13.5566 -0.2395
40.7400 13.5633 -0.2444
40.7600 13.5700 -0.2394
40.7800 13.5767 -0.2419
40.8000 13.5834 -0.2403
40.8200 13.5901 -0.2430
40.8400 13.5968 -0.2431
40.8600 13.6034 -0.2411
40.8800 13.6100 -0.2435
40.9000 13.6166 -0.2398
40.9200 13.6233 -0.2373
40.9400 13.6301 -0.2442
40.9600 13.6368 -0.2422
40.9800 13.6435 -0.2455
41.0000 13.6501 -0.2448
41.0200 13.6568 -0.2315
41.0400 13.6634 -0.2450
41.0600 13.6700 -0.2526
41.0800 13.6767 -0.2342
41.1000 13.6834 -0.2460
41.1200 13.6900 -0.2537
41.1400 13.6968 -0.2325
41.1600 13.7035 -0.2476
41.1800 13.7102 -0.2531
41.2000 13.7168 -0.2348
41.2200 13.7235 -0.2405
41.2400 13.7300 -0.2511
41.2600 13.7366 -0.2348
41.2800 13.7433 -0.2452
41.3000 13.7500 -0.2486
41.3200 13.7567 -0.2438
41.3400 13.7634 -0.2440
41.3600 13.7701 -0.2430
41.3800 13.7768 -0.2417
41.4000 13.7834 -0.2530
41.4200 13.7900 -0.2394
41.4400 13.7966 -0.2439
41.4600 13.8033 -0.2535
41.4800 13.8100 -0.2396
41.5000 13.8167 -0.2406
41.5200 13.8234 -0.2517
41.5400 13.8301 -0.2404
41.5600 13.8368 -0.2437
41.5800 13.8434 -0.2491
41.6000 13.8500 -0.2402
41.6200 13.8567 -0.2470
41.6400 13.8633 -0.2411
41.6600 13.8700 -0.2435
41.6800 13.8767 -0.2505
41.7000 13.8834 -0.2420
41.7200 13.8901 -0.2423
41.7400 13.8968 -0.2462
41.7600 13.9034 -0.2412
41.7800 13.9100 -0.2556
41.8000 13.9167 -0.2373
41.8200 13.9234 -0.2376
41.8400 13.9301 -0.2563
41.8600 13.9368 -0.2464
41.8800 13.9434 -0.2378
41.9000 13.9501 -0.2520
41.9200 13.9568 -0.2435
41.9400 13.9634 -0.2465
41.9600 13.9700 -0.2559
41.9800 13.9767 -0.2348
42.0000 13.9834 -0.2377
42.0200 13.9901 -0.2663
42.0400 13.9968 -0.2446
42.0600 14.0034 -0.2356
42.0800 14.0101 -0.2546
42.1000 14.0168 -0.2509
42.1200 14.0234 -0.2475
42.1400 14.0300 -0.2442
42.1600 14.0366 -0.2540
42.1800 14.0433 -0.2489
42.2000 14.0500 -0.2416
42.2200 14.0567 -0.2422
42.2400 14.0634 -0.2519
42.2600 14.0701 -0.2557
42.2800 14.0768 -0.2443
42.3000 14.0834 -0.2446
42.3200 14.0900 -0.2535
42.3400 14.0967 -0.2478
42.3600 14.1033 -0.2517
42.3800 14.1101 -0.2434
42.4000 14.1168 -0.2510
42.4200 14.1235 -0.2582
42.4400 14.1302 -0.2368
42.4600 14.1368 -0.2514
42.4800 14.1435 -0.2749
42.5000 14.1501 -0.2359
42.5200 14.1567 -0.2304
42.5400 14.1634 -0.2772
42.5600 14.1701 -0.2559
42.5800 14.1768 -0.2298
42.6000 14.1834 -0.2623
42.6200 14.1901 -0.2615
42.6400 14.1968 -0.2359
42.6600 14.2034 -0.2544
42.6800 14.2100 -0.2684
42.7000 14.2166 -0.2472
42.7200 14.2233 -0.2525
42.7400 14.2300 -0.2480
42.7600 14.2367 -0.2482
42.7800 14.2434 -0.2732
42.8000 14.2501 -0.2438
42.8200 14.2568 -0.2470
42.8400 14.2635 -0.2619
42.8600 14.2700 -0.2499
42.8800 14.2766 -0.2596
42.9000 14.2833 -0.2464
42.9200 14.2900 -0.2431
42.9400 14.2967 -0.2797
42.9600 14.3034 -0.2439
42.9800 14.3101 -0.2308
43.0000 14.3168 -0.2740
43.0200 14.3234 -0.2605
43.0400 14.3300 -0.2419
43.0600 14.3367 -0.2534
43.0800 14.3434 -0.2384
43.1000 14.3501 -0.2624
43.1200 14.3568 -0.2700
43.1400 14.3634 -0.2310
43.1600 14.3701 -0.2635
43.1800 14.3768 -0.2605
43.2000 14.3835 -0.2329
43.2200 14.3901 -0.2701
43.2400 14.3967 -0.2636
43.2600 14.4033 -0.2390
43.2800 14.4100 -0.2589
43.3000 14.4168 -0.2440
43.3200 14.4235 -0.2536
43.3400 14.4302 -0.2713
43.3600 14.4368 -0.2428
43.3800 14.4435 -0.2441
43.4000 14.4501 -0.2684
43.4200 14.4567 -0.2406
43.4400 14.4633 -0.2569
43.4600 14.4700 -0.2685
43.4800 14.4767 -0.2378
43.5000 14.4833 -0.2564
43.5200 14.4900 -0.2618
43.5400 14.4967 -0.2427
43.5600 14.5034 -0.2686
43.5800 14.5101 -0.2632
43.6000 14.5167 -0.2356
43.6200 14.5233 -0.2637
43.6400 14.5300 -0.2570
43.6600 14.5367 -0.2494
43.6800 14.5434 -0.2657
43.7000 14.5500 -0.2451
43.7200 14.5567 -0.2476
43.7400 14.5634 -0.2732
43.7600 14.5701 -0.2465
43.7800 14.5767 -0.2489
43.8000 14.5833 -0.2672
43.8200 14.5900 -0.2453
43.8400 14.5967 -0.2507
43.8600 14.6034 -0.2673
43.8800 14.6101 -0.2487
43.9000 14.6168 -0.2597
43.9200 14.6235 -0.2552
43.9400 14.6301 -0.2548
43.9600 14.6367 -0.2568
43.9800 14.6433 -0.2598
44.0000 14.6500 -0.2510
44.0200 14.6568 -0.2543
44.0400 14.6635 -0.2589
44.0600 14.6701 -0.2534
44.0800 14.6768 -0.2501
44.1000 14.6835 -0.2600
44.1200 14.6901 -0.2636
44.1400 14.6967 -0.2426
44.1600 14.7033 -0.2542
44.1800 14.7100 -0.2669
44.2000 14.7167 -0.2461
44.2200 14.7234 -0.2583
44.2400 14.7301 -0.2647
44.2600 14.7368 -0.2467
44.2800 14.7434 -0.2615
44.3000 14.7500 -0.2633
44.3200 14.7566 -0.2502
44.3400 14.7632 -0.2553
44.3600 14.7700 -0.2572
44.3800 14.7767 -0.2490
44.4000 14.7834 -0.2640
44.4200 14.7901 -0.2572
44.4400 14.7968 -0.2537
44.4600 14.8034 -0.2600
44.4800 14.8100 -0.2566
44.5000 14.8167 -0.2553
44.5200 14.8233 -0.2576
44.5400 14.8300 -0.2521
44.5600 14.8368 -0.2605
44.5800 14.8434 -0.2590
44.6000 14.8501 -0.2531
44.6200 14.8568 -0.2549
44.6400 14.8635 -0.2610
44.6600 14.8701 -0.2515
44.6800 14.8767 -0.2591
44.7000 14.8834 -0.2565
44.7200 14.8901 -0.2524
44.7400 14.8968 -0.2599
44.7600 14.9035 -0.2565
44.7800 14.9101 -0.2549
44.8000 14.9168 -0.2593
44.8200 14.9235 -0.2523
44.8400 14.9301 -0.2556
44.8600 14.9367 -0.2664
44.8800 14.9433 -0.2486
44.9000 14.9500 -0.2557
44.9200 14.9567 -0.2622
44.9400 14.9634 -0.2505
44.9600 14.9701 -0.2557
44.9800 14.9767 -0.2652
45.0000 14.9834 -0.2465
45.0200 14.9901 -0.2577
45.0400 14.9967 -0.2588
45.0600 15.0033 -0.2508
45.0800 15.0100 -0.2650
45.1000 15.0167 -0.2579
45.1200 15.0234 -0.2520
45.1400 15.0300 -0.2675
45.1600 15.0367 -0.2586
45.1800 15.0434 -0.2501
45.2000 15.0501 -0.2656
45.2200 15.0567 -0.2598
45.2400 15.0634 -0.2524
45.2600 15.0701 -0.2671
45.2800 15.0768 -0.2599
45.3000 15.0834 -0.2529
45.3200 15.0901 -0.2727
45.3400 15.0968 -0.2577
45.3600 15.1035 -0.2579
45.3800 15.1101 -0.2678
45.4000 15.1167 -0.2619
45.4200 15.1233 -0.2541
45.4400 15.1300 -0.2636
45.4600 15.1367 -0.2612
45.4800 15.1435 -0.2583
45.5000 15.1501 -0.2597
45.5200 15.1568 -0.2665
45.5400 15.1635 -0.2598
45.5600 15.1701 -0.2602
45.5800 15.1767 -0.2619
45.6000 15.1833 -0.2594
45.6200 15.1900 -0.2620
45.6400 15.1967 -0.2656
45.6600 15.2034 -0.2564
45.6800 15.2101 -0.2612
45.7000 15.2167 -0.2647
45.7200 15.2234 -0.2565
45.7400 15.2301 -0.2640
45.7600 15.2367 -0.2653
45.7800 15.2433 -0.2530
45.8000 15.2500 -0.2620
45.8200 15.2567 -0.2672
45.8400 15.2634 -0.2554
45.8600 15.2701 -0.2619
45.8800 15.2768 -0.2682
45.9000 15.2834 -0.2636
45.9200 15.2901 -0.2649
45.9400 15.2967 -0.2616
45.9600 15.3033 -0.2619
45.9800 15.3100 -0.2673
46.0000 15.3168 -0.2571
46.0200 15.3235 -0.2631
46.0400 15.3301 -0.2641
46.0600 15.3368 -0.2651
46.0800 15.3435 -0.2659
46.1000 15.3501 -0.2625
46.1200 15.3567 -0.2674
46.1400 15.3634 -0.2657
46.1600 15.3700 -0.2560
46.1800 15.3768 -0.2680
46.2000 15.3835 -0.2677
46.2200 15.3901 -0.2539
46.2400 15.3968 -0.2632
46.2600 15.4035 -0.2710
46.2800 15.4101 -0.2562
46.3000 15.4167 -0.2673
46.3200 15.4233 -0.2670
46.3400 15.4300 -0.2559
46.3600 15.4367 -0.2731
46.3800 15.4434 -0.2579
46.4000 15.4501 -0.2588
46.4200 15.4568 -0.2784
46.4400 15.4635 -0.2634
46.4600 15.4701 -0.2481
46.4800 15.4766 -0.2811
46.5000 15.4832 -0.2655
46.5200 15.4899 -0.2513
46.5400 15.4967 -0.2782
46.5600 15.5034 -0.2663
46.5800 15.5101 -0.2518
46.6000 15.5167 -0.2747
46.6200 15.5234 -0.2717
46.6400 15.5301 -0.2650
46.6600 15.5367 -0.2714
46.6800 15.5433 -0.2618
46.7000 15.5500 -0.2630
46.7200 15.5567 -0.2781
46.7400 15.5634 -0.2661
46.7600 15.5701 -0.2637
46.7800 15.5768 -0.2744
46.8000 15.5835 -0.2627
46.8200 15.5902 -0.2658
46.8400 15.5968 -0.2796
46.8600 15.6034 -0.2620
46.8800 15.6100 -0.2624
46.9000 15.6167 -0.2765
46.9200 15.6234 -0.2695
46.9400 15.6301 -0.2678
46.9600 15.6368 -0.2655
46.9800 15.6435 -0.2728
47.0000 15.6501 -0.2706
47.0200 15.6567 -0.2708
47.0400 15.6633 -0.2687
47.0600 15.6700 -0.2651
47.0800 15.6767 -0.2630
47.1000 15.6834 -0.2772
47.1200 15.6901 -0.2649
47.1400 15.6968 -0.2694
47.1600 15.7035 -0.2724
47.1800 15.7101 -0.2628
47.2000 15.7167 -0.2705
47.2200 15.7233 -0.2759
47.2400 15.7300 -0.2569
47.2600 15.7367 -0.2725
47.2800 15.7434 -0.2715
47.3000 15.7501 -0.2564
47.3200 15.7567 -0.2783
47.3400 15.7634 -0.2750
47.3600 15.7701 -0.2582
47.3800 15.7767 -0.2770
47.4000 15.7833 -0.2723
47.4200 15.7900 -0.2564
47.4400 15.7967 -0.2864
47.4600 15.8034 -0.2719
47.4800 15.8101 -0.2529
47.5000 15.8168 -0.2830
47.5200 15.8235 -0.2738
47.5400 15.8301 -0.2569
47.5600 15.8367 -0.2823
47.5800 15.8433 -0.2653
47.6000 15.8500 -0.2626
47.6200 15.8567 -0.2813
47.6400 15.8635 -0.2707
47.6600 15.8702 -0.2617
47.6800 15.8768 -0.2777
47.7000 15.8835 -0.2656
47.7200 15.8901 -0.2666
47.7400 15.8967 -0.2836
47.7600 15.9033 -0.2625
47.7800 15.9100 -0.2648
47.8000 15.9167 -0.2845
47.8200 15.9234 -0.2634
47.8400 15.9301 -0.2708
47.8600 15.9368 -0.2820
47.8800 15.9434 -0.2585
47.9000 15.9501 -0.2693
47.9200 15.9567 -0.2843
47.9400 15.9633 -0.2626
47.9600 15.9700 -0.2681
47.9800 15.9767 -0.2848
48.0000 15.9834 -0.2566
48.0200 15.9901 -0.2743
48.0400 15.9968 -0.2865
48.0600 16.0035 -0.2596
48.0800 16.0101 -0.2648
48.1000 16.0167 -0.2829
48.1200 16.0233 -0.2610
48.1400 16.0300 -0.2715
48.1600 16.0367 -0.2839
48.1800 16.0434 -0.2647
48.2000 16.0501 -0.2728
48.2200 16.0568 -0.2813
48.2400 16.0635 -0.2634
48.2600 16.0701 -0.2823
48.2800 16.0767 -0.2764
48.3000 16.0833 -0.2663
48.3200 16.0900 -0.2738
48.3400 16.0967 -0.2768
48.3600 16.1034 -0.2725
48.3800 16.1101 -0.2749
48.4000 16.1168 -0.2692
48.4200 16.1235 -0.2747
48.4400 16.1301 -0.2816
48.4600 16.1367 -0.2660
48.4800 16.1433 -0.2771
48.5000 16.1500 -0.2795
48.5200 16.1567 -0.2697
48.5400 16.1634 -0.2784
48.5600 16.1701 -0.2788
48.5800 16.1768 -0.2681
48.6000 16.1835 -0.2745
48.6200 16.1901 -0.2795
48.6400 16.1967 -0.2765
48.6600 16.2033 -0.2741
48.6800 16.2099 -0.2712
48.7000 16.2167 -0.2722
48.7200 16.2234 -0.2872
48.7400 16.2301 -0.2755
48.7600 16.2367 -0.2761
48.7800 16.2434 -0.2757
48.8000 16.2501 -0.2735
48.8200 16.2567 -0.2811
48.8400 16.2633 -0.2771
48.8600 16.2700 -0.2679
48.8800 16.2767 -0.2825
48.9000 16.2834 -0.2801
48.9200 16.2901 -0.2679
48.9400 16.2968 -0.2818
48.9600 16.3035 -0.2881
48.9800 16.3102 -0.2673
49.0000 16.3167 -0.2770
49.0200 16.3233 -0.2859
49.0400 16.3300 -0.2738
49.0600 16.3367 -0.2726
49.0800 16.3434 -0.2813
49.1000 16.3501 -0.2825
49.1200 16.3568 -0.2774
49.1400 16.3635 -0.2840
49.1600 16.3701 -0.2783
49.1800 16.3767 -0.2773
49.2000 16.3833 -0.2825
49.2200 16.3900 -0.2822
49.2400 16.3967 -0.2736
49.2600 16.4034 -0.2783
49.2800 16.4101 -0.2834
49.3000 16.4167 -0.2788
49.3200 16.4234 -0.2831
49.3400 16.4301 -0.2814
49.3600 16.4367 -0.2715
49.3800 16.4433 -0.2847
49.4000 16.4500 -0.2847
49.4200 16.4566 -0.2816
49.4400 16.4634 -0.2847
49.4600 16.4701 -0.2742
49.4800 16.4768 -0.2779
49.5000 16.4835 -0.2895
49.5200 16.4901 -0.2852
49.5400 16.4968 -0.2805
49.5600 16.5034 -0.2829
49.5800 16.5100 -0.2753
49.6000 16.5167 -0.2867
49.6200 16.5234 -0.2892
49.6400 16.5301 -0.2812
49.6600 16.5368 -0.2814
49.6800 16.5435 -0.2935
49.7000 16.5501 -0.2809
49.7200 16.5567 -0.2813
49.7400 16.5634 -0.2935
49.7600 16.5700 -0.2815
49.7800 16.5767 -0.2810
49.8000 16.5834 -0.2922
49.8200 16.5901 -0.2815
49.8400 16.5968 -0.2862
49.8600 16.6035 -0.2880
49.8800 16.6101 -0.2845
49.9000 16.6168 -0.2861
49.9200 16.6234 -0.2916
49.9400 16.6300 -0.2834
49.9600 16.6367 -0.2811
49.9800 16.6434 -0.2876
50.0000 16.6501 -0.2912
50.0200 16.6568 -0.2844
50.0400 16.6635 -0.2847
50.0600 16.6701 -0.2903
50.0800 16.6767 -0.2795
50.1000 16.6833 -0.2862
50.1200 16.6899 -0.2940
50.1400 16.6966 -0.2733
50.1600 16.7034 -0.2818
50.1800 16.7101 -0.2972
50.2000 16.7168 -0.2744
50.2200 16.7234 -0.2879
50.2400 16.7301 -0.2920
50.2600 16.7367 -0.2740
50.2800 16.7433 -0.2884
50.3000 16.7500 -0.2958
50.3200 16.7567 -0.2707
50.3400 16.7634 -0.2913
50.3600 16.7701 -0.2894
50.3800 16.7768 -0.2751
50.4000 16.7835 -0.2938
50.4200 16.7901 -0.2878
50.4400 16.7968 -0.2760
50.4600 16.8034 -0.2892
50.4800 16.8100 -0.2925
50.5000 16.8167 -0.2787
50.5200 16.8234 -0.2879
50.5400 16.8301 -0.2908
50.5600 16.8368 -0.2789
50.5800 16.8435 -0.2876
50.6000 16.8502 -0.2942
50.6200 16.8568 -0.2801
50.6400 16.8634 -0.2846
50.6600 16.8700 -0.2910
50.6800 16.8767 -0.2903
50.7000 16.8834 -0.2865
50.7200 16.8901 -0.2946
50.7400 16.8968 -0.2861
50.7600 16.9034 -0.2843
50.7800 16.9101 -0.2991
50.8000 16.9167 -0.2886
50.8200 16.9233 -0.2786
50.8400 16.9300 -0.3001
50.8600 16.9367 -0.2829
50.8800 16.9434 -0.2846
50.9000 16.9500 -0.3069
50.9200 16.9567 -0.2843
50.9400 16.9634 -0.2812
50.9600 16.9701 -0.3080
50.9800 16.9767 -0.2831
51.0000 16.9833 -0.2844
51.0200 16.9900 -0.3086
51.0400 16.9966 -0.2781
51.0600 17.0034 -0.2898
51.0800 17.0101 -0.3119
51.1000 17.0168 -0.2782
51.1200 17.0235 -0.2887
51.1400 17.0301 -0.3097
51.1600 17.0368 -0.2780
51.1800 17.0434 -0.2954
51.2000 17.0500 -0.3048
51.2200 17.0567 -0.2757
51.2400 17.0634 -0.2937
51.2600 17.0701 -0.3118
51.2800 17.0768 -0.2773
51.3000 17.0834 -0.2978
51.3200 17.0901 -0.3049
51.3400 17.0967 -0.2808
51.3600 17.1034 -0.2978
51.3800 17.1100 -0.3055
51.4000 17.1167 -0.2859
51.4200 17.1234 -0.2971
51.4400 17.1301 -0.2979
51.4600 17.1367 -0.2923
51.4800 17.1434 -0.2982
51.5000 17.1501 -0.3003
51.5200 17.1568 -0.2944
51.5400 17.1633 -0.2926
51.5600 17.1699 -0.2990
51.5800 17.1766 -0.2986
51.6000 17.1833 -0.2921
51.6200 17.1901 -0.3033
51.6400 17.1968 -0.3026
51.6600 17.2035 -0.2876
51.6800 17.2101 -0.3038
51.7000 17.2168 -0.3025
51.7200 17.2234 -0.2864
51.7400 17.2300 -0.3039
51.7600 17.2367 -0.3021
51.7800 17.2434 -0.2832
51.8000 17.2501 -0.3127
51.8200 17.2567 -0.3019
51.8400 17.2634 -0.2801
51.8600 17.2701 -0.3050
51.8800 17.2768 -0.3097
51.9000 17.2834 -0.2876
51.9200 17.2900 -0.3027
51.9400 17.2967 -0.3022
51.9600 17.3034 -0.2905
51.9800 17.3101 -0.3041
52.0000 17.3168 -0.2971
52.0200 17.3235 -0.2943
52.0400 17.3302 -0.3047
52.0600 17.3368 -0.2980
52.0800 17.3434 -0.2935
52.1000 17.3500 -0.3097
52.1200 17.3566 -0.2995
52.1400 17.3633 -0.2929
52.1600 17.3701 -0.3040
52.1800 17.3768 -0.3085
52.2000 17.3834 -0.2968
52.2200 17.3901 -0.3058
52.2400 17.3967 -0.3025
52.2600 17.4033 -0.2991
52.2800 17.4099 -0.3021
52.3000 17.4166 -0.3015
52.3200 17.4233 -0.3009
52.3400 17.4300 -0.3079
52.3600 17.4367 -0.3065
52.3800 17.4434 -0.2957
52.4000 17.4501 -0.3051
52.4200 17.4567 -0.3087
52.4400 17.4634 -0.2943
52.4600 17.4700 -0.3073
52.4800 17.4767 -0.3059
52.5000 17.4834 -0.2937
52.5200 17.4901 -0.3087
52.5400 17.4968 -0.3097
52.5600 17.5035 -0.2938
52.5800 17.5102 -0.3070
52.6000 17.5168 -0.3077
52.6200 17.5234 -0.2954
52.6400 17.5300 -0.3108
52.6600 17.5367 -0.3054
52.6800 17.5434 -0.2989
52.7000 17.5501 -0.3102
52.7200 17.5568 -0.3015
52.7400 17.5635 -0.2974
52.7600 17.5702 -0.3224
52.7800 17.5768 -0.2958
52.8000 17.5834 -0.2932
52.8200 17.5900 -0.3189
52.8400 17.5967 -0.3027
52.8600 17.6034 -0.2953
52.8800 17.6101 -0.3178
52.9000 17.6168 -0.2983
52.9200 17.6234 -0.3033
52.9400 17.6301 -0.3182
52.9600 17.6368 -0.2986
52.9800 17.6434 -0.3055
53.0000 17.6500 -0.3133
53.0200 17.6567 -0.2961
53.0400 17.6634 -0.3135
53.0600 17.6701 -0.3099
53.0800 17.6767 -0.2951
53.1000 17.6834 -0.3113
53.1200 17.6901 -0.3153
53.1400 17.6967 -0.3041
53.1600 17.7034 -0.3113
53.1800 17.7100 -0.3066
53.2000 17.7167 -0.3019
53.2200 17.7234 -0.3167
53.2400 17.7301 -0.3073
53.2600 17.7368 -0.3034
53.2800 17.7435 -0.3157
53.3000 17.7501 -0.3079
53.3200 17.7568 -0.3150
53.3400 17.7634 -0.3060
53.3600 17.7700 -0.3047
53.3800 17.7767 -0.3212
53.4000 17.7834 -0.3039
53.4200 17.7901 -0.3061
53.4400 17.7968 -0.3210
53.4600 17.8035 -0.3084
53.4800 17.8101 -0.3055
53.5000 17.8168 -0.3255
53.5200 17.8234 -0.3107
53.5400 17.8300 -0.3067
53.5600 17.8367 -0.3164
53.5800 17.8433 -0.3053
53.6000 17.8500 -0.3185
53.6200 17.8567 -0.3213
53.6400 17.8634 -0.3060
53.6600 17.8701 -0.3171
53.6800 17.8768 -0.3194
53.7000 17.8834 -0.3131
53.7200 17.8900 -0.3168
53.7400 17.8966 -0.3141
53.7600 17.9033 -0.3148
53.7800 17.9101 -0.3160
53.8000 17.9167 -0.3164
53.8200 17.9234 -0.3177
53.8400 17.9301 -0.3189
53.8600 17.9368 -0.3146
53.8800 17.9434 -0.3239
53.9000 17.9500 -0.3137
53.9200 17.9567 -0.3212
53.9400 17.9634 -0.3226
53.9600 17.9701 -0.3107
53.9800 17.9768 -0.3231
54.0000 17.9834 -0.3267
54.0200 17.9901 -0.3056
54.0400 17.9968 -0.3235
54.0600 18.0034 -0.3229
54.0800 18.0100 -0.3088
54.1000 18.0166 -0.3247
54.1200 18.0233 -0.3228
54.1400 18.0300 -0.3080
54.1600 18.0368 -0.3273
54.1800 18.0434 -0.3224
54.2000 18.0501 -0.3115
54.2200 18.0568 -0.3289
54.2400 18.0634 -0.3171
54.2600 18.0700 -0.3175
54.2800 18.0767 -0.3299
54.3000 18.0834 -0.3130
54.3200 18.0901 -0.3194
54.3400 18.0968 -0.3319
54.3600 18.1035 -0.3104
54.3800 18.1101 -0.3210
54.4000 18.1168 -0.3369
54.4200 18.1234 -0.3102
54.4400 18.1300 -0.3108
54.4600 18.1366 -0.3310
54.4800 18.1433 -0.3224
54.5000 18.1500 -0.3190
54.5200 18.1567 -0.3229
54.5400 18.1634 -0.3253
54.5600 18.1701 -0.3144
54.5800 18.1768 -0.3259
54.6000 18.1834 -0.3310
54.6200 18.1900 -0.3122
54.6400 18.1966 -0.3186
54.6600 18.2033 -0.3304
54.6800 18.2101 -0.3119
54.7000 18.2168 -0.3306
54.7200 18.2235 -0.3356
54.7400 18.2302 -0.3019
54.7600 18.2368 -0.3298
54.7800 18.2435 -0.3344
54.8000 18.2500 -0.3056
54.8200 18.2567 -0.3256
54.8400 18.2634 -0.3300
54.8600 18.2701 -0.3049
54.8800 18.2768 -0.3304
54.9000 18.2835 -0.3315
54.9200 18.2901 -0.2992
54.9400 18.2968 -0.3273
54.9600 18.3034 -0.3395
54.9800 18.3100 -0.3013
55.0000 18.3166 -0.3257
55.0200 18.3233 -0.3291
55.0400 18.3300 -0.3081
55.0600 18.3367 -0.3254
55.0800 18.3434 -0.3322
55.1000 18.3501 -0.3102
55.1200 18.3568 -0.3274
55.1400 18.3634 -0.3263
55.1600 18.3700 -0.3065
55.1800 18.3766 -0.3328
55.2000 18.3833 -0.3258
55.2200 18.3900 -0.3093
55.2400 18.3967 -0.3300
55.2600 18.4034 -0.3258
55.2800 18.4101 -0.3087
55.3000 18.4167 -0.3295
55.3200 18.4234 -0.3280
55.3400 18.4300 -0.3116
55.3600 18.4366 -0.3229
55.3800 18.4433 -0.3316
55.4000 18.4501 -0.3140
55.4200 18.4568 -0.3237
55.4400 18.4635 -0.3308
55.4600 18.4701 -0.3210
55.4800 18.4768 -0.3203
55.5000 18.4835 -0.3327
55.5200 18.4901 -0.3208
55.5400 18.4967 -0.3191
55.5600 18.5034 -0.3370
55.5800 18.5101 -0.3225
55.6000 18.5168 -0.3173
55.6200 18.5234 -0.3344
55.6400 18.5301 -0.3204
55.6600 18.5368 -0.3266
55.6800 18.5435 -0.3358
55.7000 18.5501 -0.3189
55.7200 18.5567 -0.3231
55.7400 18.5633 -0.3315
55.7600 18.5700 -0.3220
55.7800 18.5767 -0.3278
55.8000 18.5834 -0.3339
55.8200 18.5901 -0.3151
55.8400 18.5968 -0.3329
55.8600 18.6034 -0.3383
55.8800 18.6100 -0.3208
55.9000 18.6166 -0.3231
55.9200 18.6233 -0.3329
55.9400 18.6300 -0.3275
55.9600 18.6367 -0.3281
55.9800 18.6434 -0.3289
56.0000 18.6501 -0.3275
56.0200 18.6568 -0.3304
56.0400 18.6634 -0.3365
56.0600 18.6701 -0.3227
56.0800 18.6767 -0.3329
56.1000 18.6834 -0.3336
56.1200 18.6901 -0.3242
56.1400 18.6968 -0.3301
56.1600 18.7034 -0.3406
56.1800 18.7101 -0.3250
56.2000 18.7168 -0.3232
56.2200 18.7235 -0.3438
56.2400 18.7300 -0.3294
56.2600 18.7367 -0.3225
56.2800 18.7433 -0.3418
56.3000 18.7501 -0.3248
56.3200 18.7568 -0.3286
56.3400 18.7635 -0.3464
56.3600 18.7701 -0.3203
56.3800 18.7768 -0.3279
56.4000 18.7834 -0.3510
56.4200 18.7900 -0.3288
56.4400 18.7967 -0.3181
56.4600 18.8034 -0.3556
56.4800 18.8101 -0.3274
56.5000 18.8168 -0.3202
56.5200 18.8234 -0.3525
56.5400 18.8301 -0.3257
56.5600 18.8368 -0.3233
56.5800 18.8434 -0.3524
56.6000 18.8500 -0.3291
56.6200 18.8566 -0.3233
56.6400 18.8633 -0.3450
56.6600 18.8700 -0.3330
56.6800 18.8767 -0.3293
56.7000 18.8834 -0.3421
56.7200 18.8901 -0.3301
56.7400 18.8968 -0.3407
56.7600 18.9034 -0.3470
56.7800 18.9100 -0.3188
56.8000 18.9167 -0.3405
56.8200 18.9233 -0.3452
56.8400 18.9301 -0.3257
56.8600 18.9368 -0.3399
56.8800 18.9435 -0.3448
56.9000 18.9501 -0.3270
56.9200 18.9568 -0.3436
56.9400 18.9635 -0.3380
56.9600 18.9701 -0.3304
56.9800 18.9767 -0.3427
57.0000 18.9834 -0.3393
57.0200 18.9901 -0.3320
57.0400 18.9968 -0.3450
57.0600 19.0034 -0.3318
57.0800 19.0101 -0.3409
57.1000 19.0168 -0.3414
57.1200 19.0234 -0.3324
57.1400 19.0301 -0.3391
57.1600 19.0367 -0.3373
57.1800 19.0433 -0.3342
57.2000 19.0500 -0.3439
57.2200 19.0567 -0.3362
57.2400 19.0634 -0.3402
57.2600 19.0701 -0.3463
57.2800 19.0768 -0.3325
57.3000 19.0834 -0.3392
57.3200 19.0900 -0.3480
57.3400 19.0966 -0.3297
57.3600 19.1033 -0.3415
57.3800 19.1100 -0.3468
57.4000 19.1167 -0.3296
57.4200 19.1234 -0.3484
57.4400 19.1301 -0.3437
57.4600 19.1367 -0.3335
57.4800 19.1434 -0.3488
57.5000 19.1500 -0.3444
57.5200 19.1567 -0.3310
57.5400 19.1633 -0.3468
57.5600 19.1700 -0.3434
57.5800 19.1768 -0.3377
57.6000 19.1835 -0.3457
57.6200 19.1901 -0.3479
57.6400 19.1968 -0.3389
57.6600 19.2035 -0.3476
57.6800 19.2101 -0.3445
57.7000 19.2167 -0.3418
57.7200 19.2234 -0.3458
57.7400 19.2301 -0.3446
57.7600 19.2368 -0.3446
57.7800 19.2435 -0.3485
57.8000 19.2502 -0.3469
57.8200 19.2568 -0.3413
57.8400 19.2635 -0.3459
57.8600 19.2701 -0.3533
57.8800 19.2767 -0.3502
57.9000 19.2833 -0.3455
57.9200 19.2900 -0.3518
57.9400 19.2967 -0.3483
57.9600 19.3034 -0.3491
57.9800 19.3101 -0.3528
58.0000 19.3167 -0.3529
58.0200 19.3234 -0.3427
58.0400 19.3300 -0.3572
58.0600 19.3366 -0.3484
58.0800 19.3433 -0.3437
58.1000 19.3500 -0.3580
58.1200 19.3567 -0.3521
58.1400 19.3634 -0.3525
58.1600 19.3700 -0.3579
58.1800 19.3767 -0.3493
58.2000 19.3834 -0.3511
58.2200 19.3901 -0.3573
58.2400 19.3967 -0.3541
58.2600 19.4034 -0.3499
58.2800 19.4100 -0.3600
58.3000 19.4167 -0.3568
58.3200 19.4234 -0.3488
58.3400 19.4301 -0.3602
58.3600 19.4368 -0.3522
58.3800 19.4435 -0.3534
58.4000 19.4501 -0.3577
58.4200 19.4567 -0.3549
58.4400 19.4633 -0.3509
58.4600 19.4700 -0.3637
58.4800 19.4768 -0.3592
58.5000 19.4834 -0.3511
58.5200 19.4901 -0.3587
58.5400 19.4968 -0.3589
58.5600 19.5035 -0.3541
58.5800 19.5101 -0.3670
58.6000 19.5167 -0.3560
58.6200 19.5233 -0.3526
58.6400 19.5300 -0.3590
58.6600 19.5367 -0.3673
58.6800 19.5434 -0.3495
58.7000 19.5501 -0.3641
58.7200 19.5568 -0.3647
58.7400 19.5634 -0.3543
58.7600 19.5701 -0.3653
58.7800 19.5767 -0.3572
58.8000 19.5833 -0.3535
58.8200 19.5900 -0.3733
58.8400 19.5967 -0.3618
58.8600 19.6034 -0.3509
58.8800 19.6101 -0.3706
58.9000 19.6167 -0.3674
58.9200 19.6234 -0.3556
58.9400 19.6300 -0.3699
58.9600 19.6367 -0.3682
58.9800 19.6433 -0.3562
59.0000 19.6500 -0.3657
59.0200 19.6567 -0.3636
59.0400 19.6635 -0.3693
59.0600 19.6701 -0.3677
59.0800 19.6768 -0.3609
59.1000 19.6835 -0.3657
59.1200 19.6901 -0.3745
59.1400 19.6967 -0.3582
59.1600 19.7034 -0.3707
59.1800 19.7101 -0.3745
59.2000 19.7168 -0.3596
59.2200 19.7234 -0.3723
59.2400 19.7301 -0.3786
59.2600 19.7368 -0.3579
59.2800 19.7435 -0.3685
59.3000 19.7500 -0.3919
