Raw Data
Time Displacement Force
(s) (mm) (N)
0.0000 0.0000 -0.5051
0.0200 0.0000 -0.5026
0.0400 0.0008 -0.4397
0.0600 0.0039 -0.3993
0.0800 0.0093 -0.4339
0.1000 0.0150 -0.4130
0.1200 0.0208 -0.4073
0.1400 0.0275 -0.4241
0.1600 0.0348 -0.4147
0.1800 0.0424 -0.4156
0.2000 0.0496 -0.4093
0.2200 0.0564 -0.3856
0.2400 0.0631 -0.3929
0.2600 0.0698 -0.3859
0.2800 0.0764 -0.3645
0.3000 0.0831 -0.3662
0.3200 0.0899 -0.3686
0.3400 0.0966 -0.3457
0.3600 0.1033 -0.3435
0.3800 0.1099 -0.3364
0.4000 0.1166 -0.3176
0.4200 0.1233 -0.3189
0.4400 0.1300 -0.3076
0.4600 0.1366 -0.2987
0.4800 0.1433 -0.2944
0.5000 0.1500 -0.2825
0.5200 0.1567 -0.2801
0.5400 0.1633 -0.2684
0.5600 0.1699 -0.2622
0.5800 0.1765 -0.2530
0.6000 0.1832 -0.2551
0.6200 0.1899 -0.2964
0.6400 0.1966 -0.2639
0.6600 0.2033 -0.2359
0.6800 0.2100 -0.2452
0.7000 0.2167 -0.2349
0.7200 0.2233 -0.2080
0.7400 0.2299 -0.2057
0.7600 0.2365 -0.1845
0.7800 0.2432 -0.1628
0.8000 0.2499 -0.1576
0.8200 0.2566 -0.1238
0.8400 0.2633 -0.1193
0.8600 0.2699 -0.1271
0.8800 0.2766 -0.0921
0.9000 0.2833 -0.0865
0.9200 0.2899 -0.0864
0.9400 0.2965 -0.0606
0.9600 0.3032 -0.0626
0.9800 0.3099 -0.0593
1.0000 0.3166 -0.0236
1.0200 0.3233 -0.0103
1.0400 0.3299 -0.0006
1.0600 0.3366 0.0490
1.0800 0.3432 0.0553
1.1000 0.3498 0.0557
1.1200 0.3565 0.0796
1.1400 0.3632 0.0710
1.1600 0.3699 0.0616
1.1800 0.3767 0.0742
1.2000 0.3833 0.0617
1.2200 0.3900 0.0641
1.2400 0.3967 0.0735
1.2600 0.4034 0.0632
1.2800 0.4100 0.0614
1.3000 0.4166 0.0758
1.3200 0.4233 0.0593
1.3400 0.4299 0.0620
1.3600 0.4366 0.0760
1.3800 0.4433 0.0645
1.4000 0.4500 0.0629
1.4200 0.4567 0.0711
1.4400 0.4633 0.0641
1.4600 0.4699 0.0648
1.4800 0.4765 0.0689
1.5000 0.4832 0.0613
1.5200 0.4899 0.0638
1.5400 0.4966 0.0666
1.5600 0.5032 0.0604
1.5800 0.5099 0.0574
1.6000 0.5166 0.0646
1.6200 0.5232 0.0565
1.6400 0.5298 0.0594
1.6600 0.5365 0.0631
1.6800 0.5432 0.0608
1.7000 0.5499 0.0537
1.7200 0.5566 0.0630
1.7400 0.5633 0.0611
1.7600 0.5699 0.0601
1.7800 0.5766 0.0615
1.8000 0.5833 0.0584
1.8200 0.5899 0.0546
1.8400 0.5966 0.0607
1.8600 0.6033 0.0575
1.8800 0.6099 0.0577
1.9000 0.6166 0.0617
1.9200 0.6233 0.0610
1.9400 0.6300 0.0576
1.9600 0.6367 0.0625
1.9800 0.6433 0.0534
2.0000 0.6499 0.0592
2.0200 0.6565 0.0631
2.0400 0.6632 0.0574
2.0600 0.6699 0.0611
2.0800 0.6766 0.0538
2.1000 0.6833 0.0572
2.1200 0.6900 0.0597
2.1400 0.6967 0.0582
2.1600 0.7033 0.0598
2.1800 0.7099 0.0593
2.2000 0.7165 0.0553
2.2200 0.7232 0.0632
2.2400 0.7299 0.0578
2.2600 0.7366 0.0537
2.2800 0.7433 0.0592
2.3000 0.7499 0.0600
2.3200 0.7566 0.0521
2.3400 0.7633 0.0612
2.3600 0.7699 0.0564
2.3800 0.7765 0.0537
2.4000 0.7832 0.0654
2.4200 0.7899 0.0557
2.4400 0.7966 0.0478
2.4600 0.8033 0.0684
2.4800 0.8100 0.0572
2.5000 0.8167 0.0523
2.5200 0.8233 0.0627
2.5400 0.8299 0.0523
2.5600 0.8365 0.0539
2.5800 0.8432 0.0611
2.6000 0.8499 0.0544
2.6200 0.8566 0.0527
2.6400 0.8633 0.0599
2.6600 0.8700 0.0530
2.6800 0.8766 0.0485
2.7000 0.8833 0.0580
2.7200 0.8899 0.0539
2.7400 0.8965 0.0510
2.7600 0.9032 0.0582
2.7800 0.9099 0.0507
2.8000 0.9166 0.0514
2.8200 0.9233 0.0525
2.8400 0.9300 0.0519
2.8600 0.9367 0.0479
2.8800 0.9433 0.0482
2.9000 0.9499 0.0515
2.9200 0.9565 0.0501
2.9400 0.9632 0.0502
2.9600 0.9699 0.0516
2.9800 0.9766 0.0492
3.0000 0.9833 0.0515
3.0200 0.9900 0.0504
3.0400 0.9966 0.0421
3.0600 1.0033 0.0478
3.0800 1.0099 0.0530
3.1000 1.0165 0.0413
3.1200 1.0231 0.0490
3.1400 1.0298 0.0539
3.1600 1.0366 0.0346
3.1800 1.0433 0.0476
3.2000 1.0499 0.0512
3.2200 1.0566 0.0405
3.2400 1.0633 0.0453
3.2600 1.0699 0.0519
3.2800 1.0765 0.0382
3.3000 1.0832 0.0449
3.3200 1.0899 0.0507
3.3400 1.0966 0.0384
3.3600 1.1033 0.0474
3.3800 1.1100 0.0498
3.4000 1.1167 0.0343
3.4200 1.1234 0.0461
3.4400 1.1300 0.0487
3.4600 1.1366 0.0358
3.4800 1.1432 0.0454
3.5000 1.1499 0.0515
3.5200 1.1566 0.0333
3.5400 1.1633 0.0452
3.5600 1.1700 0.0480
3.5800 1.1767 0.0316
3.6000 1.1833 0.0432
3.6200 1.1899 0.0436
3.6400 1.1965 0.0313
3.6600 1.2032 0.0485
3.6800 1.2099 0.0495
3.7000 1.2166 0.0264
3.7200 1.2233 0.0457
3.7400 1.2300 0.0423
3.7600 1.2366 0.0303
3.7800 1.2433 0.0488
3.8000 1.2499 0.0445
3.8200 1.2565 0.0280
3.8400 1.2632 0.0485
3.8600 1.2699 0.0372
3.8800 1.2766 0.0312
3.9000 1.2833 0.0438
3.9200 1.2899 0.0381
3.9400 1.2966 0.0273
3.9600 1.3033 0.0473
3.9800 1.3099 0.0352
4.0000 1.3165 0.0316
4.0200 1.3232 0.0457
4.0400 1.3299 0.0380
4.0600 1.3366 0.0329
4.0800 1.3433 0.0422
4.1000 1.3500 0.0368
4.1200 1.3567 0.0312
4.1400 1.3633 0.0376
4.1600 1.3700 0.0337
4.1800 1.3766 0.0353
4.2000 1.3832 0.0353
4.2200 1.3899 0.0380
4.2400 1.3966 0.0345
4.2600 1.4033 0.0314
4.2800 1.4100 0.0389
4.3000 1.4167 0.0343
4.3200 1.4233 0.0311
4.3400 1.4300 0.0423
4.3600 1.4366 0.0301
4.3800 1.4432 0.0321
4.4000 1.4499 0.0425
4.4200 1.4566 0.0339
4.4400 1.4633 0.0286
4.4600 1.4699 0.0478
4.4800 1.4766 0.0300
4.5000 1.4833 0.0288
4.5200 1.4899 0.0439
4.5400 1.4965 0.0275
4.5600 1.5032 0.0288
4.5800 1.5099 0.0445
4.6000 1.5166 0.0263
4.6200 1.5233 0.0327
4.6400 1.5300 0.0415
4.6600 1.5367 0.0228
4.6800 1.5433 0.0312
4.7000 1.5499 0.0415
4.7200 1.5565 0.0244
4.7400 1.5632 0.0309
4.7600 1.5699 0.0427
4.7800 1.5767 0.0174
4.8000 1.5834 0.0368
4.8200 1.5900 0.0414
4.8400 1.5967 0.0210
4.8600 1.6033 0.0328
4.8800 1.6100 0.0390
4.9000 1.6165 0.0205
4.9200 1.6232 0.0335
4.9400 1.6298 0.0388
4.9600 1.6366 0.0240
4.9800 1.6433 0.0291
5.0000 1.6500 0.0406
5.0200 1.6567 0.0205
5.0400 1.6633 0.0263
5.0600 1.6699 0.0375
5.0800 1.6765 0.0227
5.1000 1.6832 0.0286
5.1200 1.6899 0.0333
5.1400 1.6966 0.0197
5.1600 1.7033 0.0287
5.1800 1.7100 0.0313
5.2000 1.7167 0.0226
5.2200 1.7234 0.0281
5.2400 1.7300 0.0321
5.2600 1.7366 0.0208
5.2800 1.7432 0.0241
5.3000 1.7498 0.0367
5.3200 1.7566 0.0181
5.3400 1.7633 0.0195
5.3600 1.7699 0.0337
5.3800 1.7766 0.0188
5.4000 1.7833 0.0204
5.4200 1.7899 0.0326
5.4400 1.7966 0.0182
5.4600 1.8032 0.0254
5.4800 1.8099 0.0265
5.5000 1.8166 0.0174
5.5200 1.8233 0.0210
5.5400 1.8300 0.0248
5.5600 1.8367 0.0160
5.5800 1.8434 0.0190
5.6000 1.8500 0.0218
5.6200 1.8566 0.0184
5.6400 1.8632 0.0177
5.6600 1.8699 0.0229
5.6800 1.8766 0.0185
5.7000 1.8833 0.0136
5.7200 1.8900 0.0171
5.7400 1.8966 0.0183
5.7600 1.9033 0.0161
5.7800 1.9099 0.0120
5.8000 1.9166 0.0212
5.8200 1.9232 0.0156
5.8400 1.9299 0.0140
5.8600 1.9366 0.0195
5.8800 1.9432 0.0163
5.9000 1.9499 0.0157
5.9200 1.9566 0.0169
5.9400 1.9633 0.0088
5.9600 1.9699 0.0180
5.9800 1.9765 0.0175
6.0000 1.9832 0.0072
6.0200 1.9898 0.0167
6.0400 1.9966 0.0205
6.0600 2.0033 0.0015
6.0800 2.0100 0.0161
6.1000 2.0166 0.0158
6.1200 2.0233 0.0072
6.1400 2.0300 0.0103
6.1600 2.0366 0.0131
6.1800 2.0432 0.0099
6.2000 2.0499 0.0154
6.2200 2.0566 0.0136
6.2400 2.0633 0.0071
6.2600 2.0700 0.0104
6.2800 2.0767 0.0106
6.3000 2.0833 0.0060
6.3200 2.0900 0.0075
6.3400 2.0966 0.0114
6.3600 2.1032 0.0067
6.3800 2.1099 0.0047
6.4000 2.1166 0.0093
6.4200 2.1233 0.0091
6.4400 2.1300 0.0016
6.4600 2.1366 0.0143
6.4800 2.1433 0.0054
6.5000 2.1500 0.0031
6.5200 2.1566 0.0125
6.5400 2.1632 0.0072
6.5600 2.1699 0.0031
6.5800 2.1766 0.0121
6.6000 2.1833 0.0029
6.6200 2.1899 0.0042
6.6400 2.1966 0.0124
6.6600 2.2033 0.0002
6.6800 2.2100 0.0014
6.7000 2.2166 0.0097
6.7200 2.2231 -0.0010
6.7400 2.2298 0.0046
6.7600 2.2365 0.0096
6.7800 2.2433 -0.0047
6.8000 2.2500 0.0026
6.8200 2.2566 0.0108
6.8400 2.2633 -0.0018
6.8600 2.2700 0.0006
6.8800 2.2766 0.0114
6.9000 2.2832 -0.0047
6.9200 2.2899 0.0058
6.9400 2.2966 0.0048
6.9600 2.3033 -0.0051
6.9800 2.3100 0.0025
7.0000 2.3166 0.0055
7.0200 2.3233 -0.0037
7.0400 2.3300 0.0012
7.0600 2.3366 0.0019
7.0800 2.3432 0.0008
7.1000 2.3499 -0.0032
7.1200 2.3566 0.0043
7.1400 2.3633 -0.0019
7.1600 2.3700 -0.0043
7.1800 2.3767 0.0021
7.2000 2.3833 -0.0037
7.2200 2.3900 -0.0064
7.2400 2.3966 0.0024
7.2600 2.4032 -0.0050
7.2800 2.4099 -0.0084
7.3000 2.4166 0.0013
7.3200 2.4233 -0.0084
7.3400 2.4300 -0.0074
7.3600 2.4366 0.0016
7.3800 2.4433 -0.0091
7.4000 2.4500 -0.0065
7.4200 2.4566 0.0013
7.4400 2.4632 -0.0136
7.4600 2.4698 -0.0039
7.4800 2.4765 -0.0004
7.5000 2.4832 -0.0108
7.5200 2.4899 -0.0144
7.5400 2.4966 0.0027
7.5600 2.5033 -0.0102
7.5800 2.5100 -0.0116
7.6000 2.5166 -0.0033
7.6200 2.5232 -0.0042
7.6400 2.5299 -0.0133
7.6600 2.5366 -0.0040
7.6800 2.5433 -0.0058
7.7000 2.5500 -0.0139
7.7200 2.5567 -0.0070
7.7400 2.5634 -0.0067
7.7600 2.5700 -0.0216
7.7800 2.5766 -0.0017
7.8000 2.5832 -0.0058
7.8200 2.5899 -0.0222
7.8400 2.5966 -0.0035
7.8600 2.6033 -0.0090
7.8800 2.6100 -0.0223
7.9000 2.6166 -0.0045
7.9200 2.6233 -0.0051
7.9400 2.6300 -0.0232
7.9600 2.6366 -0.0071
7.9800 2.6432 -0.0111
8.0000 2.6499 -0.0177
8.0200 2.6565 -0.0043
8.0400 2.6632 -0.0125
8.0600 2.6699 -0.0197
8.0800 2.6766 -0.0060
8.1000 2.6833 -0.0144
8.1200 2.6900 -0.0159
8.1400 2.6966 -0.0149
8.1600 2.7032 -0.0079
8.1800 2.7098 -0.0198
8.2000 2.7165 -0.0127
8.2200 2.7233 -0.0097
8.2400 2.7300 -0.0226
8.2600 2.7367 -0.0188
8.2800 2.7433 -0.0091
8.3000 2.7500 -0.0248
8.3200 2.7566 -0.0164
8.3400 2.7632 -0.0112
8.3600 2.7699 -0.0275
8.3800 2.7766 -0.0190
8.4000 2.7833 -0.0095
8.4200 2.7900 -0.0291
8.4400 2.7966 -0.0135
8.4600 2.8033 -0.0094
8.4800 2.8100 -0.0338
8.5000 2.8166 -0.0142
8.5200 2.8232 -0.0111
8.5400 2.8299 -0.0306
8.5600 2.8366 -0.0135
8.5800 2.8433 -0.0100
8.6000 2.8500 -0.0374
8.6200 2.8567 -0.0124
8.6400 2.8633 -0.0139
8.6600 2.8700 -0.0371
8.6800 2.8766 -0.0171
8.7000 2.8832 -0.0103
8.7200 2.8898 -0.0373
8.7400 2.8965 -0.0145
8.7600 2.9032 -0.0163
8.7800 2.9099 -0.0329
8.8000 2.9166 -0.0143
8.8200 2.9233 -0.0216
8.8400 2.9300 -0.0332
8.8600 2.9366 -0.0148
8.8800 2.9432 -0.0146
8.9000 2.9498 -0.0310
8.9200 2.9565 -0.0212
8.9400 2.9632 -0.0190
8.9600 2.9699 -0.0355
8.9800 2.9766 -0.0217
9.0000 2.9833 -0.0199
9.0200 2.9899 -0.0334
9.0400 2.9966 -0.0190
9.0600 3.0032 -0.0244
9.0800 3.0099 -0.0262
9.1000 3.0166 -0.0237
9.1200 3.0233 -0.0253
9.1400 3.0300 -0.0311
9.1600 3.0367 -0.0235
9.1800 3.0434 -0.0286
9.2000 3.0500 -0.0346
9.2200 3.0567 -0.0242
9.2400 3.0632 -0.0236
9.2600 3.0699 -0.0338
9.2800 3.0766 -0.0239
9.3000 3.0833 -0.0250
9.3200 3.0900 -0.0332
9.3400 3.0967 -0.0269
9.3600 3.1034 -0.0248
9.3800 3.1100 -0.0361
9.4000 3.1166 -0.0261
9.4200 3.1232 -0.0260
9.4400 3.1299 -0.0333
9.4600 3.1366 -0.0259
9.4800 3.1433 -0.0293
9.5000 3.1500 -0.0338
9.5200 3.1566 -0.0273
9.5400 3.1633 -0.0267
9.5600 3.1700 -0.0342
9.5800 3.1766 -0.0273
9.6000 3.1833 -0.0301
9.6200 3.1899 -0.0282
9.6400 3.1966 -0.0337
9.6600 3.2032 -0.0297
9.6800 3.2099 -0.0284
9.7000 3.2166 -0.0318
9.7200 3.2232 -0.0327
9.7400 3.2299 -0.0271
9.7600 3.2366 -0.0343
9.7800 3.2432 -0.0284
9.8000 3.2498 -0.0282
9.8200 3.2565 -0.0329
9.8400 3.2633 -0.0350
9.8600 3.2700 -0.0301
9.8800 3.2767 -0.0318
9.9000 3.2833 -0.0381
9.9200 3.2900 -0.0275
9.9400 3.2966 -0.0330
9.9600 3.3032 -0.0346
9.9800 3.3099 -0.0266
10.0000 3.3166 -0.0348
10.0200 3.3233 -0.0341
10.0400 3.3300 -0.0328
10.0600 3.3367 -0.0363
10.0800 3.3434 -0.0303
10.1000 3.3500 -0.0343
10.1200 3.3566 -0.0365
10.1400 3.3632 -0.0324
10.1600 3.3698 -0.0295
10.1800 3.3765 -0.0347
10.2000 3.3832 -0.0296
10.2200 3.3899 -0.0358
10.2400 3.3966 -0.0381
10.2600 3.4033 -0.0349
10.2800 3.4100 -0.0338
10.3000 3.4166 -0.0325
10.3200 3.4232 -0.0316
10.3400 3.4298 -0.0311
10.3600 3.4365 -0.0356
10.3800 3.4432 -0.0353
10.4000 3.4499 -0.0344
10.4200 3.4566 -0.0377
10.4400 3.4633 -0.0333
10.4600 3.4700 -0.0348
10.4800 3.4766 -0.0378
10.5000 3.4832 -0.0418
10.5200 3.4899 -0.0274
10.5400 3.4966 -0.0376
10.5600 3.5033 -0.0450
10.5800 3.5100 -0.0273
10.6000 3.5166 -0.0442
10.6200 3.5233 -0.0404
10.6400 3.5300 -0.0322
10.6600 3.5367 -0.0444
10.6800 3.5433 -0.0448
10.7000 3.5499 -0.0287
10.7200 3.5565 -0.0419
10.7400 3.5632 -0.0437
10.7600 3.5699 -0.0323
10.7800 3.5767 -0.0437
10.8000 3.5834 -0.0453
10.8200 3.5900 -0.0312
10.8400 3.5967 -0.0474
10.8600 3.6033 -0.0423
10.8800 3.6099 -0.0273
10.9000 3.6166 -0.0451
10.9200 3.6233 -0.0486
10.9400 3.6300 -0.0299
10.9600 3.6367 -0.0479
10.9800 3.6433 -0.0462
11.0000 3.6500 -0.0315
11.0200 3.6566 -0.0510
11.0400 3.6632 -0.0440
11.0600 3.6698 -0.0327
11.0800 3.6765 -0.0507
11.1000 3.6832 -0.0423
11.1200 3.6899 -0.0326
11.1400 3.6966 -0.0558
11.1600 3.7033 -0.0406
11.1800 3.7099 -0.0347
11.2000 3.7166 -0.0567
11.2200 3.7232 -0.0471
11.2400 3.7299 -0.0288
11.2600 3.7365 -0.0562
11.2800 3.7432 -0.0425
11.3000 3.7500 -0.0367
11.3200 3.7567 -0.0548
11.3400 3.7634 -0.0404
11.3600 3.7701 -0.0445
11.3800 3.7767 -0.0600
11.4000 3.7833 -0.0421
11.4200 3.7899 -0.0406
11.4400 3.7965 -0.0508
11.4600 3.8033 -0.0454
11.4800 3.8100 -0.0476
11.5000 3.8167 -0.0519
11.5200 3.8233 -0.0436
11.5400 3.8299 -0.0494
11.5600 3.8366 -0.0479
11.5800 3.8433 -0.0476
11.6000 3.8499 -0.0483
11.6200 3.8566 -0.0524
11.6400 3.8632 -0.0504
11.6600 3.8699 -0.0419
11.6800 3.8766 -0.0564
11.7000 3.8833 -0.0531
11.7200 3.8900 -0.0459
11.7400 3.8966 -0.0536
11.7600 3.9032 -0.0566
11.7800 3.9098 -0.0430
11.8000 3.9165 -0.0496
11.8200 3.9232 -0.0587
11.8400 3.9299 -0.0483
11.8600 3.9366 -0.0509
11.8800 3.9433 -0.0553
11.9000 3.9500 -0.0426
11.9200 3.9566 -0.0563
11.9400 3.9632 -0.0600
11.9600 3.9698 -0.0460
11.9800 3.9765 -0.0530
12.0000 3.9832 -0.0629
12.0200 3.9900 -0.0456
12.0400 3.9967 -0.0523
12.0600 4.0033 -0.0627
12.0800 4.0100 -0.0486
12.1000 4.0167 -0.0533
12.1200 4.0233 -0.0579
12.1400 4.0299 -0.0515
12.1600 4.0366 -0.0597
12.1800 4.0433 -0.0564
12.2000 4.0499 -0.0466
12.2200 4.0566 -0.0594
12.2400 4.0633 -0.0552
12.2600 4.0700 -0.0511
12.2800 4.0767 -0.0576
12.3000 4.0833 -0.0576
12.3200 4.0898 -0.0496
12.3400 4.0965 -0.0558
12.3600 4.1032 -0.0566
12.3800 4.1099 -0.0560
12.4000 4.1166 -0.0580
12.4200 4.1233 -0.0568
12.4400 4.1300 -0.0563
12.4600 4.1367 -0.0592
12.4800 4.1433 -0.0621
12.5000 4.1499 -0.0553
12.5200 4.1565 -0.0511
12.5400 4.1632 -0.0623
12.5600 4.1699 -0.0603
12.5800 4.1766 -0.0502
12.6000 4.1833 -0.0573
12.6200 4.1900 -0.0610
12.6400 4.1966 -0.0566
12.6600 4.2033 -0.0619
12.6800 4.2099 -0.0552
12.7000 4.2166 -0.0525
12.7200 4.2232 -0.0668
12.7400 4.2299 -0.0577
12.7600 4.2366 -0.0563
12.7800 4.2433 -0.0641
12.8000 4.2500 -0.0626
12.8200 4.2567 -0.0489
12.8400 4.2633 -0.0694
12.8600 4.2699 -0.0619
12.8800 4.2765 -0.0556
12.9000 4.2832 -0.0662
12.9200 4.2900 -0.0598
12.9400 4.2967 -0.0575
12.9600 4.3033 -0.0693
12.9800 4.3100 -0.0575
13.0000 4.3167 -0.0577
13.0200 4.3233 -0.0716
13.0400 4.3299 -0.0582
13.0600 4.3365 -0.0532
13.0800 4.3433 -0.0746
13.1000 4.3500 -0.0605
13.1200 4.3566 -0.0570
13.1400 4.3633 -0.0749
13.1600 4.3699 -0.0575
13.1800 4.3766 -0.0610
13.2000 4.3833 -0.0758
13.2200 4.3899 -0.0536
13.2400 4.3965 -0.0611
13.2600 4.4032 -0.0777
13.2800 4.4099 -0.0515
13.3000 4.4166 -0.0679
13.3200 4.4233 -0.0793
13.3400 4.4300 -0.0588
13.3600 4.4367 -0.0638
13.3800 4.4433 -0.0752
13.4000 4.4499 -0.0588
13.4200 4.4565 -0.0705
13.4400 4.4632 -0.0719
13.4600 4.4700 -0.0587
13.4800 4.4767 -0.0724
13.5000 4.4834 -0.0750
13.5200 4.4900 -0.0576
13.5400 4.4967 -0.0753
13.5600 4.5033 -0.0708
13.5800 4.5099 -0.0606
13.6000 4.5165 -0.0728
13.6200 4.5232 -0.0689
13.6400 4.5300 -0.0672
13.6600 4.5366 -0.0733
13.6800 4.5433 -0.0668
13.7000 4.5500 -0.0705
13.7200 4.5566 -0.0751
13.7400 4.5633 -0.0646
13.7600 4.5699 -0.0696
13.7800 4.5765 -0.0699
13.8000 4.5832 -0.0702
13.8200 4.5899 -0.0722
13.8400 4.5966 -0.0696
13.8600 4.6033 -0.0690
13.8800 4.6100 -0.0758
13.9000 4.6166 -0.0686
13.9200 4.6232 -0.0743
13.9400 4.6298 -0.0702
13.9600 4.6364 -0.0659
13.9800 4.6432 -0.0732
14.0000 4.6499 -0.0722
14.0200 4.6566 -0.0652
14.0400 4.6633 -0.0820
14.0600 4.6700 -0.0716
14.0800 4.6766 -0.0681
14.1000 4.6833 -0.0759
14.1200 4.6899 -0.0757
14.1400 4.6965 -0.0706
14.1600 4.7032 -0.0761
14.1800 4.7100 -0.0706
14.2000 4.7167 -0.0708
14.2200 4.7233 -0.0783
14.2400 4.7300 -0.0723
14.2600 4.7367 -0.0756
14.2800 4.7433 -0.0778
14.3000 4.7499 -0.0741
14.3200 4.7566 -0.0758
14.3400 4.7632 -0.0742
14.3600 4.7699 -0.0744
14.3800 4.7766 -0.0796
14.4000 4.7833 -0.0718
14.4200 4.7900 -0.0763
14.4400 4.7967 -0.0773
14.4600 4.8033 -0.0761
14.4800 4.8099 -0.0727
14.5000 4.8165 -0.0751
14.5200 4.8232 -0.0760
14.5400 4.8299 -0.0797
14.5600 4.8366 -0.0752
14.5800 4.8432 -0.0733
14.6000 4.8499 -0.0788
14.6200 4.8566 -0.0775
14.6400 4.8632 -0.0741
14.6600 4.8698 -0.0830
14.6800 4.8765 -0.0723
14.7000 4.8832 -0.0735
14.7200 4.8899 -0.0863
14.7400 4.8965 -0.0755
14.7600 4.9032 -0.0733
14.7800 4.9099 -0.0823
14.8000 4.9166 -0.0753
14.8200 4.9233 -0.0824
14.8400 4.9300 -0.0847
14.8600 4.9366 -0.0778
14.8800 4.9433 -0.0813
14.9000 4.9500 -0.0844
14.9200 4.9566 -0.0743
14.9400 4.9633 -0.0766
14.9600 4.9700 -0.0819
14.9800 4.9767 -0.0774
15.0000 4.9833 -0.0794
15.0200 4.9899 -0.0776
15.0400 4.9965 -0.0764
15.0600 5.0032 -0.0796
15.0800 5.0099 -0.0857
15.1000 5.0166 -0.0790
15.1200 5.0233 -0.0786
15.1400 5.0300 -0.0842
15.1600 5.0367 -0.0816
15.1800 5.0433 -0.0757
15.2000 5.0499 -0.0859
15.2200 5.0565 -0.0849
15.2400 5.0632 -0.0769
15.2600 5.0699 -0.0812
15.2800 5.0766 -0.0815
15.3000 5.0833 -0.0750
15.3200 5.0900 -0.0845
15.3400 5.0967 -0.0853
15.3600 5.1033 -0.0697
15.3800 5.1099 -0.0820
15.4000 5.1165 -0.0833
15.4200 5.1231 -0.0740
15.4400 5.1299 -0.0839
15.4600 5.1366 -0.0836
15.4800 5.1432 -0.0730
15.5000 5.1499 -0.0885
15.5200 5.1566 -0.0881
15.5400 5.1632 -0.0771
15.5600 5.1698 -0.0834
15.5800 5.1764 -0.0823
15.6000 5.1832 -0.0734
15.6200 5.1899 -0.0914
15.6400 5.1967 -0.0843
15.6600 5.2034 -0.0793
15.6800 5.2100 -0.0870
15.7000 5.2167 -0.0855
15.7200 5.2234 -0.0784
15.7400 5.2300 -0.0904
15.7600 5.2366 -0.0830
15.7800 5.2433 -0.0770
15.8000 5.2500 -0.0927
15.8200 5.2567 -0.0832
15.8400 5.2633 -0.0804
15.8600 5.2700 -0.0922
15.8800 5.2767 -0.0870
15.9000 5.2833 -0.0820
15.9200 5.2899 -0.0905
15.9400 5.2965 -0.0841
15.9600 5.3032 -0.0798
15.9800 5.3099 -0.0874
16.0000 5.3166 -0.0877
16.0200 5.3233 -0.0824
16.0400 5.3300 -0.0941
16.0600 5.3366 -0.0805
16.0800 5.3433 -0.0923
16.1000 5.3499 -0.0913
16.1200 5.3565 -0.0826
16.1400 5.3632 -0.0859
16.1600 5.3699 -0.0927
16.1800 5.3766 -0.0880
16.2000 5.3833 -0.0856
16.2200 5.3900 -0.0951
16.2400 5.3966 -0.0918
16.2600 5.4033 -0.0835
16.2800 5.4099 -0.0977
16.3000 5.4166 -0.0902
16.3200 5.4232 -0.0834
16.3400 5.4299 -0.0952
16.3600 5.4365 -0.0893
16.3800 5.4432 -0.0834
16.4000 5.4499 -0.0994
16.4200 5.4567 -0.0921
16.4400 5.4634 -0.0906
16.4600 5.4700 -0.0998
16.4800 5.4766 -0.0880
16.5000 5.4832 -0.0903
16.5200 5.4899 -0.0993
16.5400 5.4966 -0.0844
16.5600 5.5033 -0.0923
16.5800 5.5100 -0.1048
16.6000 5.5167 -0.0840
16.6200 5.5233 -0.0954
16.6400 5.5299 -0.1002
16.6600 5.5365 -0.0895
16.6800 5.5432 -0.0962
16.7000 5.5499 -0.0982
16.7200 5.5566 -0.0863
16.7400 5.5633 -0.0969
16.7600 5.5699 -0.0943
16.7800 5.5766 -0.0869
16.8000 5.5833 -0.0990
16.8200 5.5899 -0.1016
16.8400 5.5965 -0.0900
16.8600 5.6032 -0.0934
16.8800 5.6099 -0.0998
16.9000 5.6166 -0.0961
16.9200 5.6232 -0.0958
16.9400 5.6299 -0.0986
16.9600 5.6366 -0.0935
16.9800 5.6433 -0.0962
17.0000 5.6499 -0.0972
17.0200 5.6565 -0.0926
17.0400 5.6632 -0.1002
17.0600 5.6699 -0.0970
17.0800 5.6766 -0.0972
17.1000 5.6833 -0.0991
17.1200 5.6900 -0.0999
17.1400 5.6967 -0.0975
17.1600 5.7033 -0.1002
17.1800 5.7099 -0.0956
17.2000 5.7165 -0.0967
17.2200 5.7232 -0.0998
17.2400 5.7299 -0.0948
17.2600 5.7367 -0.0964
17.2800 5.7433 -0.1079
17.3000 5.7500 -0.0938
17.3200 5.7567 -0.0974
17.3400 5.7634 -0.1030
17.3600 5.7700 -0.0970
17.3800 5.7766 -0.1014
17.4000 5.7832 -0.0993
17.4200 5.7898 -0.0992
17.4400 5.7966 -0.1022
17.4600 5.8033 -0.1000
17.4800 5.8100 -0.0953
17.5000 5.8167 -0.1055
17.5200 5.8233 -0.0989
17.5400 5.8299 -0.0975
17.5600 5.8365 -0.1033
17.5800 5.8431 -0.1012
17.6000 5.8498 -0.0993
17.6200 5.8566 -0.1086
17.6400 5.8633 -0.1011
17.6600 5.8699 -0.1009
17.6800 5.8766 -0.1039
17.7000 5.8833 -0.1026
17.7200 5.8899 -0.0994
17.7400 5.8966 -0.1036
17.7600 5.9032 -0.1009
17.7800 5.9099 -0.1026
17.8000 5.9166 -0.1066
17.8200 5.9233 -0.1085
17.8400 5.9300 -0.1035
17.8600 5.9367 -0.1044
17.8800 5.9434 -0.1026
17.9000 5.9500 -0.1052
17.9200 5.9566 -0.1073
17.9400 5.9632 -0.1010
17.9600 5.9699 -0.1039
17.9800 5.9766 -0.1102
18.0000 5.9833 -0.1029
18.0200 5.9900 -0.1070
18.0400 5.9967 -0.1112
18.0600 6.0034 -0.1068
18.0800 6.0100 -0.1085
18.1000 6.0165 -0.1016
18.1200 6.0232 -0.1043
18.1400 6.0299 -0.1072
18.1600 6.0366 -0.1099
18.1800 6.0433 -0.1060
18.2000 6.0500 -0.1083
18.2200 6.0566 -0.1049
18.2400 6.0633 -0.1101
18.2600 6.0699 -0.1105
18.2800 6.0765 -0.1059
18.3000 6.0832 -0.1046
18.3200 6.0899 -0.1092
18.3400 6.0966 -0.1087
18.3600 6.1033 -0.1084
18.3800 6.1099 -0.1090
18.4000 6.1166 -0.1084
18.4200 6.1233 -0.1080
18.4400 6.1300 -0.1073
18.4600 6.1366 -0.1104
18.4800 6.1432 -0.1152
18.5000 6.1499 -0.1019
18.5200 6.1566 -0.1096
18.5400 6.1633 -0.1154
18.5600 6.1700 -0.1056
18.5800 6.1767 -0.1115
18.6000 6.1833 -0.1118
18.6200 6.1900 -0.1085
18.6400 6.1966 -0.1102
18.6600 6.2032 -0.1136
18.6800 6.2099 -0.1053
18.7000 6.2166 -0.1137
18.7200 6.2233 -0.1156
18.7400 6.2300 -0.1058
18.7600 6.2367 -0.1109
18.7800 6.2433 -0.1210
18.8000 6.2500 -0.1075
18.8200 6.2566 -0.1135
18.8400 6.2632 -0.1157
18.8600 6.2699 -0.1061
18.8800 6.2766 -0.1134
18.9000 6.2833 -0.1200
18.9200 6.2899 -0.1036
18.9400 6.2966 -0.1147
18.9600 6.3033 -0.1210
18.9800 6.3099 -0.1084
19.0000 6.3165 -0.1139
19.0200 6.3232 -0.1148
19.0400 6.3298 -0.1114
19.0600 6.3366 -0.1196
19.0800 6.3433 -0.1143
19.1000 6.3500 -0.1088
19.1200 6.3566 -0.1212
19.1400 6.3633 -0.1179
19.1600 6.3699 -0.1110
19.1800 6.3766 -0.1197
19.2000 6.3832 -0.1185
19.2200 6.3899 -0.1112
19.2400 6.3966 -0.1195
19.2600 6.4033 -0.1156
19.2800 6.4100 -0.1202
19.3000 6.4167 -0.1192
19.3200 6.4233 -0.1113
19.3400 6.4300 -0.1207
19.3600 6.4366 -0.1184
19.3800 6.4432 -0.1155
19.4000 6.4498 -0.1188
19.4200 6.4566 -0.1159
19.4400 6.4633 -0.1244
19.4600 6.4700 -0.1138
19.4800 6.4767 -0.1129
19.5000 6.4833 -0.1207
19.5200 6.4900 -0.1180
19.5400 6.4966 -0.1120
19.5600 6.5032 -0.1240
19.5800 6.5098 -0.1191
19.6000 6.5165 -0.1112
19.6200 6.5233 -0.1301
19.6400 6.5300 -0.1194
19.6600 6.5367 -0.1116
19.6800 6.5433 -0.1256
19.7000 6.5500 -0.1177
19.7200 6.5565 -0.1126
19.7400 6.5631 -0.1268
19.7600 6.5698 -0.1168
19.7800 6.5765 -0.1134
19.8000 6.5832 -0.1279
19.8200 6.5899 -0.1187
19.8400 6.5966 -0.1114
19.8600 6.6033 -0.1323
19.8800 6.6099 -0.1115
19.9000 6.6166 -0.1181
19.9200 6.6232 -0.1309
19.9400 6.6299 -0.1089
19.9600 6.6366 -0.1250
19.9800 6.6433 -0.1385
20.0000 6.6500 -0.1091
20.0200 6.6567 -0.1207
20.0400 6.6634 -0.1334
20.0600 6.6700 -0.1141
20.0800 6.6766 -0.1217
20.1000 6.6832 -0.1275
20.1200 6.6899 -0.1116
20.1400 6.6966 -0.1282
20.1600 6.7033 -0.1294
20.1800 6.7100 -0.1115
20.2000 6.7167 -0.1303
20.2200 6.7233 -0.1287
20.2400 6.7300 -0.1127
20.2600 6.7366 -0.1244
20.2800 6.7432 -0.1260
20.3000 6.7498 -0.1172
20.3200 6.7566 -0.1249
20.3400 6.7633 -0.1238
20.3600 6.7699 -0.1213
20.3800 6.7766 -0.1243
20.4000 6.7833 -0.1269
20.4200 6.7899 -0.1223
20.4400 6.7966 -0.1279
20.4600 6.8032 -0.1231
20.4800 6.8098 -0.1204
20.5000 6.8165 -0.1194
20.5200 6.8233 -0.1293
20.5400 6.8299 -0.1209
20.5600 6.8366 -0.1237
20.5800 6.8433 -0.1279
20.6000 6.8500 -0.1243
20.6200 6.8566 -0.1266
20.6400 6.8632 -0.1264
20.6600 6.8699 -0.1271
20.6800 6.8766 -0.1221
20.7000 6.8833 -0.1266
20.7200 6.8900 -0.1247
20.7400 6.8967 -0.1198
20.7600 6.9034 -0.1333
20.7800 6.9100 -0.1281
20.8000 6.9166 -0.1223
20.8200 6.9232 -0.1337
20.8400 6.9299 -0.1247
20.8600 6.9366 -0.1277
20.8800 6.9433 -0.1312
20.9000 6.9500 -0.1257
20.9200 6.9566 -0.1215
20.9400 6.9633 -0.1352
20.9600 6.9700 -0.1266
20.9800 6.9766 -0.1256
21.0000 6.9832 -0.1359
21.0200 6.9899 -0.1251
21.0400 6.9966 -0.1242
21.0600 7.0033 -0.1316
21.0800 7.0099 -0.1242
21.1000 7.0166 -0.1283
21.1200 7.0233 -0.1297
21.1400 7.0300 -0.1316
21.1600 7.0366 -0.1325
21.1800 7.0432 -0.1311
21.2000 7.0498 -0.1247
21.2200 7.0565 -0.1321
21.2400 7.0632 -0.1380
21.2600 7.0699 -0.1277
21.2800 7.0766 -0.1283
21.3000 7.0833 -0.1288
21.3200 7.0899 -0.1312
21.3400 7.0966 -0.1281
21.3600 7.1032 -0.1315
21.3800 7.1099 -0.1289
21.4000 7.1165 -0.1278
21.4200 7.1233 -0.1377
21.4400 7.1299 -0.1327
21.4600 7.1366 -0.1325
21.4800 7.1433 -0.1397
21.5000 7.1500 -0.1289
21.5200 7.1566 -0.1337
21.5400 7.1632 -0.1387
21.5600 7.1699 -0.1317
21.5800 7.1766 -0.1310
21.6000 7.1833 -0.1391
21.6200 7.1900 -0.1310
21.6400 7.1967 -0.1354
21.6600 7.2034 -0.1394
21.6800 7.2100 -0.1302
21.7000 7.2166 -0.1384
21.7200 7.2232 -0.1344
21.7400 7.2298 -0.1313
21.7600 7.2366 -0.1365
21.7800 7.2433 -0.1368
21.8000 7.2500 -0.1356
21.8200 7.2566 -0.1351
21.8400 7.2633 -0.1379
21.8600 7.2700 -0.1375
21.8800 7.2766 -0.1321
21.9000 7.2832 -0.1400
21.9200 7.2898 -0.1304
21.9400 7.2965 -0.1357
21.9600 7.3032 -0.1399
21.9800 7.3099 -0.1385
22.0000 7.3166 -0.1315
22.0200 7.3233 -0.1445
22.0400 7.3300 -0.1392
22.0600 7.3366 -0.1343
22.0800 7.3432 -0.1425
22.1000 7.3499 -0.1358
22.1200 7.3565 -0.1344
22.1400 7.3633 -0.1419
22.1600 7.3700 -0.1333
22.1800 7.3767 -0.1420
22.2000 7.3834 -0.1414
22.2200 7.3900 -0.1338
22.2400 7.3966 -0.1372
22.2600 7.4032 -0.1407
22.2800 7.4099 -0.1338
22.3000 7.4166 -0.1363
22.3200 7.4233 -0.1428
22.3400 7.4300 -0.1345
22.3600 7.4367 -0.1390
22.3800 7.4433 -0.1449
22.4000 7.4500 -0.1368
22.4200 7.4566 -0.1405
22.4400 7.4632 -0.1465
22.4600 7.4699 -0.1318
22.4800 7.4765 -0.1393
22.5000 7.4832 -0.1462
22.5200 7.4899 -0.1362
22.5400 7.4966 -0.1375
22.5600 7.5033 -0.1472
22.5800 7.5100 -0.1372
22.6000 7.5166 -0.1425
22.6200 7.5232 -0.1429
22.6400 7.5298 -0.1414
22.6600 7.5365 -0.1417
22.6800 7.5432 -0.1414
22.7000 7.5500 -0.1359
22.7200 7.5567 -0.1465
22.7400 7.5633 -0.1454
22.7600 7.5700 -0.1342
22.7800 7.5766 -0.1474
22.8000 7.5832 -0.1429
22.8200 7.5899 -0.1374
22.8400 7.5965 -0.1470
22.8600 7.6033 -0.1410
22.8800 7.6100 -0.1339
22.9000 7.6166 -0.1505
22.9200 7.6233 -0.1409
22.9400 7.6300 -0.1360
22.9600 7.6366 -0.1525
22.9800 7.6433 -0.1422
23.0000 7.6499 -0.1330
23.0200 7.6566 -0.1503
23.0400 7.6633 -0.1404
23.0600 7.6700 -0.1391
23.0800 7.6767 -0.1448
23.1000 7.6834 -0.1362
23.1200 7.6900 -0.1434
23.1400 7.6967 -0.1524
23.1600 7.7032 -0.1330
23.1800 7.7099 -0.1451
23.2000 7.7165 -0.1521
23.2200 7.7232 -0.1316
23.2400 7.7299 -0.1490
23.2600 7.7366 -0.1531
23.2800 7.7433 -0.1262
23.3000 7.7500 -0.1522
23.3200 7.7566 -0.1497
23.3400 7.7632 -0.1318
23.3600 7.7698 -0.1557
23.3800 7.7765 -0.1453
23.4000 7.7832 -0.1379
23.4200 7.7899 -0.1497
23.4400 7.7966 -0.1456
23.4600 7.8033 -0.1384
23.4800 7.8099 -0.1511
23.5000 7.8166 -0.1435
23.5200 7.8232 -0.1412
23.5400 7.8299 -0.1526
23.5600 7.8366 -0.1476
23.5800 7.8433 -0.1424
23.6000 7.8500 -0.1562
23.6200 7.8567 -0.1476
23.6400 7.8633 -0.1470
23.6600 7.8700 -0.1495
23.6800 7.8766 -0.1514
23.7000 7.8832 -0.1464
23.7200 7.8899 -0.1480
23.7400 7.8966 -0.1480
23.7600 7.9033 -0.1524
23.7800 7.9100 -0.1461
23.8000 7.9167 -0.1487
23.8200 7.9234 -0.1529
23.8400 7.9300 -0.1510
23.8600 7.9366 -0.1519
23.8800 7.9432 -0.1451
23.9000 7.9499 -0.1544
23.9200 7.9566 -0.1511
23.9400 7.9633 -0.1457
23.9600 7.9700 -0.1575
23.9800 7.9766 -0.1488
24.0000 7.9833 -0.1432
24.0200 7.9900 -0.1602
24.0400 7.9966 -0.1511
24.0600 8.0033 -0.1484
24.0800 8.0099 -0.1516
24.1000 8.0165 -0.1498
24.1200 8.0232 -0.1483
24.1400 8.0299 -0.1592
24.1600 8.0366 -0.1509
24.1800 8.0433 -0.1480
24.2000 8.0499 -0.1575
24.2200 8.0566 -0.1498
24.2400 8.0632 -0.1469
24.2600 8.0698 -0.1597
24.2800 8.0765 -0.1473
24.3000 8.0833 -0.1481
24.3200 8.0900 -0.1647
24.3400 8.0967 -0.1497
24.3600 8.1033 -0.1482
24.3800 8.1100 -0.1629
24.4000 8.1166 -0.1531
24.4200 8.1232 -0.1500
24.4400 8.1299 -0.1594
24.4600 8.1366 -0.1507
24.4800 8.1433 -0.1554
24.5000 8.1500 -0.1561
24.5200 8.1567 -0.1535
24.5400 8.1634 -0.1570
24.5600 8.1700 -0.1576
24.5800 8.1766 -0.1563
24.6000 8.1833 -0.1587
24.6200 8.1899 -0.1528
24.6400 8.1965 -0.1584
24.6600 8.2032 -0.1503
24.6800 8.2099 -0.1562
24.7000 8.2166 -0.1627
24.7200 8.2233 -0.1490
24.7400 8.2300 -0.1521
24.7600 8.2366 -0.1664
24.7800 8.2432 -0.1491
24.8000 8.2498 -0.1575
24.8200 8.2565 -0.1632
24.8400 8.2632 -0.1465
24.8600 8.2699 -0.1640
24.8800 8.2766 -0.1642
24.9000 8.2833 -0.1450
24.9200 8.2900 -0.1652
24.9400 8.2966 -0.1624
24.9600 8.3033 -0.1447
24.9800 8.3099 -0.1688
25.0000 8.3166 -0.1591
25.0200 8.3233 -0.1472
25.0400 8.3300 -0.1681
25.0600 8.3366 -0.1554
25.0800 8.3433 -0.1474
25.1000 8.3500 -0.1739
25.1200 8.3567 -0.1551
25.1400 8.3633 -0.1562
25.1600 8.3699 -0.1673
25.1800 8.3765 -0.1555
25.2000 8.3832 -0.1562
25.2200 8.3899 -0.1667
25.2400 8.3966 -0.1488
25.2600 8.4033 -0.1627
25.2800 8.4100 -0.1653
25.3000 8.4167 -0.1524
25.3200 8.4233 -0.1616
25.3400 8.4299 -0.1683
25.3600 8.4365 -0.1490
25.3800 8.4432 -0.1636
25.4000 8.4500 -0.1656
25.4200 8.4566 -0.1535
25.4400 8.4633 -0.1649
25.4600 8.4700 -0.1616
25.4800 8.4766 -0.1576
25.5000 8.4832 -0.1679
25.5200 8.4898 -0.1580
25.5400 8.4965 -0.1550
25.5600 8.5032 -0.1690
25.5800 8.5099 -0.1571
25.6000 8.5165 -0.1572
25.6200 8.5232 -0.1625
25.6400 8.5299 -0.1619
25.6600 8.5366 -0.1649
25.6800 8.5433 -0.1635
25.7000 8.5499 -0.1551
25.7200 8.5565 -0.1678
25.7400 8.5632 -0.1599
25.7600 8.5699 -0.1605
25.7800 8.5767 -0.1669
25.8000 8.5834 -0.1579
25.8200 8.5901 -0.1622
25.8400 8.5967 -0.1676
25.8600 8.6033 -0.1587
25.8800 8.6099 -0.1654
25.9000 8.6165 -0.1649
25.9200 8.6233 -0.1595
25.9400 8.6300 -0.1688
25.9600 8.6367 -0.1667
25.9800 8.6433 -0.1625
26.0000 8.6500 -0.1731
26.0200 8.6567 -0.1606
26.0400 8.6633 -0.1592
26.0600 8.6699 -0.1764
26.0800 8.6765 -0.1568
26.1000 8.6832 -0.1666
26.1200 8.6899 -0.1757
26.1400 8.6966 -0.1601
26.1600 8.7033 -0.1636
26.1800 8.7100 -0.1760
26.2000 8.7166 -0.1602
26.2200 8.7232 -0.1659
26.2400 8.7298 -0.1697
26.2600 8.7365 -0.1577
26.2800 8.7432 -0.1663
26.3000 8.7499 -0.1706
26.3200 8.7566 -0.1622
26.3400 8.7633 -0.1707
26.3600 8.7700 -0.1696
26.3800 8.7766 -0.1646
26.4000 8.7832 -0.1747
26.4200 8.7899 -0.1690
26.4400 8.7965 -0.1611
26.4600 8.8032 -0.1720
26.4800 8.8100 -0.1664
26.5000 8.8167 -0.1666
26.5200 8.8233 -0.1730
26.5400 8.8300 -0.1694
26.5600 8.8367 -0.1665
26.5800 8.8433 -0.1716
26.6000 8.8499 -0.1667
26.6200 8.8566 -0.1694
26.6400 8.8633 -0.1717
26.6600 8.8700 -0.1725
26.6800 8.8766 -0.1747
26.7000 8.8833 -0.1659
26.7200 8.8900 -0.1740
26.7400 8.8967 -0.1705
26.7600 8.9033 -0.1698
26.7800 8.9099 -0.1688
26.8000 8.9165 -0.1698
26.8200 8.9232 -0.1699
26.8400 8.9299 -0.1752
26.8600 8.9366 -0.1689
26.8800 8.9433 -0.1681
26.9000 8.9500 -0.1738
26.9200 8.9566 -0.1691
26.9400 8.9633 -0.1699
26.9600 8.9698 -0.1747
26.9800 8.9765 -0.1690
27.0000 8.9832 -0.1715
27.0200 8.9899 -0.1770
27.0400 8.9966 -0.1711
27.0600 9.0033 -0.1703
27.0800 9.0099 -0.1760
27.1000 9.0166 -0.1715
27.1200 9.0233 -0.1691
27.1400 9.0299 -0.1719
27.1600 9.0365 -0.1703
27.1800 9.0432 -0.1676
27.2000 9.0499 -0.1689
27.2200 9.0566 -0.1747
27.2400 9.0633 -0.1690
27.2600 9.0700 -0.1737
27.2800 9.0767 -0.1704
27.3000 9.0833 -0.1734
27.3200 9.0899 -0.1726
27.3400 9.0965 -0.1689
27.3600 9.1032 -0.1684
27.3800 9.1099 -0.1750
27.4000 9.1167 -0.1742
27.4200 9.1233 -0.1690
27.4400 9.1300 -0.1741
27.4600 9.1367 -0.1767
27.4800 9.1433 -0.1730
27.5000 9.1499 -0.1719
27.5200 9.1565 -0.1716
27.5400 9.1632 -0.1753
27.5600 9.1700 -0.1737
27.5800 9.1766 -0.1720
27.6000 9.1833 -0.1727
27.6200 9.1900 -0.1728
27.6400 9.1967 -0.1755
27.6600 9.2033 -0.1717
27.6800 9.2099 -0.1745
27.7000 9.2165 -0.1698
27.7200 9.2231 -0.1759
27.7400 9.2299 -0.1722
27.7600 9.2366 -0.1729
27.7800 9.2433 -0.1737
27.8000 9.2500 -0.1774
27.8200 9.2567 -0.1762
27.8400 9.2633 -0.1753
27.8600 9.2699 -0.1736
27.8800 9.2765 -0.1778
27.9000 9.2832 -0.1688
27.9200 9.2899 -0.1797
27.9400 9.2967 -0.1801
27.9600 9.3033 -0.1729
27.9800 9.3100 -0.1796
28.0000 9.3167 -0.1765
28.0200 9.3233 -0.1746
28.0400 9.3299 -0.1798
28.0600 9.3366 -0.1720
28.0800 9.3432 -0.1765
28.1000 9.3500 -0.1833
28.1200 9.3566 -0.1732
28.1400 9.3633 -0.1800
28.1600 9.3700 -0.1804
28.1800 9.3766 -0.1714
28.2000 9.3833 -0.1826
28.2200 9.3899 -0.1825
28.2400 9.3965 -0.1698
28.2600 9.4032 -0.1854
28.2800 9.4099 -0.1801
28.3000 9.4166 -0.1721
28.3200 9.4233 -0.1852
28.3400 9.4300 -0.1795
28.3600 9.4367 -0.1765
28.3800 9.4433 -0.1883
28.4000 9.4499 -0.1760
28.4200 9.4565 -0.1774
28.4400 9.4632 -0.1846
28.4600 9.4699 -0.1773
28.4800 9.4766 -0.1784
28.5000 9.4833 -0.1867
28.5200 9.4900 -0.1685
28.5400 9.4966 -0.1830
28.5600 9.5033 -0.1862
28.5800 9.5099 -0.1748
28.6000 9.5165 -0.1791
28.6200 9.5232 -0.1801
28.6400 9.5299 -0.1726
28.6600 9.5366 -0.1848
28.6800 9.5433 -0.1851
28.7000 9.5500 -0.1732
28.7200 9.5567 -0.1844
28.7400 9.5633 -0.1793
28.7600 9.5699 -0.1777
28.7800 9.5766 -0.1831
28.8000 9.5832 -0.1821
28.8200 9.5899 -0.1748
28.8400 9.5966 -0.1841
28.8600 9.6033 -0.1824
28.8800 9.6100 -0.1805
28.9000 9.6167 -0.1848
28.9200 9.6233 -0.1829
28.9400 9.6299 -0.1777
28.9600 9.6365 -0.1810
28.9800 9.6432 -0.1781
29.0000 9.6499 -0.1808
29.0200 9.6566 -0.1829
29.0400 9.6632 -0.1813
29.0600 9.6699 -0.1779
29.0800 9.6766 -0.1792
29.1000 9.6833 -0.1824
29.1200 9.6899 -0.1833
29.1400 9.6965 -0.1760
29.1600 9.7032 -0.1788
29.1800 9.7099 -0.1829
29.2000 9.7166 -0.1812
29.2200 9.7233 -0.1860
29.2400 9.7299 -0.1796
29.2600 9.7366 -0.1791
29.2800 9.7433 -0.1852
29.3000 9.7499 -0.1852
29.3200 9.7566 -0.1775
29.3400 9.7632 -0.1901
29.3600 9.7699 -0.1801
29.3800 9.7766 -0.1723
29.4000 9.7833 -0.1864
29.4200 9.7900 -0.1817
29.4400 9.7967 -0.1770
29.4600 9.8033 -0.1964
29.4800 9.8099 -0.1761
29.5000 9.8165 -0.1803
29.5200 9.8232 -0.1914
29.5400 9.8299 -0.1784
29.5600 9.8366 -0.1819
29.5800 9.8433 -0.1875
29.6000 9.8500 -0.1799
29.6200 9.8567 -0.1792
29.6400 9.8633 -0.1932
29.6600 9.8699 -0.1790
29.6800 9.8765 -0.1789
29.7000 9.8832 -0.1915
29.7200 9.8899 -0.1791
29.7400 9.8966 -0.1825
29.7600 9.9033 -0.1894
29.7800 9.9100 -0.1763
29.8000 9.9166 -0.1799
29.8200 9.9233 -0.1922
29.8400 9.9299 -0.1815
29.8600 9.9365 -0.1850
29.8800 9.9431 -0.1896
29.9000 9.9498 -0.1788
29.9200 9.9566 -0.1875
29.9400 9.9632 -0.1906
29.9600 9.9699 -0.1836
29.9800 9.9766 -0.1844
30.0000 9.9833 -0.1887
30.0200 9.9899 -0.1798
30.0400 9.9965 -0.1832
30.0600 10.0032 -0.1869
30.0800 10.0099 -0.1858
30.1000 10.0166 -0.1845
30.1200 10.0233 -0.1928
30.1400 10.0300 -0.1803
30.1600 10.0367 -0.1902
30.1800 10.0433 -0.1937
30.2000 10.0500 -0.1837
30.2200 10.0566 -0.1830
30.2400 10.0632 -0.1918
30.2600 10.0699 -0.1851
30.2800 10.0766 -0.1849
30.3000 10.0833 -0.1958
30.3200 10.0900 -0.1806
30.3400 10.0967 -0.1863
30.3600 10.1033 -0.1995
30.3800 10.1099 -0.1815
30.4000 10.1165 -0.1832
30.4200 10.1232 -0.1972
30.4400 10.1299 -0.1791
30.4600 10.1366 -0.1858
30.4800 10.1433 -0.1936
30.5000 10.1500 -0.1833
30.5200 10.1566 -0.1855
30.5400 10.1633 -0.1942
30.5600 10.1699 -0.1800
30.5800 10.1765 -0.1894
30.6000 10.1832 -0.1929
30.6200 10.1899 -0.1832
30.6400 10.1966 -0.1871
30.6600 10.2033 -0.1937
30.6800 10.2100 -0.1821
30.7000 10.2166 -0.1868
30.7200 10.2233 -0.1962
30.7400 10.2300 -0.1875
30.7600 10.2366 -0.1859
30.7800 10.2432 -0.1926
30.8000 10.2499 -0.1870
30.8200 10.2566 -0.1862
30.8400 10.2633 -0.1905
30.8600 10.2700 -0.1861
30.8800 10.2767 -0.1872
30.9000 10.2834 -0.1942
30.9200 10.2900 -0.1904
30.9400 10.2965 -0.1808
30.9600 10.3032 -0.1971
30.9800 10.3099 -0.1900
31.0000 10.3166 -0.1857
31.0200 10.3233 -0.1959
31.0400 10.3300 -0.1931
31.0600 10.3366 -0.1817
31.0800 10.3433 -0.1943
31.1000 10.3499 -0.1858
31.1200 10.3565 -0.1892
31.1400 10.3632 -0.1933
31.1600 10.3699 -0.1849
31.1800 10.3766 -0.1917
31.2000 10.3833 -0.1960
31.2200 10.3899 -0.1844
31.2400 10.3966 -0.1940
31.2600 10.4033 -0.1978
31.2800 10.4099 -0.1848
31.3000 10.4165 -0.1884
31.3200 10.4232 -0.1979
31.3400 10.4299 -0.1839
31.3600 10.4366 -0.1929
31.3800 10.4433 -0.1988
31.4000 10.4499 -0.1789
31.4200 10.4566 -0.1942
31.4400 10.4633 -0.1973
31.4600 10.4700 -0.1863
31.4800 10.4765 -0.1935
31.5000 10.4832 -0.1886
31.5200 10.4899 -0.1840
31.5400 10.4966 -0.1987
31.5600 10.5033 -0.1918
31.5800 10.5100 -0.1890
31.6000 10.5167 -0.1953
31.6200 10.5234 -0.1888
31.6400 10.5300 -0.1885
31.6600 10.5366 -0.2008
31.6800 10.5432 -0.1826
31.7000 10.5499 -0.1884
31.7200 10.5566 -0.1929
31.7400 10.5633 -0.1881
31.7600 10.5700 -0.1909
31.7800 10.5767 -0.1900
31.8000 10.5834 -0.1933
31.8200 10.5900 -0.1957
31.8400 10.5966 -0.1921
31.8600 10.6032 -0.1874
31.8800 10.6099 -0.1969
31.9000 10.6166 -0.1939
31.9200 10.6233 -0.1868
31.9400 10.6300 -0.1893
31.9600 10.6366 -0.1944
31.9800 10.6433 -0.1899
32.0000 10.6499 -0.1887
32.0200 10.6565 -0.1882
32.0400 10.6631 -0.1951
32.0600 10.6698 -0.1886
32.0800 10.6766 -0.1955
32.1000 10.6833 -0.1928
32.1200 10.6900 -0.1919
32.1400 10.6966 -0.1881
32.1600 10.7033 -0.1910
32.1800 10.7099 -0.1902
32.2000 10.7166 -0.1903
32.2200 10.7232 -0.1859
32.2400 10.7299 -0.1912
32.2600 10.7366 -0.1935
32.2800 10.7433 -0.1871
32.3000 10.7500 -0.1879
32.3200 10.7567 -0.1938
32.3400 10.7634 -0.1882
32.3600 10.7700 -0.1907
32.3800 10.7766 -0.1908
32.4000 10.7832 -0.1879
32.4200 10.7899 -0.1934
32.4400 10.7966 -0.1927
32.4600 10.8033 -0.1928
32.4800 10.8100 -0.1913
32.5000 10.8167 -0.1950
32.5200 10.8233 -0.1946
32.5400 10.8299 -0.1922
32.5600 10.8365 -0.1864
32.5800 10.8432 -0.1897
32.6000 10.8499 -0.1912
32.6200 10.8566 -0.1955
32.6400 10.8633 -0.1937
32.6600 10.8700 -0.1937
32.6800 10.8766 -0.1909
32.7000 10.8833 -0.1943
32.7200 10.8899 -0.1950
32.7400 10.8966 -0.1938
32.7600 10.9032 -0.1879
32.7800 10.9099 -0.1923
32.8000 10.9166 -0.1946
32.8200 10.9233 -0.1939
32.8400 10.9299 -0.1954
32.8600 10.9366 -0.1940
32.8800 10.9433 -0.1911
32.9000 10.9500 -0.1987
32.9200 10.9566 -0.1957
32.9400 10.9632 -0.1897
32.9600 10.9699 -0.1968
32.9800 10.9766 -0.1940
33.0000 10.9833 -0.1886
33.0200 10.9900 -0.1996
33.0400 10.9967 -0.1994
33.0600 11.0033 -0.1878
33.0800 11.0100 -0.2047
33.1000 11.0166 -0.1997
33.1200 11.0232 -0.1860
33.1400 11.0299 -0.2016
33.1600 11.0366 -0.2053
33.1800 11.0433 -0.1877
33.2000 11.0500 -0.1995
33.2200 11.0567 -0.1968
33.2400 11.0634 -0.1925
33.2600 11.0700 -0.2039
33.2800 11.0766 -0.1993
33.3000 11.0832 -0.1900
33.3200 11.0899 -0.2037
33.3400 11.0966 -0.2014
33.3600 11.1033 -0.1928
33.3800 11.1099 -0.2031
33.4000 11.1166 -0.2014
33.4200 11.1233 -0.1892
33.4400 11.1300 -0.2050
33.4600 11.1366 -0.2052
33.4800 11.1432 -0.1954
33.5000 11.1499 -0.2017
33.5200 11.1566 -0.2019
33.5400 11.1633 -0.1979
33.5600 11.1700 -0.2009
33.5800 11.1766 -0.2066
33.6000 11.1833 -0.1939
33.6200 11.1900 -0.2008
33.6400 11.1966 -0.1996
33.6600 11.2032 -0.1947
33.6800 11.2099 -0.2029
33.7000 11.2166 -0.2072
33.7200 11.2233 -0.1953
33.7400 11.2300 -0.1978
33.7600 11.2367 -0.2055
33.7800 11.2434 -0.2001
33.8000 11.2500 -0.1965
33.8200 11.2566 -0.2054
33.8400 11.2632 -0.1913
33.8600 11.2698 -0.1971
33.8800 11.2766 -0.2105
33.9000 11.2833 -0.1953
33.9200 11.2900 -0.2002
33.9400 11.2967 -0.2104
33.9600 11.3033 -0.1938
33.9800 11.3100 -0.2037
34.0000 11.3166 -0.2079
34.0200 11.3232 -0.1963
34.0400 11.3298 -0.2003
34.0600 11.3365 -0.2007
34.0800 11.3432 -0.1986
34.1000 11.3499 -0.2022
34.1200 11.3567 -0.2073
34.1400 11.3633 -0.1932
34.1600 11.3700 -0.2076
34.1800 11.3766 -0.2067
34.2000 11.3832 -0.1933
34.2200 11.3898 -0.2036
34.2400 11.3965 -0.2085
34.2600 11.4033 -0.1938
34.2800 11.4100 -0.2009
34.3000 11.4166 -0.2068
34.3200 11.4233 -0.1965
34.3400 11.4299 -0.2060
34.3600 11.4366 -0.2103
34.3800 11.4432 -0.1923
34.4000 11.4499 -0.2083
34.4200 11.4566 -0.2098
34.4400 11.4633 -0.1954
34.4600 11.4700 -0.2037
34.4800 11.4767 -0.2073
34.5000 11.4834 -0.1974
34.5200 11.4900 -0.2096
34.5400 11.4966 -0.2099
34.5600 11.5032 -0.2000
34.5800 11.5099 -0.2099
34.6000 11.5166 -0.2063
34.6200 11.5233 -0.2007
34.6400 11.5300 -0.2040
34.6600 11.5367 -0.2085
34.6800 11.5433 -0.2010
34.7000 11.5500 -0.2052
34.7200 11.5566 -0.2100
34.7400 11.5632 -0.2016
34.7600 11.5698 -0.2008
34.7800 11.5766 -0.2149
34.8000 11.5833 -0.2003
34.8200 11.5899 -0.2071
34.8400 11.5966 -0.2092
34.8600 11.6033 -0.2008
34.8800 11.6099 -0.2051
34.9000 11.6165 -0.2120
34.9200 11.6232 -0.1951
34.9400 11.6298 -0.2044
34.9600 11.6365 -0.2145
34.9800 11.6433 -0.1995
35.0000 11.6499 -0.2078
35.0200 11.6566 -0.2131
35.0400 11.6633 -0.1992
35.0600 11.6700 -0.2098
35.0800 11.6766 -0.2110
35.1000 11.6832 -0.1973
35.1200 11.6899 -0.2085
35.1400 11.6966 -0.2112
35.1600 11.7033 -0.2027
35.1800 11.7100 -0.2121
35.2000 11.7167 -0.2126
35.2200 11.7233 -0.1975
35.2400 11.7300 -0.2168
35.2600 11.7366 -0.2113
35.2800 11.7432 -0.1968
35.3000 11.7499 -0.2082
35.3200 11.7566 -0.2110
35.3400 11.7633 -0.2001
35.3600 11.7700 -0.2135
35.3800 11.7767 -0.2125
35.4000 11.7833 -0.2031
35.4200 11.7900 -0.2091
35.4400 11.7966 -0.2129
35.4600 11.8033 -0.1999
35.4800 11.8099 -0.2080
35.5000 11.8166 -0.2108
35.5200 11.8233 -0.2081
35.5400 11.8299 -0.2139
35.5600 11.8366 -0.2131
35.5800 11.8433 -0.2104
35.6000 11.8500 -0.2128
35.6200 11.8566 -0.2126
35.6400 11.8632 -0.2092
35.6600 11.8698 -0.2089
35.6800 11.8765 -0.2068
35.7000 11.8832 -0.2141
35.7200 11.8899 -0.2107
35.7400 11.8966 -0.2089
35.7600 11.9033 -0.2138
35.7800 11.9099 -0.2085
35.8000 11.9166 -0.2109
35.8200 11.9232 -0.2134
35.8400 11.9299 -0.2050
35.8600 11.9366 -0.2115
35.8800 11.9433 -0.2130
35.9000 11.9499 -0.2092
35.9200 11.9566 -0.2099
35.9400 11.9633 -0.2185
35.9600 11.9700 -0.2107
35.9800 11.9766 -0.2083
36.0000 11.9833 -0.2191
36.0200 11.9899 -0.2127
36.0400 11.9966 -0.2063
36.0600 12.0033 -0.2189
36.0800 12.0100 -0.2115
36.1000 12.0167 -0.2087
36.1200 12.0234 -0.2195
36.1400 12.0300 -0.2152
36.1600 12.0366 -0.2113
36.1800 12.0432 -0.2142
36.2000 12.0498 -0.2104
36.2200 12.0566 -0.2065
36.2400 12.0633 -0.2204
36.2600 12.0700 -0.2099
36.2800 12.0766 -0.2108
36.3000 12.0833 -0.2129
36.3200 12.0900 -0.2138
36.3400 12.0966 -0.2117
36.3600 12.1032 -0.2158
36.3800 12.1098 -0.2111
36.4000 12.1165 -0.2107
36.4200 12.1232 -0.2144
36.4400 12.1299 -0.2106
36.4600 12.1366 -0.2100
36.4800 12.1433 -0.2146
36.5000 12.1500 -0.2079
36.5200 12.1566 -0.2115
36.5400 12.1632 -0.2184
36.5600 12.1699 -0.2097
36.5800 12.1766 -0.2086
36.6000 12.1833 -0.2189
36.6200 12.1900 -0.2063
36.6400 12.1967 -0.2123
36.6600 12.2034 -0.2203
36.6800 12.2100 -0.2081
36.7000 12.2166 -0.2139
36.7200 12.2232 -0.2190
36.7400 12.2299 -0.2048
36.7600 12.2366 -0.2153
36.7800 12.2433 -0.2245
36.8000 12.2500 -0.2067
36.8200 12.2567 -0.2178
36.8400 12.2633 -0.2176
36.8600 12.2700 -0.2060
36.8800 12.2766 -0.2139
36.9000 12.2832 -0.2154
36.9200 12.2899 -0.2076
36.9400 12.2965 -0.2118
36.9600 12.3032 -0.2164
36.9800 12.3099 -0.2133
37.0000 12.3166 -0.2147
37.0200 12.3233 -0.2180
37.0400 12.3300 -0.2154
37.0600 12.3366 -0.2190
37.0800 12.3432 -0.2156
37.1000 12.3498 -0.2146
37.1200 12.3565 -0.2126
37.1400 12.3632 -0.2177
37.1600 12.3699 -0.2176
37.1800 12.3766 -0.2107
37.2000 12.3833 -0.2226
37.2200 12.3900 -0.2173
37.2400 12.3966 -0.2150
37.2600 12.4032 -0.2194
37.2800 12.4099 -0.2182
37.3000 12.4165 -0.2081
37.3200 12.4233 -0.2202
37.3400 12.4300 -0.2236
37.3600 12.4366 -0.2109
37.3800 12.4433 -0.2193
37.4000 12.4500 -0.2225
37.4200 12.4567 -0.2097
37.4400 12.4633 -0.2247
37.4600 12.4699 -0.2198
37.4800 12.4766 -0.2120
37.5000 12.4832 -0.2165
37.5200 12.4899 -0.2179
37.5400 12.4966 -0.2128
37.5600 12.5033 -0.2223
37.5800 12.5100 -0.2192
37.6000 12.5167 -0.2128
37.6200 12.5233 -0.2209
37.6400 12.5299 -0.2222
37.6600 12.5365 -0.2140
37.6800 12.5432 -0.2219
37.7000 12.5499 -0.2163
37.7200 12.5566 -0.2099
37.7400 12.5633 -0.2213
37.7600 12.5700 -0.2206
37.7800 12.5766 -0.2159
37.8000 12.5832 -0.2224
37.8200 12.5898 -0.2228
37.8400 12.5965 -0.2076
37.8600 12.6032 -0.2224
37.8800 12.6099 -0.2281
37.9000 12.6166 -0.2128
37.9200 12.6233 -0.2197
37.9400 12.6300 -0.2286
37.9600 12.6366 -0.2127
37.9800 12.6432 -0.2230
38.0000 12.6499 -0.2281
38.0200 12.6565 -0.2131
38.0400 12.6633 -0.2234
38.0600 12.6700 -0.2293
38.0800 12.6767 -0.2112
38.1000 12.6833 -0.2280
38.1200 12.6900 -0.2268
38.1400 12.6967 -0.2098
38.1600 12.7033 -0.2241
38.1800 12.7099 -0.2325
38.2000 12.7165 -0.2157
38.2200 12.7232 -0.2246
38.2400 12.7300 -0.2290
38.2600 12.7367 -0.2186
38.2800 12.7433 -0.2304
38.3000 12.7500 -0.2282
38.3200 12.7566 -0.2167
38.3400 12.7632 -0.2307
38.3600 12.7698 -0.2226
38.3800 12.7765 -0.2139
38.4000 12.7833 -0.2364
38.4200 12.7900 -0.2250
38.4400 12.7966 -0.2221
38.4600 12.8033 -0.2302
38.4800 12.8100 -0.2233
38.5000 12.8166 -0.2241
38.5200 12.8233 -0.2311
38.5400 12.8299 -0.2194
38.5600 12.8365 -0.2214
38.5800 12.8432 -0.2319
38.6000 12.8499 -0.2236
38.6200 12.8566 -0.2237
38.6400 12.8632 -0.2318
38.6600 12.8699 -0.2170
38.6800 12.8766 -0.2304
38.7000 12.8832 -0.2304
38.7200 12.8898 -0.2167
38.7400 12.8965 -0.2279
38.7600 12.9032 -0.2283
38.7800 12.9100 -0.2214
38.8000 12.9167 -0.2280
38.8200 12.9233 -0.2242
38.8400 12.9300 -0.2284
38.8600 12.9367 -0.2272
38.8800 12.9432 -0.2200
38.9000 12.9499 -0.2316
38.9200 12.9565 -0.2228
38.9400 12.9633 -0.2229
38.9600 12.9700 -0.2318
38.9800 12.9767 -0.2232
39.0000 12.9833 -0.2216
39.0200 12.9900 -0.2331
39.0400 12.9967 -0.2211
39.0600 13.0033 -0.2273
39.0800 13.0099 -0.2329
39.1000 13.0165 -0.2218
39.1200 13.0232 -0.2256
39.1400 13.0299 -0.2314
39.1600 13.0366 -0.2205
39.1800 13.0433 -0.2247
39.2000 13.0500 -0.2312
39.2200 13.0566 -0.2209
39.2400 13.0632 -0.2288
39.2600 13.0698 -0.2303
39.2800 13.0765 -0.2220
39.3000 13.0832 -0.2276
39.3200 13.0899 -0.2308
39.3400 13.0966 -0.2240
39.3600 13.1033 -0.2251
39.3800 13.1100 -0.2257
39.4000 13.1166 -0.2282
39.4200 13.1233 -0.2258
39.4400 13.1299 -0.2297
39.4600 13.1366 -0.2235
39.4800 13.1433 -0.2289
39.5000 13.1500 -0.2292
39.5200 13.1566 -0.2264
39.5400 13.1633 -0.2267
39.5600 13.1700 -0.2309
39.5800 13.1767 -0.2259
39.6000 13.1833 -0.2241
39.6200 13.1899 -0.2305
39.6400 13.1965 -0.2313
39.6600 13.2032 -0.2208
39.6800 13.2099 -0.2311
39.7000 13.2166 -0.2251
39.7200 13.2233 -0.2230
39.7400 13.2300 -0.2333
39.7600 13.2366 -0.2291
39.7800 13.2432 -0.2206
39.8000 13.2498 -0.2273
39.8200 13.2565 -0.2302
39.8400 13.2633 -0.2203
39.8600 13.2700 -0.2325
39.8800 13.2767 -0.2314
39.9000 13.2834 -0.2219
39.9200 13.2900 -0.2319
39.9400 13.2966 -0.2304
39.9600 13.3032 -0.2230
39.9800 13.3098 -0.2313
40.0000 13.3165 -0.2245
40.0200 13.3232 -0.2271
40.0400 13.3299 -0.2364
40.0600 13.3366 -0.2272
40.0800 13.3432 -0.2205
40.1000 13.3499 -0.2342
40.1200 13.3566 -0.2257
40.1400 13.3633 -0.2309
40.1600 13.3699 -0.2283
40.1800 13.3765 -0.2268
40.2000 13.3832 -0.2261
40.2200 13.3899 -0.2275
40.2400 13.3967 -0.2275
40.2600 13.4034 -0.2334
40.2800 13.4101 -0.2277
40.3000 13.4167 -0.2305
40.3200 13.4233 -0.2320
40.3400 13.4299 -0.2246
40.3600 13.4365 -0.2330
40.3800 13.4432 -0.2295
40.4000 13.4500 -0.2235
40.4200 13.4567 -0.2346
40.4400 13.4633 -0.2288
40.4600 13.4700 -0.2274
40.4800 13.4767 -0.2371
40.5000 13.4833 -0.2286
40.5200 13.4899 -0.2293
40.5400 13.4965 -0.2374
40.5600 13.5032 -0.2297
40.5800 13.5099 -0.2270
40.6000 13.5165 -0.2421
40.6200 13.5232 -0.2234
40.6400 13.5299 -0.2287
40.6600 13.5367 -0.2430
40.6800 13.5433 -0.2267
40.7000 13.5499 -0.2287
40.7200 13.5565 -0.2440
40.7400 13.5632 -0.2233
40.7600 13.5699 -0.2324
40.7800 13.5766 -0.2425
40.8000 13.5833 -0.2247
40.8200 13.5900 -0.2300
40.8400 13.5966 -0.2407
40.8600 13.6033 -0.2280
40.8800 13.6099 -0.2366
40.9000 13.6165 -0.2385
40.9200 13.6232 -0.2270
40.9400 13.6300 -0.2395
40.9600 13.6367 -0.2402
40.9800 13.6433 -0.2314
41.0000 13.6500 -0.2347
41.0200 13.6567 -0.2381
41.0400 13.6633 -0.2301
41.0600 13.6699 -0.2344
41.0800 13.6766 -0.2370
41.1000 13.6833 -0.2318
41.1200 13.6899 -0.2359
41.1400 13.6966 -0.2409
41.1600 13.7033 -0.2288
41.1800 13.7100 -0.2360
41.2000 13.7167 -0.2389
41.2200 13.7233 -0.2341
41.2400 13.7299 -0.2301
41.2600 13.7365 -0.2367
41.2800 13.7432 -0.2313
41.3000 13.7499 -0.2330
41.3200 13.7566 -0.2391
41.3400 13.7633 -0.2336
41.3600 13.7700 -0.2320
41.3800 13.7766 -0.2400
41.4000 13.7832 -0.2362
41.4200 13.7898 -0.2273
41.4400 13.7965 -0.2394
41.4600 13.8032 -0.2375
41.4800 13.8099 -0.2288
41.5000 13.8166 -0.2451
41.5200 13.8233 -0.2358
41.5400 13.8299 -0.2274
41.5600 13.8366 -0.2474
41.5800 13.8432 -0.2338
41.6000 13.8499 -0.2304
41.6200 13.8566 -0.2464
41.6400 13.8632 -0.2312
41.6600 13.8699 -0.2270
41.6800 13.8766 -0.2501
41.7000 13.8833 -0.2340
41.7200 13.8900 -0.2302
41.7400 13.8967 -0.2466
41.7600 13.9033 -0.2358
41.7800 13.9099 -0.2328
41.8000 13.9165 -0.2422
41.8200 13.9232 -0.2295
41.8400 13.9299 -0.2384
41.8600 13.9367 -0.2407
41.8800 13.9433 -0.2326
41.9000 13.9500 -0.2378
41.9200 13.9567 -0.2428
41.9400 13.9633 -0.2363
41.9600 13.9699 -0.2336
41.9800 13.9765 -0.2424
42.0000 13.9832 -0.2411
42.0200 13.9899 -0.2339
42.0400 13.9966 -0.2429
42.0600 14.0033 -0.2451
42.0800 14.0100 -0.2341
42.1000 14.0167 -0.2413
42.1200 14.0233 -0.2439
42.1400 14.0299 -0.2355
42.1600 14.0365 -0.2423
42.1800 14.0432 -0.2444
42.2000 14.0499 -0.2329
42.2200 14.0566 -0.2478
42.2400 14.0632 -0.2412
42.2600 14.0699 -0.2345
42.2800 14.0767 -0.2456
42.3000 14.0833 -0.2455
42.3200 14.0899 -0.2341
42.3400 14.0965 -0.2495
42.3600 14.1032 -0.2446
42.3800 14.1099 -0.2336
42.4000 14.1166 -0.2527
42.4200 14.1233 -0.2461
42.4400 14.1300 -0.2324
42.4600 14.1367 -0.2558
42.4800 14.1433 -0.2481
42.5000 14.1499 -0.2333
42.5200 14.1566 -0.2550
42.5400 14.1633 -0.2471
42.5600 14.1700 -0.2349
42.5800 14.1766 -0.2592
42.6000 14.1833 -0.2441
42.6200 14.1900 -0.2340
42.6400 14.1967 -0.2624
42.6600 14.2033 -0.2424
42.6800 14.2099 -0.2381
42.7000 14.2165 -0.2542
42.7200 14.2232 -0.2446
42.7400 14.2299 -0.2389
42.7600 14.2366 -0.2586
42.7800 14.2433 -0.2449
42.8000 14.2500 -0.2494
42.8200 14.2567 -0.2551
42.8400 14.2633 -0.2465
42.8600 14.2699 -0.2481
42.8800 14.2765 -0.2536
42.9000 14.2832 -0.2427
42.9200 14.2899 -0.2472
42.9400 14.2966 -0.2534
42.9600 14.3033 -0.2533
42.9800 14.3100 -0.2484
43.0000 14.3166 -0.2531
43.0200 14.3233 -0.2524
43.0400 14.3299 -0.2487
43.0600 14.3365 -0.2491
43.0800 14.3432 -0.2522
43.1000 14.3499 -0.2476
43.1200 14.3566 -0.2526
43.1400 14.3633 -0.2517
43.1600 14.3699 -0.2490
43.1800 14.3766 -0.2538
43.2000 14.3833 -0.2546
43.2200 14.3900 -0.2498
43.2400 14.3966 -0.2518
43.2600 14.4032 -0.2570
43.2800 14.4099 -0.2424
43.3000 14.4166 -0.2541
43.3200 14.4233 -0.2561
43.3400 14.4300 -0.2501
43.3600 14.4367 -0.2560
43.3800 14.4434 -0.2603
43.4000 14.4499 -0.2472
43.4200 14.4565 -0.2534
43.4400 14.4632 -0.2570
43.4600 14.4699 -0.2490
43.4800 14.4766 -0.2561
43.5000 14.4833 -0.2581
43.5200 14.4899 -0.2486
43.5400 14.4966 -0.2563
43.5600 14.5033 -0.2574
43.5800 14.5099 -0.2533
43.6000 14.5165 -0.2548
43.6200 14.5232 -0.2552
43.6400 14.5299 -0.2524
43.6600 14.5366 -0.2563
43.6800 14.5432 -0.2574
43.7000 14.5499 -0.2492
43.7200 14.5566 -0.2585
43.7400 14.5633 -0.2584
43.7600 14.5699 -0.2546
43.7800 14.5766 -0.2539
43.8000 14.5832 -0.2570
43.8200 14.5899 -0.2533
43.8400 14.5966 -0.2514
43.8600 14.6033 -0.2634
43.8800 14.6100 -0.2576
43.9000 14.6167 -0.2473
43.9200 14.6233 -0.2617
43.9400 14.6299 -0.2507
43.9600 14.6365 -0.2523
43.9800 14.6432 -0.2616
44.0000 14.6499 -0.2581
44.0200 14.6566 -0.2476
44.0400 14.6633 -0.2617
44.0600 14.6700 -0.2615
44.0800 14.6767 -0.2476
44.1000 14.6833 -0.2637
44.1200 14.6899 -0.2550
44.1400 14.6965 -0.2476
44.1600 14.7032 -0.2649
44.1800 14.7099 -0.2552
44.2000 14.7166 -0.2484
44.2200 14.7233 -0.2710
44.2400 14.7300 -0.2575
44.2600 14.7367 -0.2485
44.2800 14.7433 -0.2706
44.3000 14.7499 -0.2558
44.3200 14.7565 -0.2463
44.3400 14.7631 -0.2661
44.3600 14.7698 -0.2528
44.3800 14.7766 -0.2560
44.4000 14.7833 -0.2687
44.4200 14.7899 -0.2532
44.4400 14.7966 -0.2498
44.4600 14.8033 -0.2744
44.4800 14.8099 -0.2536
44.5000 14.8165 -0.2504
44.5200 14.8232 -0.2662
44.5400 14.8299 -0.2556
44.5600 14.8366 -0.2509
44.5800 14.8433 -0.2696
44.6000 14.8500 -0.2579
44.6200 14.8567 -0.2525
44.6400 14.8633 -0.2668
44.6600 14.8700 -0.2583
44.6800 14.8766 -0.2519
44.7000 14.8833 -0.2651
44.7200 14.8899 -0.2587
44.7400 14.8966 -0.2528
44.7600 14.9033 -0.2647
44.7800 14.9100 -0.2555
44.8000 14.9167 -0.2523
44.8200 14.9234 -0.2667
44.8400 14.9300 -0.2600
44.8600 14.9366 -0.2525
44.8800 14.9432 -0.2651
44.9000 14.9498 -0.2560
44.9200 14.9566 -0.2550
44.9400 14.9633 -0.2660
44.9600 14.9699 -0.2551
44.9800 14.9766 -0.2495
45.0000 14.9833 -0.2651
45.0200 14.9899 -0.2620
45.0400 14.9965 -0.2504
45.0600 15.0032 -0.2612
45.0800 15.0099 -0.2658
45.1000 15.0166 -0.2505
45.1200 15.0233 -0.2602
45.1400 15.0300 -0.2579
45.1600 15.0366 -0.2494
45.1800 15.0433 -0.2600
45.2000 15.0500 -0.2605
45.2200 15.0566 -0.2508
45.2400 15.0633 -0.2621
45.2600 15.0699 -0.2643
45.2800 15.0766 -0.2470
45.3000 15.0833 -0.2623
45.3200 15.0900 -0.2653
45.3400 15.0967 -0.2457
45.3600 15.1034 -0.2593
45.3800 15.1100 -0.2658
45.4000 15.1166 -0.2455
45.4200 15.1232 -0.2622
45.4400 15.1299 -0.2627
45.4600 15.1366 -0.2492
45.4800 15.1433 -0.2630
45.5000 15.1500 -0.2630
45.5200 15.1567 -0.2461
45.5400 15.1633 -0.2661
45.5600 15.1699 -0.2592
45.5800 15.1765 -0.2470
45.6000 15.1832 -0.2618
45.6200 15.1899 -0.2628
45.6400 15.1966 -0.2531
45.6600 15.2033 -0.2647
45.6800 15.2100 -0.2617
45.7000 15.2166 -0.2558
45.7200 15.2233 -0.2637
45.7400 15.2299 -0.2613
45.7600 15.2366 -0.2513
45.7800 15.2432 -0.2604
45.8000 15.2499 -0.2616
45.8200 15.2566 -0.2581
45.8400 15.2632 -0.2650
45.8600 15.2699 -0.2616
45.8800 15.2766 -0.2586
45.9000 15.2833 -0.2616
45.9200 15.2900 -0.2688
45.9400 15.2966 -0.2585
45.9600 15.3032 -0.2637
45.9800 15.3099 -0.2651
46.0000 15.3166 -0.2570
46.0200 15.3233 -0.2605
46.0400 15.3300 -0.2701
46.0600 15.3367 -0.2614
46.0800 15.3433 -0.2603
46.1000 15.3500 -0.2655
46.1200 15.3566 -0.2628
46.1400 15.3632 -0.2585
46.1600 15.3699 -0.2709
46.1800 15.3766 -0.2621
46.2000 15.3833 -0.2613
46.2200 15.3900 -0.2645
46.2400 15.3967 -0.2625
46.2600 15.4033 -0.2642
46.2800 15.4100 -0.2650
46.3000 15.4166 -0.2657
46.3200 15.4232 -0.2609
46.3400 15.4299 -0.2658
46.3600 15.4366 -0.2691
46.3800 15.4433 -0.2604
46.4000 15.4499 -0.2687
46.4200 15.4566 -0.2658
46.4400 15.4633 -0.2608
46.4600 15.4700 -0.2762
46.4800 15.4765 -0.2676
46.5000 15.4831 -0.2606
46.5200 15.4898 -0.2707
46.5400 15.4965 -0.2710
46.5600 15.5033 -0.2598
46.5800 15.5099 -0.2713
46.6000 15.5166 -0.2676
46.6200 15.5233 -0.2619
46.6400 15.5300 -0.2745
46.6600 15.5366 -0.2719
46.6800 15.5432 -0.2607
46.7000 15.5499 -0.2747
46.7200 15.5566 -0.2675
46.7400 15.5633 -0.2619
46.7600 15.5700 -0.2762
46.7800 15.5767 -0.2720
46.8000 15.5834 -0.2623
46.8200 15.5900 -0.2770
46.8400 15.5966 -0.2692
46.8600 15.6032 -0.2610
46.8800 15.6099 -0.2773
46.9000 15.6166 -0.2733
46.9200 15.6233 -0.2655
46.9400 15.6300 -0.2752
46.9600 15.6367 -0.2751
46.9800 15.6433 -0.2622
47.0000 15.6500 -0.2772
47.0200 15.6565 -0.2725
47.0400 15.6632 -0.2613
47.0600 15.6699 -0.2745
47.0800 15.6766 -0.2713
47.1000 15.6833 -0.2673
47.1200 15.6900 -0.2827
47.1400 15.6966 -0.2689
47.1600 15.7033 -0.2692
47.1800 15.7100 -0.2754
47.2000 15.7166 -0.2749
47.2200 15.7232 -0.2635
47.2400 15.7299 -0.2750
47.2600 15.7366 -0.2724
47.2800 15.7433 -0.2696
47.3000 15.7500 -0.2770
47.3200 15.7566 -0.2708
47.3400 15.7633 -0.2685
47.3600 15.7700 -0.2781
47.3800 15.7766 -0.2704
47.4000 15.7832 -0.2679
47.4200 15.7899 -0.2771
47.4400 15.7966 -0.2737
47.4600 15.8033 -0.2695
47.4800 15.8100 -0.2764
47.5000 15.8167 -0.2730
47.5200 15.8233 -0.2691
47.5400 15.8300 -0.2812
47.5600 15.8366 -0.2731
47.5800 15.8432 -0.2687
47.6000 15.8498 -0.2723
47.6200 15.8566 -0.2765
47.6400 15.8633 -0.2762
47.6600 15.8700 -0.2732
47.6800 15.8767 -0.2806
47.7000 15.8834 -0.2761
47.7200 15.8900 -0.2714
47.7400 15.8966 -0.2829
47.7600 15.9032 -0.2745
47.7800 15.9099 -0.2722
47.8000 15.9166 -0.2781
47.8200 15.9233 -0.2779
47.8400 15.9299 -0.2664
47.8600 15.9366 -0.2849
47.8800 15.9433 -0.2763
47.9000 15.9500 -0.2661
47.9200 15.9566 -0.2870
47.9400 15.9632 -0.2722
47.9600 15.9698 -0.2649
47.9800 15.9765 -0.2913
48.0000 15.9832 -0.2755
48.0200 15.9899 -0.2661
48.0400 15.9966 -0.2879
48.0600 16.0033 -0.2704
48.0800 16.0100 -0.2737
48.1000 16.0166 -0.2908
48.1200 16.0232 -0.2691
48.1400 16.0299 -0.2720
48.1600 16.0366 -0.2933
48.1800 16.0433 -0.2664
48.2000 16.0500 -0.2762
48.2200 16.0567 -0.2892
48.2400 16.0633 -0.2707
48.2600 16.0700 -0.2702
48.2800 16.0766 -0.2907
48.3000 16.0832 -0.2726
48.3200 16.0898 -0.2716
48.3400 16.0965 -0.2887
48.3600 16.1033 -0.2745
48.3800 16.1100 -0.2708
48.4000 16.1167 -0.2881
48.4200 16.1234 -0.2738
48.4400 16.1300 -0.2733
48.4600 16.1366 -0.2829
48.4800 16.1432 -0.2783
48.5000 16.1498 -0.2705
48.5200 16.1565 -0.2843
48.5400 16.1632 -0.2781
48.5600 16.1700 -0.2696
48.5800 16.1767 -0.2923
48.6000 16.1833 -0.2753
48.6200 16.1900 -0.2672
48.6400 16.1966 -0.2889
48.6600 16.2032 -0.2725
48.6800 16.2098 -0.2683
48.7000 16.2165 -0.2895
48.7200 16.2233 -0.2737
48.7400 16.2300 -0.2728
48.7600 16.2366 -0.2930
48.7800 16.2433 -0.2725
48.8000 16.2500 -0.2709
48.8200 16.2566 -0.2941
48.8400 16.2632 -0.2681
48.8600 16.2699 -0.2757
48.8800 16.2766 -0.2914
48.9000 16.2833 -0.2731
48.9200 16.2900 -0.2774
48.9400 16.2967 -0.2910
48.9600 16.3034 -0.2732
48.9800 16.3100 -0.2792
49.0000 16.3166 -0.2918
49.0200 16.3232 -0.2718
49.0400 16.3299 -0.2756
49.0600 16.3366 -0.2892
49.0800 16.3433 -0.2729
49.1000 16.3500 -0.2818
49.1200 16.3567 -0.2923
49.1400 16.3633 -0.2709
49.1600 16.3700 -0.2844
49.1800 16.3766 -0.2932
49.2000 16.3832 -0.2788
49.2200 16.3898 -0.2775
49.2400 16.3965 -0.2867
49.2600 16.4032 -0.2783
49.2800 16.4099 -0.2821
49.3000 16.4166 -0.2880
49.3200 16.4233 -0.2822
49.3400 16.4300 -0.2824
49.3600 16.4366 -0.2871
49.3800 16.4432 -0.2795
49.4000 16.4498 -0.2801
49.4200 16.4565 -0.2872
49.4400 16.4632 -0.2843
49.4600 16.4699 -0.2715
49.4800 16.4766 -0.2905
49.5000 16.4833 -0.2901
49.5200 16.4900 -0.2761
49.5400 16.4966 -0.2941
49.5600 16.5033 -0.2871
49.5800 16.5099 -0.2719
49.6000 16.5166 -0.2947
49.6200 16.5233 -0.2814
49.6400 16.5300 -0.2754
49.6600 16.5367 -0.2968
49.6800 16.5433 -0.2821
49.7000 16.5500 -0.2767
49.7200 16.5566 -0.2880
49.7400 16.5632 -0.2874
49.7600 16.5699 -0.2783
49.7800 16.5766 -0.2907
49.8000 16.5833 -0.2855
49.8200 16.5900 -0.2853
49.8400 16.5966 -0.2863
49.8600 16.6033 -0.2863
49.8800 16.6100 -0.2832
49.9000 16.6167 -0.2895
49.9200 16.6233 -0.2881
49.9400 16.6299 -0.2892
49.9600 16.6366 -0.2839
49.9800 16.6433 -0.2892
50.0000 16.6500 -0.2876
50.0200 16.6566 -0.2875
50.0400 16.6633 -0.2862
50.0600 16.6700 -0.2929
50.0800 16.6766 -0.2860
50.1000 16.6832 -0.2904
50.1200 16.6898 -0.2892
50.1400 16.6965 -0.2876
50.1600 16.7032 -0.2947
50.1800 16.7099 -0.2856
50.2000 16.7166 -0.2913
50.2200 16.7233 -0.2961
50.2400 16.7300 -0.2845
50.2600 16.7366 -0.2892
50.2800 16.7432 -0.2904
50.3000 16.7498 -0.2800
50.3200 16.7565 -0.2955
50.3400 16.7632 -0.2947
50.3600 16.7700 -0.2840
50.3800 16.7766 -0.2938
50.4000 16.7833 -0.2979
50.4200 16.7900 -0.2846
50.4400 16.7966 -0.3006
50.4600 16.8032 -0.2908
50.4800 16.8099 -0.2843
50.5000 16.8166 -0.2959
50.5200 16.8233 -0.2936
50.5400 16.8300 -0.2865
50.5600 16.8367 -0.2981
50.5800 16.8433 -0.2938
50.6000 16.8500 -0.2878
50.6200 16.8566 -0.2984
50.6400 16.8632 -0.2959
50.6600 16.8699 -0.2869
50.6800 16.8765 -0.2974
50.7000 16.8833 -0.2929
50.7200 16.8900 -0.2936
50.7400 16.8966 -0.2962
50.7600 16.9033 -0.2909
50.7800 16.9100 -0.2975
50.8000 16.9166 -0.2953
50.8200 16.9232 -0.2904
50.8400 16.9298 -0.2928
50.8600 16.9365 -0.2895
50.8800 16.9432 -0.2905
50.9000 16.9499 -0.3018
50.9200 16.9566 -0.2904
50.9400 16.9633 -0.2945
50.9600 16.9699 -0.2990
50.9800 16.9766 -0.2911
51.0000 16.9832 -0.2988
51.0200 16.9898 -0.3010
51.0400 16.9965 -0.2833
51.0600 17.0032 -0.3032
51.0800 17.0100 -0.2966
51.1000 17.0167 -0.2870
51.1200 17.0233 -0.3046
51.1400 17.0300 -0.3007
51.1600 17.0366 -0.2867
51.1800 17.0432 -0.3053
51.2000 17.0499 -0.2924
51.2200 17.0566 -0.2910
51.2400 17.0633 -0.3095
51.2600 17.0700 -0.2928
51.2800 17.0766 -0.2912
51.3000 17.0833 -0.3065
51.3200 17.0900 -0.2959
51.3400 17.0966 -0.2886
51.3600 17.1032 -0.3080
51.3800 17.1099 -0.2977
51.4000 17.1166 -0.2939
51.4200 17.1232 -0.3032
51.4400 17.1299 -0.3004
51.4600 17.1366 -0.2913
51.4800 17.1433 -0.3040
51.5000 17.1500 -0.2997
51.5200 17.1566 -0.2981
51.5400 17.1632 -0.3039
51.5600 17.1698 -0.3030
51.5800 17.1765 -0.2924
51.6000 17.1832 -0.3023
51.6200 17.1899 -0.3080
51.6400 17.1966 -0.2934
51.6600 17.2033 -0.3019
51.6800 17.2100 -0.3082
51.7000 17.2166 -0.2903
51.7200 17.2232 -0.3016
51.7400 17.2299 -0.3099
51.7600 17.2365 -0.2910
51.7800 17.2433 -0.3048
51.8000 17.2500 -0.3147
51.8200 17.2566 -0.2871
51.8400 17.2633 -0.3044
51.8600 17.2700 -0.3115
51.8800 17.2766 -0.2876
51.9000 17.2833 -0.3076
51.9200 17.2899 -0.3033
51.9400 17.2966 -0.2881
51.9600 17.3033 -0.3134
51.9800 17.3100 -0.3103
52.0000 17.3167 -0.2892
52.0200 17.3233 -0.3131
52.0400 17.3300 -0.3058
52.0600 17.3367 -0.2962
52.0800 17.3433 -0.3147
52.1000 17.3499 -0.3018
52.1200 17.3565 -0.2920
52.1400 17.3632 -0.3141
52.1600 17.3699 -0.3043
52.1800 17.3766 -0.3017
52.2000 17.3833 -0.3119
52.2200 17.3900 -0.3083
52.2400 17.3966 -0.3032
52.2600 17.4032 -0.3081
52.2800 17.4098 -0.3076
52.3000 17.4165 -0.3040
52.3200 17.4232 -0.3049
52.3400 17.4299 -0.3072
52.3600 17.4366 -0.3120
52.3800 17.4433 -0.3030
52.4000 17.4499 -0.3064
52.4200 17.4566 -0.3143
52.4400 17.4632 -0.3087
52.4600 17.4699 -0.3085
52.4800 17.4765 -0.3146
52.5000 17.4833 -0.3006
52.5200 17.4900 -0.3140
52.5400 17.4967 -0.3095
52.5600 17.5033 -0.3006
52.5800 17.5100 -0.3224
52.6000 17.5167 -0.3178
52.6200 17.5233 -0.3024
52.6400 17.5299 -0.3167
52.6600 17.5365 -0.3123
52.6800 17.5432 -0.3070
52.7000 17.5500 -0.3151
52.7200 17.5567 -0.3113
52.7400 17.5633 -0.3045
52.7600 17.5700 -0.3212
52.7800 17.5767 -0.3104
52.8000 17.5833 -0.3103
52.8200 17.5899 -0.3172
52.8400 17.5965 -0.3099
52.8600 17.6032 -0.3174
52.8800 17.6100 -0.3188
52.9000 17.6166 -0.3105
52.9200 17.6233 -0.3162
52.9400 17.6300 -0.3155
52.9600 17.6366 -0.3078
52.9800 17.6433 -0.3220
53.0000 17.6499 -0.3205
53.0200 17.6565 -0.3084
53.0400 17.6632 -0.3200
53.0600 17.6699 -0.3201
53.0800 17.6766 -0.3138
53.1000 17.6833 -0.3228
53.1200 17.6899 -0.3105
53.1400 17.6966 -0.3214
53.1600 17.7032 -0.3172
53.1800 17.7098 -0.3156
53.2000 17.7165 -0.3215
53.2200 17.7232 -0.3203
53.2400 17.7300 -0.3215
53.2600 17.7367 -0.3191
53.2800 17.7433 -0.3165
53.3000 17.7500 -0.3226
53.3200 17.7567 -0.3161
53.3400 17.7633 -0.3181
53.3600 17.7699 -0.3242
53.3800 17.7765 -0.3148
53.4000 17.7833 -0.3122
53.4200 17.7900 -0.3317
53.4400 17.7967 -0.3168
53.4600 17.8034 -0.3121
53.4800 17.8100 -0.3309
53.5000 17.8167 -0.3160
53.5200 17.8233 -0.3144
53.5400 17.8299 -0.3271
53.5600 17.8365 -0.3137
53.5800 17.8432 -0.3153
53.6000 17.8499 -0.3312
53.6200 17.8566 -0.3152
53.6400 17.8633 -0.3170
53.6600 17.8700 -0.3330
53.6800 17.8766 -0.3161
53.7000 17.8833 -0.3128
53.7200 17.8898 -0.3343
53.7400 17.8965 -0.3105
53.7600 17.9032 -0.3193
53.7800 17.9099 -0.3313
53.8000 17.9166 -0.3139
53.8200 17.9233 -0.3208
53.8400 17.9300 -0.3289
53.8600 17.9366 -0.3172
53.8800 17.9433 -0.3185
53.9000 17.9499 -0.3290
53.9200 17.9565 -0.3178
53.9400 17.9632 -0.3190
53.9600 17.9699 -0.3285
53.9800 17.9766 -0.3173
54.0000 17.9833 -0.3218
54.0200 17.9900 -0.3264
54.0400 17.9967 -0.3231
54.0600 18.0033 -0.3239
54.0800 18.0099 -0.3248
54.1000 18.0165 -0.3205
54.1200 18.0232 -0.3219
54.1400 18.0299 -0.3274
54.1600 18.0366 -0.3213
54.1800 18.0433 -0.3266
54.2000 18.0500 -0.3232
54.2200 18.0567 -0.3285
54.2400 18.0633 -0.3260
54.2600 18.0699 -0.3292
54.2800 18.0765 -0.3288
54.3000 18.0832 -0.3245
54.3200 18.0900 -0.3307
54.3400 18.0966 -0.3326
54.3600 18.1033 -0.3232
54.3800 18.1100 -0.3285
54.4000 18.1166 -0.3310
54.4200 18.1233 -0.3297
54.4400 18.1299 -0.3297
54.4600 18.1365 -0.3290
54.4800 18.1432 -0.3270
54.5000 18.1499 -0.3356
54.5200 18.1566 -0.3301
54.5400 18.1633 -0.3291
54.5600 18.1699 -0.3351
54.5800 18.1766 -0.3329
54.6000 18.1833 -0.3281
54.6200 18.1899 -0.3361
54.6400 18.1965 -0.3366
54.6600 18.2032 -0.3256
54.6800 18.2099 -0.3327
54.7000 18.2166 -0.3357
54.7200 18.2233 -0.3295
54.7400 18.2300 -0.3317
54.7600 18.2367 -0.3334
54.7800 18.2433 -0.3273
54.8000 18.2499 -0.3357
54.8200 18.2565 -0.3351
54.8400 18.2632 -0.3260
54.8600 18.2700 -0.3327
54.8800 18.2767 -0.3345
54.9000 18.2833 -0.3259
54.9200 18.2900 -0.3361
54.9400 18.2967 -0.3387
54.9600 18.3033 -0.3277
54.9800 18.3099 -0.3299
55.0000 18.3165 -0.3299
55.0200 18.3232 -0.3295
55.0400 18.3299 -0.3358
55.0600 18.3366 -0.3281
55.0800 18.3433 -0.3298
55.1000 18.3500 -0.3293
55.1200 18.3566 -0.3332
55.1400 18.3633 -0.3321
55.1600 18.3699 -0.3289
55.1800 18.3765 -0.3316
55.2000 18.3831 -0.3258
55.2200 18.3899 -0.3303
55.2400 18.3966 -0.3340
55.2600 18.4033 -0.3344
55.2800 18.4099 -0.3277
55.3000 18.4166 -0.3337
55.3200 18.4233 -0.3342
55.3400 18.4299 -0.3317
55.3600 18.4365 -0.3332
55.3800 18.4432 -0.3344
55.4000 18.4499 -0.3238
55.4200 18.4567 -0.3360
55.4400 18.4633 -0.3364
55.4600 18.4700 -0.3299
55.4800 18.4767 -0.3345
55.5000 18.4833 -0.3408
55.5200 18.4900 -0.3252
55.5400 18.4966 -0.3339
55.5600 18.5033 -0.3410
55.5800 18.5099 -0.3289
55.6000 18.5166 -0.3381
55.6200 18.5233 -0.3376
55.6400 18.5300 -0.3302
55.6600 18.5367 -0.3434
55.6800 18.5433 -0.3376
55.7000 18.5499 -0.3289
55.7200 18.5565 -0.3431
55.7400 18.5632 -0.3374
55.7600 18.5699 -0.3306
55.7800 18.5766 -0.3458
55.8000 18.5833 -0.3390
55.8200 18.5900 -0.3271
55.8400 18.5966 -0.3472
55.8600 18.6033 -0.3407
55.8800 18.6099 -0.3348
55.9000 18.6165 -0.3430
55.9200 18.6232 -0.3373
55.9400 18.6299 -0.3319
55.9600 18.6366 -0.3443
55.9800 18.6433 -0.3404
56.0000 18.6499 -0.3367
56.0200 18.6566 -0.3371
56.0400 18.6633 -0.3449
56.0600 18.6699 -0.3344
56.0800 18.6766 -0.3396
56.1000 18.6832 -0.3501
56.1200 18.6899 -0.3309
56.1400 18.6966 -0.3318
56.1600 18.7033 -0.3537
56.1800 18.7100 -0.3429
56.2000 18.7167 -0.3344
56.2200 18.7233 -0.3570
56.2400 18.7299 -0.3328
56.2600 18.7366 -0.3288
56.2800 18.7432 -0.3699
56.3000 18.7499 -0.3392
56.3200 18.7566 -0.3160
56.3400 18.7633 -0.3751
56.3600 18.7700 -0.3435
56.3800 18.7767 -0.3107
56.4000 18.7833 -0.3686
56.4200 18.7899 -0.3498
56.4400 18.7965 -0.3147
56.4600 18.8032 -0.3786
56.4800 18.8099 -0.3302
56.5000 18.8166 -0.3232
56.5200 18.8233 -0.3922
56.5400 18.8299 -0.3290
56.5600 18.8366 -0.3125
56.5800 18.8433 -0.3958
56.6000 18.8499 -0.3246
56.6200 18.8565 -0.3174
56.6400 18.8631 -0.3866
56.6600 18.8698 -0.3260
56.6800 18.8766 -0.3327
56.7000 18.8833 -0.3812
56.7200 18.8900 -0.3195
56.7400 18.8966 -0.3429
56.7600 18.9033 -0.3840
56.7800 18.9099 -0.3142
56.8000 18.9165 -0.3482
56.8200 18.9232 -0.3618
56.8400 18.9299 -0.3204
56.8600 18.9366 -0.3638
56.8800 18.9433 -0.3509
56.9000 18.9500 -0.3246
56.9200 18.9567 -0.3710
56.9400 18.9633 -0.3383
56.9600 18.9699 -0.3277
56.9800 18.9766 -0.3793
57.0000 18.9832 -0.3398
57.0200 18.9899 -0.3231
57.0400 18.9966 -0.3724
57.0600 19.0033 -0.3378
57.0800 19.0100 -0.3396
57.1000 19.0166 -0.3630
57.1200 19.0233 -0.3383
57.1400 19.0299 -0.3487
57.1600 19.0365 -0.3635
57.1800 19.0432 -0.3362
57.2000 19.0499 -0.3437
57.2200 19.0566 -0.3649
57.2400 19.0633 -0.3423
57.2600 19.0700 -0.3382
57.2800 19.0766 -0.3550
57.3000 19.0833 -0.3515
57.3200 19.0899 -0.3452
57.3400 19.0965 -0.3445
57.3600 19.1032 -0.3528
57.3800 19.1099 -0.3513
57.4000 19.1166 -0.3458
57.4200 19.1233 -0.3521
57.4400 19.1299 -0.3409
57.4600 19.1366 -0.3547
57.4800 19.1433 -0.3547
57.5000 19.1499 -0.3445
57.5200 19.1565 -0.3504
57.5400 19.1632 -0.3568
57.5600 19.1699 -0.3485
57.5800 19.1766 -0.3496
57.6000 19.1833 -0.3552
57.6200 19.1900 -0.3496
57.6400 19.1967 -0.3448
57.6600 19.2033 -0.3563
57.6800 19.2100 -0.3528
57.7000 19.2166 -0.3536
57.7200 19.2232 -0.3507
57.7400 19.2299 -0.3524
57.7600 19.2366 -0.3578
57.7800 19.2433 -0.3514
57.8000 19.2500 -0.3514
57.8200 19.2567 -0.3549
57.8400 19.2634 -0.3567
57.8600 19.2700 -0.3550
57.8800 19.2765 -0.3542
57.9000 19.2832 -0.3509
57.9200 19.2899 -0.3594
57.9400 19.2966 -0.3579
57.9600 19.3032 -0.3545
57.9800 19.3099 -0.3570
58.0000 19.3166 -0.3564
58.0200 19.3233 -0.3561
58.0400 19.3299 -0.3560
58.0600 19.3365 -0.3544
58.0800 19.3432 -0.3622
58.1000 19.3499 -0.3566
58.1200 19.3566 -0.3557
58.1400 19.3632 -0.3573
58.1600 19.3699 -0.3616
58.1800 19.3766 -0.3582
58.2000 19.3833 -0.3601
58.2200 19.3899 -0.3575
58.2400 19.3966 -0.3563
58.2600 19.4032 -0.3610
58.2800 19.4099 -0.3602
58.3000 19.4166 -0.3567
58.3200 19.4233 -0.3631
58.3400 19.4300 -0.3655
58.3600 19.4367 -0.3569
58.3800 19.4434 -0.3621
58.4000 19.4500 -0.3700
58.4200 19.4565 -0.3576
58.4400 19.4632 -0.3543
58.4600 19.4699 -0.3704
58.4800 19.4766 -0.3615
58.5000 19.4833 -0.3646
58.5200 19.4900 -0.3677
58.5400 19.4967 -0.3624
58.5600 19.5033 -0.3620
58.5800 19.5099 -0.3741
58.6000 19.5166 -0.3548
58.6200 19.5232 -0.3612
58.6400 19.5299 -0.3740
58.6600 19.5366 -0.3583
58.6800 19.5433 -0.3656
58.7000 19.5500 -0.3787
58.7200 19.5566 -0.3553
58.7400 19.5633 -0.3698
58.7600 19.5699 -0.3793
58.7800 19.5765 -0.3538
58.8000 19.5832 -0.3664
58.8200 19.5898 -0.3816
58.8400 19.5965 -0.3554
58.8600 19.6032 -0.3714
58.8800 19.6099 -0.3807
58.9000 19.6166 -0.3587
58.9200 19.6233 -0.3795
58.9400 19.6299 -0.3752
58.9600 19.6365 -0.3576
58.9800 19.6432 -0.3795
59.0000 19.6499 -0.3820
59.0200 19.6566 -0.3590
59.0400 19.6633 -0.3792
59.0600 19.6700 -0.3763
59.0800 19.6767 -0.3677
59.1000 19.6833 -0.3797
59.1200 19.6900 -0.3789
59.1400 19.6966 -0.3729
59.1600 19.7032 -0.3768
59.1800 19.7099 -0.3742
59.2000 19.7166 -0.3802
59.2200 19.7233 -0.3789
59.2400 19.7300 -0.3782
59.2600 19.7367 -0.3728
59.2800 19.7433 -0.3784
59.3000 19.7499 -0.3918
59.3010 19.7502 -0.3935
