Raw Data
Time Displacement Force
(s) (mm) (N)
0.0000 0.0000 -1.3883
0.0200 0.0000 -1.3718
0.0400 0.0008 -1.3278
0.0600 0.0040 -1.2833
0.0800 0.0095 -1.3722
0.1000 0.0153 -1.3937
0.1200 0.0211 -1.3477
0.1400 0.0277 -1.3163
0.1600 0.0351 -1.2917
0.1800 0.0425 -1.2664
0.2000 0.0497 -1.2382
0.2200 0.0565 -1.2109
0.2400 0.0632 -1.1734
0.2600 0.0699 -1.1465
0.2800 0.0766 -1.1298
0.3000 0.0833 -1.0917
0.3200 0.0900 -1.0668
0.3400 0.0967 -1.0491
0.3600 0.1034 -1.0262
0.3800 0.1100 -0.9979
0.4000 0.1167 -0.9780
0.4200 0.1233 -0.9487
0.4400 0.1301 -0.9197
0.4600 0.1367 -0.9014
0.4800 0.1434 -0.8709
0.5000 0.1501 -0.8338
0.5200 0.1568 -0.8223
0.5400 0.1634 -0.7846
0.5600 0.1700 -0.7521
0.5800 0.1766 -0.7344
0.6000 0.1833 -0.7060
0.6200 0.1901 -0.6781
0.6400 0.1968 -0.6541
0.6600 0.2034 -0.6219
0.6800 0.2101 -0.5971
0.7000 0.2168 -0.5691
0.7200 0.2234 -0.5348
0.7400 0.2300 -0.5078
0.7600 0.2367 -0.4886
0.7800 0.2433 -0.4652
0.8000 0.2500 -0.4410
0.8200 0.2567 -0.4167
0.8400 0.2634 -0.3921
0.8600 0.2701 -0.3755
0.8800 0.2767 -0.3590
0.9000 0.2834 -0.3386
0.9200 0.2900 -0.3055
0.9400 0.2966 -0.2909
0.9600 0.3033 -0.2735
0.9800 0.3100 -0.2396
1.0000 0.3167 -0.2184
1.0200 0.3234 -0.1914
1.0400 0.3300 -0.1438
1.0600 0.3367 -0.1333
1.0800 0.3433 -0.1276
1.1000 0.3500 -0.1072
1.1200 0.3566 -0.0964
1.1400 0.3633 -0.0897
1.1600 0.3700 -0.0736
1.1800 0.3767 -0.0672
1.2000 0.3834 -0.0669
1.2200 0.3901 -0.0530
1.2400 0.3968 -0.0424
1.2600 0.4034 -0.0344
1.2800 0.4101 -0.0214
1.3000 0.4167 -0.0092
1.3200 0.4234 -0.0434
1.3400 0.4301 -0.0536
1.3600 0.4368 -0.0280
1.3800 0.4434 0.0136
1.4000 0.4501 0.0506
1.4200 0.4568 0.0887
1.4400 0.4634 0.1156
1.4600 0.4700 0.1563
1.4800 0.4766 0.1770
1.5000 0.4833 0.1797
1.5200 0.4900 0.1836
1.5400 0.4967 0.1883
1.5600 0.5034 0.1847
1.5800 0.5100 0.1878
1.6000 0.5167 0.1904
1.6200 0.5234 0.1900
1.6400 0.5300 0.1945
1.6600 0.5366 0.1915
1.6800 0.5433 0.1884
1.7000 0.5500 0.1969
1.7200 0.5567 0.1907
1.7400 0.5634 0.1852
1.7600 0.5700 0.2004
1.7800 0.5767 0.1953
1.8000 0.5834 0.1848
1.8200 0.5900 0.1914
1.8400 0.5967 0.1961
1.8600 0.6033 0.1837
1.8800 0.6100 0.1889
1.9000 0.6167 0.1936
1.9200 0.6234 0.1844
1.9400 0.6301 0.1890
1.9600 0.6368 0.1918
1.9800 0.6434 0.1768
2.0000 0.6500 0.1895
2.0200 0.6566 0.1876
2.0400 0.6633 0.1764
2.0600 0.6700 0.1780
2.0800 0.6768 0.1809
2.1000 0.6834 0.1734
2.1200 0.6901 0.1771
2.1400 0.6967 0.1788
2.1600 0.7034 0.1679
2.1800 0.7100 0.1699
2.2000 0.7166 0.1773
2.2200 0.7233 0.1609
2.2400 0.7300 0.1666
2.2600 0.7367 0.1714
2.2800 0.7434 0.1556
2.3000 0.7501 0.1561
2.3200 0.7567 0.1664
2.3400 0.7634 0.1505
2.3600 0.7700 0.1486
2.3800 0.7766 0.1619
2.4000 0.7833 0.1461
2.4200 0.7900 0.1461
2.4400 0.7967 0.1545
2.4600 0.8034 0.1399
2.4800 0.8100 0.1471
2.5000 0.8168 0.1548
2.5200 0.8234 0.1299
2.5400 0.8301 0.1433
2.5600 0.8367 0.1496
2.5800 0.8433 0.1326
2.6000 0.8500 0.1365
2.6200 0.8568 0.1439
2.6400 0.8635 0.1276
2.6600 0.8701 0.1385
2.6800 0.8768 0.1351
2.7000 0.8834 0.1220
2.7200 0.8900 0.1372
2.7400 0.8967 0.1334
2.7600 0.9033 0.1230
2.7800 0.9101 0.1340
2.8000 0.9168 0.1285
2.8200 0.9234 0.1187
2.8400 0.9301 0.1295
2.8600 0.9368 0.1236
2.8800 0.9434 0.1199
2.9000 0.9501 0.1265
2.9200 0.9566 0.1249
2.9400 0.9633 0.1189
2.9600 0.9700 0.1237
2.9800 0.9767 0.1192
3.0000 0.9834 0.1171
3.0200 0.9901 0.1151
3.0400 0.9968 0.1241
3.0600 1.0034 0.1131
3.0800 1.0100 0.1162
3.1000 1.0166 0.1202
3.1200 1.0232 0.1156
3.1400 1.0300 0.1120
3.1600 1.0367 0.1158
3.1800 1.0434 0.1088
3.2000 1.0500 0.1126
3.2200 1.0567 0.1118
3.2400 1.0634 0.1064
3.2600 1.0700 0.1085
3.2800 1.0767 0.1097
3.3000 1.0833 0.1078
3.3200 1.0900 0.1031
3.3400 1.0967 0.1063
3.3600 1.1034 0.1043
3.3800 1.1101 0.1047
3.4000 1.1168 0.1041
3.4200 1.1235 0.0991
3.4400 1.1301 0.1009
3.4600 1.1367 0.1057
3.4800 1.1433 0.0977
3.5000 1.1500 0.1002
3.5200 1.1567 0.0993
3.5400 1.1634 0.0973
3.5600 1.1701 0.0909
3.5800 1.1768 0.0993
3.6000 1.1834 0.0916
3.6200 1.1900 0.0915
3.6400 1.1966 0.0966
3.6600 1.2033 0.0931
3.6800 1.2100 0.0889
3.7000 1.2167 0.0956
3.7200 1.2234 0.0873
3.7400 1.2301 0.0824
3.7600 1.2367 0.0969
3.7800 1.2434 0.0870
3.8000 1.2500 0.0795
3.8200 1.2566 0.0932
3.8400 1.2633 0.0876
3.8600 1.2700 0.0789
3.8800 1.2767 0.0908
3.9000 1.2834 0.0817
3.9200 1.2900 0.0798
3.9400 1.2967 0.0863
3.9600 1.3034 0.0790
3.9800 1.3101 0.0775
4.0000 1.3167 0.0857
4.0200 1.3233 0.0785
4.0400 1.3300 0.0768
4.0600 1.3367 0.0818
4.0800 1.3434 0.0792
4.1000 1.3501 0.0724
4.1200 1.3568 0.0817
4.1400 1.3634 0.0719
4.1600 1.3701 0.0728
4.1800 1.3767 0.0753
4.2000 1.3833 0.0725
4.2200 1.3900 0.0715
4.2400 1.3967 0.0757
4.2600 1.4034 0.0730
4.2800 1.4101 0.0675
4.3000 1.4168 0.0761
4.3200 1.4235 0.0675
4.3400 1.4301 0.0663
4.3600 1.4367 0.0748
4.3800 1.4433 0.0690
4.4000 1.4500 0.0614
4.4200 1.4567 0.0699
4.4400 1.4634 0.0652
4.4600 1.4700 0.0580
4.4800 1.4767 0.0676
4.5000 1.4834 0.0647
4.5200 1.4900 0.0574
4.5400 1.4966 0.0667
4.5600 1.5033 0.0620
4.5800 1.5100 0.0566
4.6000 1.5167 0.0593
4.6200 1.5234 0.0633
4.6400 1.5301 0.0561
4.6600 1.5367 0.0622
4.6800 1.5434 0.0605
4.7000 1.5500 0.0555
4.7200 1.5567 0.0617
4.7400 1.5633 0.0571
4.7600 1.5700 0.0561
4.7800 1.5768 0.0588
4.8000 1.5835 0.0517
4.8200 1.5901 0.0567
4.8400 1.5968 0.0535
4.8600 1.6035 0.0520
4.8800 1.6101 0.0541
4.9000 1.6167 0.0513
4.9200 1.6233 0.0515
4.9400 1.6300 0.0516
4.9600 1.6367 0.0471
4.9800 1.6434 0.0477
5.0000 1.6501 0.0592
5.0200 1.6568 0.0412
5.0400 1.6634 0.0441
5.0600 1.6701 0.0491
5.0800 1.6767 0.0427
5.1000 1.6833 0.0479
5.1200 1.6900 0.0525
5.1400 1.6967 0.0323
5.1600 1.7034 0.0463
5.1800 1.7101 0.0502
5.2000 1.7168 0.0256
5.2200 1.7235 0.0460
5.2400 1.7301 0.0459
5.2600 1.7366 0.0243
5.2800 1.7433 0.0466
5.3000 1.7500 0.0380
5.3200 1.7567 0.0280
5.3400 1.7634 0.0513
5.3600 1.7700 0.0313
5.3800 1.7767 0.0214
5.4000 1.7834 0.0496
5.4200 1.7900 0.0267
5.4400 1.7967 0.0201
5.4600 1.8033 0.0487
5.4800 1.8100 0.0245
5.5000 1.8167 0.0222
5.5200 1.8234 0.0407
5.5400 1.8301 0.0243
5.5600 1.8368 0.0193
5.5800 1.8435 0.0370
5.6000 1.8501 0.0148
5.6200 1.8567 0.0247
5.6400 1.8633 0.0331
5.6600 1.8700 0.0159
5.6800 1.8767 0.0164
5.7000 1.8834 0.0274
5.7200 1.8901 0.0147
5.7400 1.8968 0.0221
5.7600 1.9034 0.0193
5.7800 1.9101 0.0153
5.8000 1.9167 0.0217
5.8200 1.9233 0.0170
5.8400 1.9300 0.0143
5.8600 1.9367 0.0187
5.8800 1.9434 0.0156
5.9000 1.9500 0.0112
5.9200 1.9567 0.0154
5.9400 1.9634 0.0109
5.9600 1.9700 0.0185
5.9800 1.9767 0.0106
6.0000 1.9833 0.0107
6.0200 1.9900 0.0158
6.0400 1.9967 0.0082
6.0600 2.0034 0.0099
6.0800 2.0100 0.0119
6.1000 2.0167 0.0068
6.1200 2.0235 0.0103
6.1400 2.0301 0.0112
6.1600 2.0367 0.0035
6.1800 2.0433 0.0075
6.2000 2.0500 0.0124
6.2200 2.0567 -0.0024
6.2400 2.0634 0.0115
6.2600 2.0701 0.0053
6.2800 2.0768 -0.0014
6.3000 2.0835 0.0101
6.3200 2.0901 0.0008
6.3400 2.0967 -0.0055
6.3600 2.1033 0.0076
6.3800 2.1100 0.0066
6.4000 2.1167 -0.0079
6.4200 2.1234 0.0066
6.4400 2.1301 -0.0001
6.4600 2.1368 -0.0099
6.4800 2.1435 0.0074
6.5000 2.1501 -0.0025
6.5200 2.1567 -0.0086
6.5400 2.1634 0.0024
6.5600 2.1700 -0.0100
6.5800 2.1767 -0.0060
6.6000 2.1834 0.0004
6.6200 2.1901 -0.0038
6.6400 2.1967 -0.0124
6.6600 2.2035 -0.0013
6.6800 2.2101 -0.0080
6.7000 2.2167 -0.0125
6.7200 2.2233 -0.0043
6.7400 2.2299 -0.0066
6.7600 2.2366 -0.0120
6.7800 2.2434 -0.0068
6.8000 2.2501 -0.0087
6.8200 2.2567 -0.0136
6.8400 2.2634 -0.0117
6.8600 2.2701 -0.0109
6.8800 2.2767 -0.0175
6.9000 2.2833 -0.0143
6.9200 2.2900 -0.0101
6.9400 2.2967 -0.0189
6.9600 2.3034 -0.0160
6.9800 2.3101 -0.0122
7.0000 2.3168 -0.0149
7.0200 2.3234 -0.0198
7.0400 2.3301 -0.0182
7.0600 2.3367 -0.0211
7.0800 2.3433 -0.0166
7.1000 2.3500 -0.0198
7.1200 2.3567 -0.0202
7.1400 2.3634 -0.0220
7.1600 2.3701 -0.0190
7.1800 2.3768 -0.0227
7.2000 2.3835 -0.0227
7.2200 2.3901 -0.0230
7.2400 2.3967 -0.0245
7.2600 2.4033 -0.0243
7.2800 2.4100 -0.0196
7.3000 2.4167 -0.0313
7.3200 2.4234 -0.0304
7.3400 2.4301 -0.0259
7.3600 2.4367 -0.0298
7.3800 2.4434 -0.0275
7.4000 2.4501 -0.0289
7.4200 2.4567 -0.0314
7.4400 2.4633 -0.0319
7.4600 2.4700 -0.0282
7.4800 2.4767 -0.0311
7.5000 2.4834 -0.0321
7.5200 2.4900 -0.0308
7.5400 2.4967 -0.0333
7.5600 2.5034 -0.0340
7.5800 2.5100 -0.0312
7.6000 2.5167 -0.0360
7.6200 2.5233 -0.0330
7.6400 2.5300 -0.0377
7.6600 2.5367 -0.0406
7.6800 2.5434 -0.0364
7.7000 2.5501 -0.0350
7.7200 2.5568 -0.0444
7.7400 2.5635 -0.0395
7.7600 2.5701 -0.0349
7.7800 2.5767 -0.0446
7.8000 2.5833 -0.0415
7.8200 2.5900 -0.0352
7.8400 2.5967 -0.0409
7.8600 2.6034 -0.0413
7.8800 2.6101 -0.0414
7.9000 2.6168 -0.0423
7.9200 2.6234 -0.0428
7.9400 2.6301 -0.0413
7.9600 2.6367 -0.0437
7.9800 2.6433 -0.0421
8.0000 2.6500 -0.0443
8.0200 2.6567 -0.0431
8.0400 2.6634 -0.0453
8.0600 2.6701 -0.0436
8.0800 2.6767 -0.0458
8.1000 2.6834 -0.0496
8.1200 2.6901 -0.0490
8.1400 2.6967 -0.0504
8.1600 2.7033 -0.0472
8.1800 2.7099 -0.0465
8.2000 2.7166 -0.0514
8.2200 2.7234 -0.0546
8.2400 2.7301 -0.0487
8.2600 2.7368 -0.0538
8.2800 2.7434 -0.0516
8.3000 2.7501 -0.0574
8.3200 2.7567 -0.0545
8.3400 2.7633 -0.0532
8.3600 2.7700 -0.0532
8.3800 2.7767 -0.0563
8.4000 2.7834 -0.0539
8.4200 2.7901 -0.0555
8.4400 2.7968 -0.0610
8.4600 2.8034 -0.0598
8.4800 2.8101 -0.0536
8.5000 2.8167 -0.0652
8.5200 2.8234 -0.0607
8.5400 2.8300 -0.0620
8.5600 2.8367 -0.0649
8.5800 2.8434 -0.0583
8.6000 2.8501 -0.0654
8.6200 2.8568 -0.0607
8.6400 2.8635 -0.0590
8.6600 2.8701 -0.0660
8.6800 2.8768 -0.0698
8.7000 2.8833 -0.0551
8.7200 2.8900 -0.0665
8.7400 2.8967 -0.0712
8.7600 2.9034 -0.0616
8.7800 2.9101 -0.0684
8.8000 2.9167 -0.0724
8.8200 2.9234 -0.0657
8.8400 2.9301 -0.0701
8.8600 2.9367 -0.0663
8.8800 2.9433 -0.0664
8.9000 2.9499 -0.0706
8.9200 2.9566 -0.0707
8.9400 2.9633 -0.0664
8.9600 2.9700 -0.0796
8.9800 2.9767 -0.0648
9.0000 2.9834 -0.0701
9.0200 2.9901 -0.0846
9.0400 2.9967 -0.0626
9.0600 3.0033 -0.0749
9.0800 3.0100 -0.0807
9.1000 3.0167 -0.0673
9.1200 3.0234 -0.0777
9.1400 3.0301 -0.0824
9.1600 3.0368 -0.0648
9.1800 3.0435 -0.0816
9.2000 3.0501 -0.0775
9.2200 3.0568 -0.0696
9.2400 3.0634 -0.0827
9.2600 3.0700 -0.0809
9.2800 3.0767 -0.0677
9.3000 3.0834 -0.0893
9.3200 3.0901 -0.0755
9.3400 3.0968 -0.0703
9.3600 3.1035 -0.0878
9.3800 3.1101 -0.0835
9.4000 3.1167 -0.0756
9.4200 3.1233 -0.0853
9.4400 3.1300 -0.0826
9.4600 3.1367 -0.0803
9.4800 3.1434 -0.0850
9.5000 3.1501 -0.0846
9.5200 3.1567 -0.0819
9.5400 3.1634 -0.0845
9.5600 3.1701 -0.0803
9.5800 3.1767 -0.0867
9.6000 3.1834 -0.0868
9.6200 3.1900 -0.0808
9.6400 3.1967 -0.0889
9.6600 3.2034 -0.0843
9.6800 3.2100 -0.0889
9.7000 3.2167 -0.0863
9.7200 3.2234 -0.0870
9.7400 3.2300 -0.0890
9.7600 3.2367 -0.0905
9.7800 3.2433 -0.0882
9.8000 3.2500 -0.0922
9.8200 3.2567 -0.0872
9.8400 3.2634 -0.0946
9.8600 3.2701 -0.0956
9.8800 3.2768 -0.0917
9.9000 3.2835 -0.0940
9.9200 3.2901 -0.0989
9.9400 3.2968 -0.0893
9.9600 3.3033 -0.0979
9.9800 3.3100 -0.0982
10.0000 3.3167 -0.0871
10.0200 3.3234 -0.1020
10.0400 3.3301 -0.0995
10.0600 3.3368 -0.0904
10.0800 3.3435 -0.1050
10.1000 3.3501 -0.0981
10.1200 3.3567 -0.0952
10.1400 3.3633 -0.1049
10.1600 3.3700 -0.0999
10.1800 3.3766 -0.0940
10.2000 3.3833 -0.1055
10.2200 3.3900 -0.1024
10.2400 3.3967 -0.0961
10.2600 3.4034 -0.1063
10.2800 3.4101 -0.1052
10.3000 3.4167 -0.1038
10.3200 3.4233 -0.1036
10.3400 3.4299 -0.1088
10.3600 3.4366 -0.1024
10.3800 3.4433 -0.1099
10.4000 3.4501 -0.1093
10.4200 3.4567 -0.1038
10.4400 3.4634 -0.1073
10.4600 3.4701 -0.1081
10.4800 3.4767 -0.1088
10.5000 3.4834 -0.1133
10.5200 3.4900 -0.1110
10.5400 3.4967 -0.1095
10.5600 3.5034 -0.1111
10.5800 3.5101 -0.1197
10.6000 3.5168 -0.1083
10.6200 3.5234 -0.1106
10.6400 3.5301 -0.1190
10.6600 3.5368 -0.1082
10.6800 3.5434 -0.1231
10.7000 3.5500 -0.1151
10.7200 3.5566 -0.1104
10.7400 3.5633 -0.1246
10.7600 3.5701 -0.1183
10.7800 3.5768 -0.1049
10.8000 3.5834 -0.1301
10.8200 3.5901 -0.1247
10.8400 3.5968 -0.1105
10.8600 3.6034 -0.1254
10.8800 3.6100 -0.1236
10.9000 3.6166 -0.1114
10.9200 3.6234 -0.1312
10.9400 3.6301 -0.1186
10.9600 3.6368 -0.1170
10.9800 3.6434 -0.1343
11.0000 3.6501 -0.1213
11.0200 3.6567 -0.1217
11.0400 3.6633 -0.1376
11.0600 3.6699 -0.1206
11.0800 3.6766 -0.1225
11.1000 3.6833 -0.1374
11.1200 3.6900 -0.1262
11.1400 3.6967 -0.1253
11.1600 3.7034 -0.1363
11.1800 3.7100 -0.1279
11.2000 3.7167 -0.1282
11.2200 3.7233 -0.1370
11.2400 3.7300 -0.1301
11.2600 3.7366 -0.1328
11.2800 3.7434 -0.1340
11.3000 3.7501 -0.1314
11.3200 3.7568 -0.1325
11.3400 3.7635 -0.1418
11.3600 3.7702 -0.1364
11.3800 3.7768 -0.1380
11.4000 3.7834 -0.1417
11.4200 3.7900 -0.1365
11.4400 3.7967 -0.1369
11.4600 3.8034 -0.1437
11.4800 3.8101 -0.1413
11.5000 3.8168 -0.1384
11.5200 3.8235 -0.1425
11.5400 3.8301 -0.1453
11.5600 3.8368 -0.1404
11.5800 3.8434 -0.1472
11.6000 3.8500 -0.1404
11.6200 3.8566 -0.1390
11.6400 3.8633 -0.1460
11.6600 3.8700 -0.1411
11.6800 3.8767 -0.1429
11.7000 3.8834 -0.1486
11.7200 3.8901 -0.1459
11.7400 3.8967 -0.1391
11.7600 3.9033 -0.1517
11.7800 3.9099 -0.1412
11.8000 3.9166 -0.1429
11.8200 3.9233 -0.1482
11.8400 3.9300 -0.1404
11.8600 3.9367 -0.1474
11.8800 3.9434 -0.1511
11.9000 3.9501 -0.1381
11.9200 3.9567 -0.1490
11.9400 3.9633 -0.1467
11.9600 3.9700 -0.1374
11.9800 3.9766 -0.1469
12.0000 3.9834 -0.1537
12.0200 3.9901 -0.1384
12.0400 3.9968 -0.1476
12.0600 4.0035 -0.1478
12.0800 4.0101 -0.1395
12.1000 4.0168 -0.1499
12.1200 4.0234 -0.1465
12.1400 4.0300 -0.1399
12.1600 4.0367 -0.1498
12.1800 4.0434 -0.1457
12.2000 4.0501 -0.1441
12.2200 4.0567 -0.1495
12.2400 4.0634 -0.1447
12.2600 4.0701 -0.1493
12.2800 4.0768 -0.1463
12.3000 4.0834 -0.1488
12.3200 4.0900 -0.1440
12.3400 4.0966 -0.1482
12.3600 4.1033 -0.1460
12.3800 4.1100 -0.1492
12.4000 4.1167 -0.1499
12.4200 4.1234 -0.1467
12.4400 4.1301 -0.1471
12.4600 4.1367 -0.1543
12.4800 4.1434 -0.1474
12.5000 4.1500 -0.1471
12.5200 4.1566 -0.1546
12.5400 4.1633 -0.1488
12.5600 4.1700 -0.1505
12.5800 4.1767 -0.1585
12.6000 4.1834 -0.1520
12.6200 4.1901 -0.1533
12.6400 4.1967 -0.1561
12.6600 4.2034 -0.1584
12.6800 4.2100 -0.1547
12.7000 4.2167 -0.1531
12.7200 4.2234 -0.1653
12.7400 4.2300 -0.1581
12.7600 4.2367 -0.1594
12.7800 4.2434 -0.1646
12.8000 4.2501 -0.1583
12.8200 4.2568 -0.1566
12.8400 4.2634 -0.1676
12.8600 4.2700 -0.1609
12.8800 4.2767 -0.1599
12.9000 4.2834 -0.1675
12.9200 4.2901 -0.1637
12.9400 4.2968 -0.1637
12.9600 4.3035 -0.1752
12.9800 4.3101 -0.1586
13.0000 4.3168 -0.1670
13.0200 4.3234 -0.1740
13.0400 4.3300 -0.1658
13.0600 4.3367 -0.1672
13.0800 4.3434 -0.1747
13.1000 4.3501 -0.1644
13.1200 4.3567 -0.1718
13.1400 4.3634 -0.1724
13.1600 4.3701 -0.1674
13.1800 4.3768 -0.1782
13.2000 4.3834 -0.1773
13.2200 4.3900 -0.1682
13.2400 4.3966 -0.1794
13.2600 4.4033 -0.1794
13.2800 4.4100 -0.1734
13.3000 4.4167 -0.1797
13.3200 4.4234 -0.1745
13.3400 4.4301 -0.1760
13.3600 4.4368 -0.1832
13.3800 4.4434 -0.1789
13.4000 4.4500 -0.1763
13.4200 4.4566 -0.1819
13.4400 4.4633 -0.1767
13.4600 4.4701 -0.1816
13.4800 4.4768 -0.1821
13.5000 4.4835 -0.1820
13.5200 4.4901 -0.1846
13.5400 4.4968 -0.1795
13.5600 4.5034 -0.1809
13.5800 4.5100 -0.1862
13.6000 4.5167 -0.1774
13.6200 4.5234 -0.1879
13.6400 4.5301 -0.1849
13.6600 4.5368 -0.1806
13.6800 4.5434 -0.1911
13.7000 4.5501 -0.1825
13.7200 4.5568 -0.1844
13.7400 4.5634 -0.1915
13.7600 4.5700 -0.1809
13.7800 4.5766 -0.1794
13.8000 4.5833 -0.1944
13.8200 4.5900 -0.1854
13.8400 4.5967 -0.1881
13.8600 4.6034 -0.1919
13.8800 4.6101 -0.1833
13.9000 4.6168 -0.1900
13.9200 4.6234 -0.1963
13.9400 4.6300 -0.1794
13.9600 4.6366 -0.1962
13.9800 4.6433 -0.1974
14.0000 4.6500 -0.1823
14.0200 4.6567 -0.1932
14.0400 4.6634 -0.2033
14.0600 4.6701 -0.1823
14.0800 4.6767 -0.1989
14.1000 4.6834 -0.1968
14.1200 4.6900 -0.1830
14.1400 4.6966 -0.2003
14.1600 4.7033 -0.2004
14.1800 4.7101 -0.1872
14.2000 4.7168 -0.2013
14.2200 4.7234 -0.2031
14.2400 4.7301 -0.1874
14.2600 4.7368 -0.2041
14.2800 4.7434 -0.2018
14.3000 4.7500 -0.1878
14.3200 4.7567 -0.2043
14.3400 4.7633 -0.2009
14.3600 4.7700 -0.1875
14.3800 4.7767 -0.2091
14.4000 4.7834 -0.2000
14.4200 4.7901 -0.1938
14.4400 4.7968 -0.2041
14.4600 4.8034 -0.2037
14.4800 4.8100 -0.1927
14.5000 4.8166 -0.2069
14.5200 4.8233 -0.2017
14.5400 4.8300 -0.1960
14.5600 4.8367 -0.2065
14.5800 4.8434 -0.2030
14.6000 4.8500 -0.1952
14.6200 4.8567 -0.2105
14.6400 4.8634 -0.2038
14.6600 4.8700 -0.1973
14.6800 4.8766 -0.2093
14.7000 4.8833 -0.2053
14.7200 4.8900 -0.1998
14.7400 4.8967 -0.2096
14.7600 4.9034 -0.2048
14.7800 4.9100 -0.2006
14.8000 4.9167 -0.2131
14.8200 4.9234 -0.2085
14.8400 4.9300 -0.2033
14.8600 4.9367 -0.2106
14.8800 4.9434 -0.2082
14.9000 4.9501 -0.2064
14.9200 4.9567 -0.2130
14.9400 4.9634 -0.2008
14.9600 4.9701 -0.2131
14.9800 4.9768 -0.2117
15.0000 4.9834 -0.2023
15.0200 4.9900 -0.2094
15.0400 4.9966 -0.2158
15.0600 5.0033 -0.2016
15.0800 5.0100 -0.2108
15.1000 5.0168 -0.2185
15.1200 5.0234 -0.2077
15.1400 5.0301 -0.2098
15.1600 5.0368 -0.2238
15.1800 5.0434 -0.2069
15.2000 5.0500 -0.2105
15.2200 5.0566 -0.2232
15.2400 5.0633 -0.2096
15.2600 5.0700 -0.2119
15.2800 5.0768 -0.2211
15.3000 5.0834 -0.2099
15.3200 5.0901 -0.2145
15.3400 5.0968 -0.2238
15.3600 5.1034 -0.2088
15.3800 5.1100 -0.2185
15.4000 5.1166 -0.2226
15.4200 5.1233 -0.2088
15.4400 5.1300 -0.2197
15.4600 5.1367 -0.2246
15.4800 5.1434 -0.2103
15.5000 5.1500 -0.2219
15.5200 5.1567 -0.2158
15.5400 5.1634 -0.2192
15.5600 5.1700 -0.2268
15.5800 5.1766 -0.2148
15.6000 5.1833 -0.2201
15.6200 5.1900 -0.2322
15.6400 5.1967 -0.2097
15.6600 5.2034 -0.2226
15.6800 5.2101 -0.2299
15.7000 5.2168 -0.2130
15.7200 5.2235 -0.2297
15.7400 5.2301 -0.2242
15.7600 5.2367 -0.2164
15.7800 5.2434 -0.2344
15.8000 5.2501 -0.2213
15.8200 5.2568 -0.2206
15.8400 5.2634 -0.2388
15.8600 5.2701 -0.2219
15.8800 5.2768 -0.2209
15.9000 5.2834 -0.2404
15.9200 5.2900 -0.2206
15.9400 5.2966 -0.2239
15.9600 5.3033 -0.2427
15.9800 5.3100 -0.2137
16.0000 5.3167 -0.2338
16.0200 5.3233 -0.2412
16.0400 5.3300 -0.2190
16.0600 5.3367 -0.2334
16.0800 5.3434 -0.2406
16.1000 5.3500 -0.2208
16.1200 5.3566 -0.2355
16.1400 5.3633 -0.2369
16.1600 5.3700 -0.2260
16.1800 5.3768 -0.2397
16.2000 5.3834 -0.2345
16.2200 5.3901 -0.2235
16.2400 5.3967 -0.2430
16.2600 5.4034 -0.2332
16.2800 5.4100 -0.2276
16.3000 5.4167 -0.2443
16.3200 5.4234 -0.2338
16.3400 5.4301 -0.2337
16.3600 5.4367 -0.2421
16.3800 5.4434 -0.2352
16.4000 5.4501 -0.2356
16.4200 5.4568 -0.2450
16.4400 5.4635 -0.2363
16.4600 5.4701 -0.2368
16.4800 5.4766 -0.2401
16.5000 5.4833 -0.2352
16.5200 5.4900 -0.2399
16.5400 5.4967 -0.2410
16.5600 5.5034 -0.2379
16.5800 5.5101 -0.2409
16.6000 5.5168 -0.2397
16.6200 5.5234 -0.2436
16.6400 5.5300 -0.2388
16.6600 5.5366 -0.2430
16.6800 5.5433 -0.2419
16.7000 5.5500 -0.2398
16.7200 5.5567 -0.2440
16.7400 5.5634 -0.2438
16.7600 5.5700 -0.2405
16.7800 5.5767 -0.2425
16.8000 5.5834 -0.2454
16.8200 5.5900 -0.2438
16.8400 5.5966 -0.2411
16.8600 5.6033 -0.2447
16.8800 5.6100 -0.2452
16.9000 5.6167 -0.2444
16.9200 5.6234 -0.2519
16.9400 5.6301 -0.2409
16.9600 5.6368 -0.2474
16.9800 5.6435 -0.2531
17.0000 5.6501 -0.2413
17.0200 5.6567 -0.2490
17.0400 5.6633 -0.2551
17.0600 5.6700 -0.2376
17.0800 5.6768 -0.2538
17.1000 5.6835 -0.2524
17.1200 5.6901 -0.2446
17.1400 5.6968 -0.2483
17.1600 5.7034 -0.2546
17.1800 5.7100 -0.2482
17.2000 5.7167 -0.2538
17.2200 5.7233 -0.2557
17.2400 5.7300 -0.2489
17.2600 5.7367 -0.2552
17.2800 5.7434 -0.2579
17.3000 5.7501 -0.2506
17.3200 5.7568 -0.2565
17.3400 5.7635 -0.2610
17.3600 5.7701 -0.2528
17.3800 5.7767 -0.2588
17.4000 5.7833 -0.2590
17.4200 5.7900 -0.2505
17.4400 5.7967 -0.2612
17.4600 5.8034 -0.2651
17.4800 5.8101 -0.2469
17.5000 5.8168 -0.2620
17.5200 5.8234 -0.2623
17.5400 5.8300 -0.2587
17.5600 5.8366 -0.2635
17.5800 5.8432 -0.2620
17.6000 5.8499 -0.2554
17.6200 5.8567 -0.2679
17.6400 5.8633 -0.2634
17.6600 5.8700 -0.2577
17.6800 5.8767 -0.2671
17.7000 5.8834 -0.2667
17.7200 5.8901 -0.2621
17.7400 5.8967 -0.2715
17.7600 5.9033 -0.2661
17.7800 5.9100 -0.2644
17.8000 5.9167 -0.2679
17.8200 5.9234 -0.2681
17.8400 5.9301 -0.2694
17.8600 5.9368 -0.2723
17.8800 5.9435 -0.2698
17.9000 5.9501 -0.2712
17.9200 5.9567 -0.2722
17.9400 5.9633 -0.2650
17.9600 5.9700 -0.2727
17.9800 5.9767 -0.2733
18.0000 5.9835 -0.2747
18.0200 5.9901 -0.2748
18.0400 5.9968 -0.2712
18.0600 6.0034 -0.2727
18.0800 6.0100 -0.2817
18.1000 6.0166 -0.2692
18.1200 6.0233 -0.2734
18.1400 6.0300 -0.2737
18.1600 6.0367 -0.2790
18.1800 6.0434 -0.2760
18.2000 6.0501 -0.2763
18.2200 6.0567 -0.2721
18.2400 6.0634 -0.2825
18.2600 6.0701 -0.2779
18.2800 6.0767 -0.2729
18.3000 6.0833 -0.2838
18.3200 6.0900 -0.2752
18.3400 6.0967 -0.2754
18.3600 6.1034 -0.2837
18.3800 6.1100 -0.2735
18.4000 6.1167 -0.2779
18.4200 6.1234 -0.2825
18.4400 6.1300 -0.2754
18.4600 6.1366 -0.2785
18.4800 6.1433 -0.2861
18.5000 6.1500 -0.2790
18.5200 6.1567 -0.2732
18.5400 6.1634 -0.2869
18.5600 6.1701 -0.2786
18.5800 6.1768 -0.2845
18.6000 6.1835 -0.2854
18.6200 6.1901 -0.2816
18.6400 6.1967 -0.2811
18.6600 6.2033 -0.2871
18.6800 6.2100 -0.2836
18.7000 6.2167 -0.2823
18.7200 6.2234 -0.2856
18.7400 6.2301 -0.2863
18.7600 6.2368 -0.2792
18.7800 6.2434 -0.2915
18.8000 6.2501 -0.2878
18.8200 6.2567 -0.2784
18.8400 6.2633 -0.2909
18.8600 6.2700 -0.2883
18.8800 6.2767 -0.2824
18.9000 6.2834 -0.2926
18.9200 6.2901 -0.2843
18.9400 6.2967 -0.2871
18.9600 6.3034 -0.2937
18.9800 6.3101 -0.2886
19.0000 6.3167 -0.2911
19.0200 6.3233 -0.2884
19.0400 6.3300 -0.2953
19.0600 6.3367 -0.2856
19.0800 6.3434 -0.2928
19.1000 6.3500 -0.2992
19.1200 6.3567 -0.2869
19.1400 6.3634 -0.2883
19.1600 6.3700 -0.2975
19.1800 6.3767 -0.2883
19.2000 6.3833 -0.2953
19.2200 6.3900 -0.2969
19.2400 6.3967 -0.2857
19.2600 6.4034 -0.2965
19.2800 6.4101 -0.3023
19.3000 6.4168 -0.2912
19.3200 6.4235 -0.3052
19.3400 6.4301 -0.2954
19.3600 6.4367 -0.2867
19.3800 6.4433 -0.3013
19.4000 6.4500 -0.3017
19.4200 6.4567 -0.2973
19.4400 6.4634 -0.3042
19.4600 6.4701 -0.2956
19.4800 6.4768 -0.2958
19.5000 6.4835 -0.3064
19.5200 6.4901 -0.2993
19.5400 6.4967 -0.3036
19.5600 6.5033 -0.2978
19.5800 6.5099 -0.3003
19.6000 6.5167 -0.3085
19.6200 6.5234 -0.3004
19.6400 6.5301 -0.3034
19.6600 6.5368 -0.3101
19.6800 6.5434 -0.2983
19.7000 6.5501 -0.3072
19.7200 6.5567 -0.3091
19.7400 6.5633 -0.3035
19.7600 6.5699 -0.3079
19.7800 6.5767 -0.3072
19.8000 6.5834 -0.3060
19.8200 6.5900 -0.3137
19.8400 6.5967 -0.3028
19.8600 6.6034 -0.3093
19.8800 6.6100 -0.3144
19.9000 6.6167 -0.3040
19.9200 6.6233 -0.3107
19.9400 6.6300 -0.3160
19.9600 6.6367 -0.3062
19.9800 6.6434 -0.3117
20.0000 6.6501 -0.3163
20.0200 6.6568 -0.3115
20.0400 6.6635 -0.3142
20.0600 6.6701 -0.3107
20.0800 6.6767 -0.3145
20.1000 6.6833 -0.3136
20.1200 6.6900 -0.3129
20.1400 6.6967 -0.3157
20.1600 6.7034 -0.3188
20.1800 6.7101 -0.3050
20.2000 6.7168 -0.3195
20.2200 6.7235 -0.3217
20.2400 6.7301 -0.3095
20.2600 6.7367 -0.3170
20.2800 6.7433 -0.3243
20.3000 6.7500 -0.3058
20.3200 6.7567 -0.3147
20.3400 6.7634 -0.3247
20.3600 6.7700 -0.3176
20.3800 6.7767 -0.3176
20.4000 6.7834 -0.3190
20.4200 6.7901 -0.3166
20.4400 6.7967 -0.3223
20.4600 6.8033 -0.3168
20.4800 6.8100 -0.3187
20.5000 6.8167 -0.3218
20.5200 6.8234 -0.3172
20.5400 6.8301 -0.3250
20.5600 6.8367 -0.3230
20.5800 6.8434 -0.3188
20.6000 6.8501 -0.3262
20.6200 6.8567 -0.3253
20.6400 6.8633 -0.3192
20.6600 6.8700 -0.3294
20.6800 6.8767 -0.3265
20.7000 6.8834 -0.3206
20.7200 6.8901 -0.3284
20.7400 6.8968 -0.3229
20.7600 6.9035 -0.3254
20.7800 6.9101 -0.3335
20.8000 6.9167 -0.3173
20.8200 6.9233 -0.3266
20.8400 6.9300 -0.3314
20.8600 6.9367 -0.3219
20.8800 6.9434 -0.3232
20.9000 6.9501 -0.3352
20.9200 6.9568 -0.3260
20.9400 6.9635 -0.3237
20.9600 6.9701 -0.3333
20.9800 6.9767 -0.3307
21.0000 6.9834 -0.3247
21.0200 6.9900 -0.3327
21.0400 6.9967 -0.3299
21.0600 7.0034 -0.3252
21.0800 7.0101 -0.3378
21.1000 7.0167 -0.3323
21.1200 7.0234 -0.3221
21.1400 7.0301 -0.3393
21.1600 7.0367 -0.3315
21.1800 7.0433 -0.3201
21.2000 7.0499 -0.3400
21.2200 7.0566 -0.3308
21.2400 7.0633 -0.3267
21.2600 7.0700 -0.3357
21.2800 7.0767 -0.3332
21.3000 7.0834 -0.3275
21.3200 7.0900 -0.3426
21.3400 7.0967 -0.3302
21.3600 7.1033 -0.3305
21.3800 7.1100 -0.3422
21.4000 7.1167 -0.3309
21.4200 7.1234 -0.3275
21.4400 7.1301 -0.3457
21.4600 7.1368 -0.3326
21.4800 7.1435 -0.3356
21.5000 7.1501 -0.3455
21.5200 7.1567 -0.3257
21.5400 7.1634 -0.3417
21.5600 7.1700 -0.3494
21.5800 7.1767 -0.3298
21.6000 7.1834 -0.3392
21.6200 7.1901 -0.3462
21.6400 7.1968 -0.3346
21.6600 7.2035 -0.3443
21.6800 7.2101 -0.3464
21.7000 7.2167 -0.3351
21.7200 7.2233 -0.3396
21.7400 7.2300 -0.3463
21.7600 7.2367 -0.3391
21.7800 7.2434 -0.3465
21.8000 7.2501 -0.3408
21.8200 7.2567 -0.3376
21.8400 7.2634 -0.3499
21.8600 7.2701 -0.3442
21.8800 7.2767 -0.3450
21.9000 7.2833 -0.3498
21.9200 7.2900 -0.3417
21.9400 7.2966 -0.3457
21.9600 7.3033 -0.3488
21.9800 7.3100 -0.3515
22.0000 7.3167 -0.3464
22.0200 7.3234 -0.3495
22.0400 7.3301 -0.3533
22.0600 7.3367 -0.3513
22.0800 7.3433 -0.3509
22.1000 7.3500 -0.3460
22.1200 7.3567 -0.3552
22.1400 7.3634 -0.3536
22.1600 7.3701 -0.3493
22.1800 7.3768 -0.3492
22.2000 7.3835 -0.3564
22.2200 7.3901 -0.3551
22.2400 7.3967 -0.3510
22.2600 7.4033 -0.3503
22.2800 7.4100 -0.3569
22.3000 7.4167 -0.3533
22.3200 7.4234 -0.3549
22.3400 7.4301 -0.3568
22.3600 7.4368 -0.3574
22.3800 7.4434 -0.3497
22.4000 7.4501 -0.3602
22.4200 7.4567 -0.3570
22.4400 7.4633 -0.3492
22.4600 7.4700 -0.3587
22.4800 7.4766 -0.3607
22.5000 7.4833 -0.3521
22.5200 7.4900 -0.3587
22.5400 7.4967 -0.3560
22.5600 7.5034 -0.3526
22.5800 7.5101 -0.3600
22.6000 7.5167 -0.3594
22.6200 7.5233 -0.3575
22.6400 7.5299 -0.3622
22.6600 7.5366 -0.3616
22.6800 7.5434 -0.3574
22.7000 7.5501 -0.3657
22.7200 7.5568 -0.3612
22.7400 7.5634 -0.3594
22.7600 7.5701 -0.3622
22.7800 7.5767 -0.3668
22.8000 7.5833 -0.3580
22.8200 7.5900 -0.3633
22.8400 7.5967 -0.3634
22.8600 7.6034 -0.3620
22.8800 7.6101 -0.3639
22.9000 7.6167 -0.3647
22.9200 7.6234 -0.3627
22.9400 7.6301 -0.3679
22.9600 7.6368 -0.3621
22.9800 7.6434 -0.3693
23.0000 7.6500 -0.3656
23.0200 7.6567 -0.3654
23.0400 7.6634 -0.3663
23.0600 7.6701 -0.3689
23.0800 7.6768 -0.3649
23.1000 7.6835 -0.3690
23.1200 7.6901 -0.3739
23.1400 7.6968 -0.3681
23.1600 7.7034 -0.3702
23.1800 7.7100 -0.3685
23.2000 7.7166 -0.3679
23.2200 7.7234 -0.3684
23.2400 7.7301 -0.3671
23.2600 7.7368 -0.3681
23.2800 7.7434 -0.3704
23.3000 7.7501 -0.3688
23.3200 7.7567 -0.3760
23.3400 7.7633 -0.3698
23.3600 7.7699 -0.3713
23.3800 7.7766 -0.3744
23.4000 7.7833 -0.3730
23.4200 7.7900 -0.3725
23.4400 7.7967 -0.3781
23.4600 7.8034 -0.3681
23.4800 7.8101 -0.3755
23.5000 7.8167 -0.3777
23.5200 7.8233 -0.3707
23.5400 7.8300 -0.3744
23.5600 7.8366 -0.3785
23.5800 7.8434 -0.3682
23.6000 7.8501 -0.3780
23.6200 7.8568 -0.3778
23.6400 7.8635 -0.3720
23.6600 7.8701 -0.3817
23.6800 7.8768 -0.3735
23.7000 7.8834 -0.3775
23.7200 7.8900 -0.3803
23.7400 7.8967 -0.3735
23.7600 7.9034 -0.3841
23.7800 7.9101 -0.3805
23.8000 7.9168 -0.3723
23.8200 7.9235 -0.3839
23.8400 7.9301 -0.3856
23.8600 7.9368 -0.3767
23.8800 7.9433 -0.3798
23.9000 7.9500 -0.3862
23.9200 7.9567 -0.3734
23.9400 7.9634 -0.3877
23.9600 7.9701 -0.3831
23.9800 7.9767 -0.3763
24.0000 7.9834 -0.3894
24.0200 7.9901 -0.3786
24.0400 7.9968 -0.3792
24.0600 8.0034 -0.3893
24.0800 8.0100 -0.3787
24.1000 8.0166 -0.3821
24.1200 8.0233 -0.3907
24.1400 8.0300 -0.3800
24.1600 8.0367 -0.3855
24.1800 8.0434 -0.3908
24.2000 8.0501 -0.3781
24.2200 8.0567 -0.3922
24.2400 8.0633 -0.3879
24.2600 8.0700 -0.3735
24.2800 8.0766 -0.3947
24.3000 8.0834 -0.3884
24.3200 8.0901 -0.3779
24.3400 8.0968 -0.3905
24.3600 8.1035 -0.3905
24.3800 8.1101 -0.3835
24.4000 8.1167 -0.3935
24.4200 8.1233 -0.3860
24.4400 8.1300 -0.3834
24.4600 8.1367 -0.3895
24.4800 8.1434 -0.3900
24.5000 8.1501 -0.3880
24.5200 8.1568 -0.3945
24.5400 8.1635 -0.3898
24.5600 8.1701 -0.3865
24.5800 8.1768 -0.3940
24.6000 8.1834 -0.3938
24.6200 8.1900 -0.3831
24.6400 8.1966 -0.3911
24.6600 8.2033 -0.3926
24.6800 8.2100 -0.3855
24.7000 8.2167 -0.3938
24.7200 8.2234 -0.3973
24.7400 8.2301 -0.3830
24.7600 8.2367 -0.3941
24.7800 8.2433 -0.4026
24.8000 8.2499 -0.3813
24.8200 8.2566 -0.4006
24.8400 8.2633 -0.4009
24.8600 8.2700 -0.3840
24.8800 8.2767 -0.3996
24.9000 8.2834 -0.4042
24.9200 8.2901 -0.3827
24.9400 8.2967 -0.4060
24.9600 8.3034 -0.3986
24.9800 8.3100 -0.3827
25.0000 8.3167 -0.4070
25.0200 8.3234 -0.4025
25.0400 8.3301 -0.3860
25.0600 8.3367 -0.4039
25.0800 8.3434 -0.3995
25.1000 8.3501 -0.3901
25.1200 8.3568 -0.4076
25.1400 8.3634 -0.4046
25.1600 8.3700 -0.3877
25.1800 8.3766 -0.4074
25.2000 8.3833 -0.4066
25.2200 8.3901 -0.3933
25.2400 8.3968 -0.4065
25.2600 8.4034 -0.4051
25.2800 8.4101 -0.3950
25.3000 8.4168 -0.4070
25.3200 8.4234 -0.4066
25.3400 8.4300 -0.3989
25.3600 8.4367 -0.4018
25.3800 8.4434 -0.4088
25.4000 8.4501 -0.4041
25.4200 8.4568 -0.4013
25.4400 8.4634 -0.4119
25.4600 8.4701 -0.4047
25.4800 8.4767 -0.4032
25.5000 8.4834 -0.4108
25.5200 8.4900 -0.4088
25.5400 8.4966 -0.4003
25.5600 8.5033 -0.4134
25.5800 8.5100 -0.4066
25.6000 8.5167 -0.4018
25.6200 8.5234 -0.4188
25.6400 8.5301 -0.4036
25.6600 8.5367 -0.4047
25.6800 8.5434 -0.4231
25.7000 8.5500 -0.4064
25.7200 8.5566 -0.4015
25.7400 8.5633 -0.4235
25.7600 8.5701 -0.4107
25.7800 8.5768 -0.4013
25.8000 8.5835 -0.4242
25.8200 8.5902 -0.4106
25.8400 8.5968 -0.4037
25.8600 8.6034 -0.4251
25.8800 8.6100 -0.4068
25.9000 8.6167 -0.4084
25.9200 8.6234 -0.4251
25.9400 8.6301 -0.4094
25.9600 8.6368 -0.4059
25.9800 8.6435 -0.4263
26.0000 8.6501 -0.4099
26.0200 8.6568 -0.4171
26.0400 8.6634 -0.4243
26.0600 8.6700 -0.4111
26.0800 8.6766 -0.4167
26.1000 8.6833 -0.4243
26.1200 8.6900 -0.4119
26.1400 8.6967 -0.4197
26.1600 8.7034 -0.4235
26.1800 8.7101 -0.4147
26.2000 8.7168 -0.4207
26.2200 8.7234 -0.4261
26.2400 8.7299 -0.4151
26.2600 8.7366 -0.4200
26.2800 8.7433 -0.4249
26.3000 8.7500 -0.4179
26.3200 8.7567 -0.4202
26.3400 8.7634 -0.4236
26.3600 8.7701 -0.4225
26.3800 8.7767 -0.4217
26.4000 8.7834 -0.4285
26.4200 8.7900 -0.4217
26.4400 8.7966 -0.4190
26.4600 8.8034 -0.4341
26.4800 8.8101 -0.4203
26.5000 8.8168 -0.4220
26.5200 8.8234 -0.4363
26.5400 8.8301 -0.4182
26.5600 8.8368 -0.4238
26.5800 8.8434 -0.4301
26.6000 8.8500 -0.4220
26.6200 8.8567 -0.4217
26.6400 8.8634 -0.4324
26.6600 8.8701 -0.4178
26.6800 8.8768 -0.4283
26.7000 8.8834 -0.4358
26.7200 8.8901 -0.4184
26.7400 8.8968 -0.4304
26.7600 8.9034 -0.4364
26.7800 8.9100 -0.4108
26.8000 8.9166 -0.4274
26.8200 8.9233 -0.4346
26.8400 8.9300 -0.4204
26.8600 8.9367 -0.4316
26.8800 8.9434 -0.4315
26.9000 8.9501 -0.4187
26.9200 8.9567 -0.4313
26.9400 8.9634 -0.4379
26.9600 8.9700 -0.4233
26.9800 8.9766 -0.4284
27.0000 8.9833 -0.4320
27.0200 8.9900 -0.4285
27.0400 8.9967 -0.4284
27.0600 9.0034 -0.4351
27.0800 9.0101 -0.4349
27.1000 9.0168 -0.4294
27.1200 9.0234 -0.4339
27.1400 9.0300 -0.4382
27.1600 9.0366 -0.4311
27.1800 9.0433 -0.4308
27.2000 9.0500 -0.4348
27.2200 9.0567 -0.4328
27.2400 9.0634 -0.4267
27.2600 9.0701 -0.4396
27.2800 9.0768 -0.4321
27.3000 9.0834 -0.4328
27.3200 9.0900 -0.4398
27.3400 9.0967 -0.4298
27.3600 9.1034 -0.4367
27.3800 9.1101 -0.4413
27.4000 9.1168 -0.4308
27.4200 9.1234 -0.4398
27.4400 9.1301 -0.4455
27.4600 9.1368 -0.4272
27.4800 9.1434 -0.4407
27.5000 9.1500 -0.4418
27.5200 9.1567 -0.4317
27.5400 9.1634 -0.4429
27.5600 9.1701 -0.4436
27.5800 9.1768 -0.4310
27.6000 9.1834 -0.4424
27.6200 9.1901 -0.4441
27.6400 9.1968 -0.4365
27.6600 9.2034 -0.4413
27.6800 9.2100 -0.4445
27.7000 9.2166 -0.4365
27.7200 9.2233 -0.4447
27.7400 9.2300 -0.4400
27.7600 9.2367 -0.4384
27.7800 9.2434 -0.4462
27.8000 9.2501 -0.4443
27.8200 9.2568 -0.4387
27.8400 9.2634 -0.4484
27.8600 9.2700 -0.4450
27.8800 9.2766 -0.4406
27.9000 9.2833 -0.4429
27.9200 9.2901 -0.4499
27.9400 9.2968 -0.4453
27.9600 9.3035 -0.4419
27.9800 9.3101 -0.4472
28.0000 9.3168 -0.4495
28.0200 9.3234 -0.4507
28.0400 9.3300 -0.4465
28.0600 9.3367 -0.4495
28.0800 9.3434 -0.4487
28.1000 9.3501 -0.4518
28.1200 9.3567 -0.4474
28.1400 9.3634 -0.4519
28.1600 9.3701 -0.4484
28.1800 9.3768 -0.4506
28.2000 9.3834 -0.4537
28.2200 9.3900 -0.4508
28.2400 9.3966 -0.4486
28.2600 9.4033 -0.4506
28.2800 9.4100 -0.4502
28.3000 9.4167 -0.4596
28.3200 9.4234 -0.4493
28.3400 9.4301 -0.4527
28.3600 9.4368 -0.4591
28.3800 9.4434 -0.4512
28.4000 9.4500 -0.4536
28.4200 9.4566 -0.4568
28.4400 9.4633 -0.4508
28.4600 9.4700 -0.4549
28.4800 9.4767 -0.4633
28.5000 9.4834 -0.4530
28.5200 9.4901 -0.4553
28.5400 9.4967 -0.4623
28.5600 9.5034 -0.4489
28.5800 9.5100 -0.4615
28.6000 9.5167 -0.4638
28.6200 9.5233 -0.4487
28.6400 9.5301 -0.4619
28.6600 9.5367 -0.4632
28.6800 9.5434 -0.4491
28.7000 9.5501 -0.4575
28.7200 9.5568 -0.4674
28.7400 9.5635 -0.4476
28.7600 9.5701 -0.4607
28.7800 9.5767 -0.4669
28.8000 9.5833 -0.4503
28.8200 9.5900 -0.4619
28.8400 9.5968 -0.4658
28.8600 9.6034 -0.4476
28.8800 9.6101 -0.4643
28.9000 9.6168 -0.4689
28.9200 9.6234 -0.4501
28.9400 9.6300 -0.4658
28.9600 9.6366 -0.4687
28.9800 9.6433 -0.4479
29.0000 9.6500 -0.4712
29.0200 9.6567 -0.4682
29.0400 9.6634 -0.4483
29.0600 9.6700 -0.4727
29.0800 9.6768 -0.4643
29.1000 9.6834 -0.4536
29.1200 9.6900 -0.4726
29.1400 9.6966 -0.4667
29.1600 9.7033 -0.4506
29.1800 9.7100 -0.4683
29.2000 9.7167 -0.4696
29.2200 9.7234 -0.4575
29.2400 9.7300 -0.4672
29.2600 9.7367 -0.4694
29.2800 9.7434 -0.4592
29.3000 9.7500 -0.4738
29.3200 9.7567 -0.4661
29.3400 9.7633 -0.4611
29.3600 9.7700 -0.4714
29.3800 9.7767 -0.4705
29.4000 9.7834 -0.4614
29.4200 9.7901 -0.4718
29.4400 9.7968 -0.4708
29.4600 9.8035 -0.4662
29.4800 9.8100 -0.4674
29.5000 9.8166 -0.4693
29.5200 9.8233 -0.4666
29.5400 9.8300 -0.4749
29.5600 9.8368 -0.4743
29.5800 9.8434 -0.4647
29.6000 9.8501 -0.4743
29.6200 9.8568 -0.4719
29.6400 9.8634 -0.4683
29.6600 9.8700 -0.4745
29.6800 9.8767 -0.4734
29.7000 9.8833 -0.4669
29.7200 9.8900 -0.4760
29.7400 9.8967 -0.4723
29.7600 9.9034 -0.4735
29.7800 9.9101 -0.4765
29.8000 9.9168 -0.4759
29.8200 9.9234 -0.4704
29.8400 9.9300 -0.4768
29.8600 9.9366 -0.4761
29.8800 9.9432 -0.4697
29.9000 9.9500 -0.4722
29.9200 9.9567 -0.4825
29.9400 9.9634 -0.4714
29.9600 9.9700 -0.4684
29.9800 9.9767 -0.4804
30.0000 9.9834 -0.4748
30.0200 9.9900 -0.4757
30.0400 9.9966 -0.4792
30.0600 10.0033 -0.4739
30.0800 10.0100 -0.4779
30.1000 10.0167 -0.4842
30.1200 10.0234 -0.4726
30.1400 10.0301 -0.4777
30.1600 10.0368 -0.4889
30.1800 10.0435 -0.4750
30.2000 10.0501 -0.4772
30.2200 10.0567 -0.4881
30.2400 10.0634 -0.4740
30.2600 10.0701 -0.4821
30.2800 10.0768 -0.4856
30.3000 10.0834 -0.4776
30.3200 10.0901 -0.4806
30.3400 10.0968 -0.4922
30.3600 10.1034 -0.4727
30.3800 10.1100 -0.4810
30.4000 10.1166 -0.4908
30.4200 10.1233 -0.4794
30.4400 10.1300 -0.4816
30.4600 10.1367 -0.4902
30.4800 10.1434 -0.4794
30.5000 10.1501 -0.4826
30.5200 10.1567 -0.4926
30.5400 10.1634 -0.4781
30.5600 10.1700 -0.4853
30.5800 10.1766 -0.4947
30.6000 10.1833 -0.4752
30.6200 10.1900 -0.4874
30.6400 10.1967 -0.4980
30.6600 10.2034 -0.4796
30.6800 10.2101 -0.4886
30.7000 10.2167 -0.4951
30.7200 10.2234 -0.4846
30.7400 10.2301 -0.4871
30.7600 10.2367 -0.4977
30.7800 10.2433 -0.4818
30.8000 10.2500 -0.4880
30.8200 10.2567 -0.4942
30.8400 10.2634 -0.4864
30.8600 10.2701 -0.4893
30.8800 10.2768 -0.5003
30.9000 10.2835 -0.4865
30.9200 10.2901 -0.4898
30.9400 10.2967 -0.4965
30.9600 10.3033 -0.4877
30.9800 10.3100 -0.4902
31.0000 10.3167 -0.5016
31.0200 10.3234 -0.4887
31.0400 10.3301 -0.4915
31.0600 10.3368 -0.4985
31.0800 10.3434 -0.4949
31.1000 10.3500 -0.4891
31.1200 10.3566 -0.4998
31.1400 10.3633 -0.4922
31.1600 10.3700 -0.4897
31.1800 10.3767 -0.5024
31.2000 10.3834 -0.4932
31.2200 10.3901 -0.4918
31.2400 10.3967 -0.5000
31.2600 10.4034 -0.4933
31.2800 10.4101 -0.4956
31.3000 10.4167 -0.5023
31.3200 10.4233 -0.4908
31.3400 10.4300 -0.4966
31.3600 10.4367 -0.5001
31.3800 10.4434 -0.4942
31.4000 10.4501 -0.4958
31.4200 10.4568 -0.5035
31.4400 10.4634 -0.4971
31.4600 10.4701 -0.4934
31.4800 10.4767 -0.5015
31.5000 10.4833 -0.5011
31.5200 10.4900 -0.4939
31.5400 10.4967 -0.5017
31.5600 10.5034 -0.4996
31.5800 10.5101 -0.4949
31.6000 10.5168 -0.5012
31.6200 10.5235 -0.5033
31.6400 10.5301 -0.4993
31.6600 10.5367 -0.5035
31.6800 10.5433 -0.5041
31.7000 10.5500 -0.4980
31.7200 10.5567 -0.5065
31.7400 10.5634 -0.5010
31.7600 10.5701 -0.5011
31.7800 10.5768 -0.5018
31.8000 10.5835 -0.5033
31.8200 10.5901 -0.5000
31.8400 10.5967 -0.5036
31.8600 10.6033 -0.5003
31.8800 10.6100 -0.5007
31.9000 10.6167 -0.5046
31.9200 10.6234 -0.5059
31.9400 10.6301 -0.5020
31.9600 10.6368 -0.5050
31.9800 10.6435 -0.5037
32.0000 10.6501 -0.5054
32.0200 10.6566 -0.5031
32.0400 10.6632 -0.5093
32.0600 10.6699 -0.5060
32.0800 10.6767 -0.5056
32.1000 10.6834 -0.5082
32.1200 10.6901 -0.5048
32.1400 10.6967 -0.5031
32.1600 10.7034 -0.5093
32.1800 10.7101 -0.5089
32.2000 10.7167 -0.5022
32.2200 10.7233 -0.5092
32.2400 10.7300 -0.5075
32.2600 10.7367 -0.5041
32.2800 10.7434 -0.5103
32.3000 10.7501 -0.5094
32.3200 10.7568 -0.5003
32.3400 10.7635 -0.5137
32.3600 10.7701 -0.5101
32.3800 10.7767 -0.5041
32.4000 10.7833 -0.5125
32.4200 10.7900 -0.5145
32.4400 10.7967 -0.5023
32.4600 10.8034 -0.5183
32.4800 10.8101 -0.5088
32.5000 10.8168 -0.5062
32.5200 10.8234 -0.5249
32.5400 10.8301 -0.5067
32.5600 10.8367 -0.4988
32.5800 10.8433 -0.5257
32.6000 10.8500 -0.5122
32.6200 10.8567 -0.5046
32.6400 10.8634 -0.5239
32.6600 10.8701 -0.5121
32.6800 10.8767 -0.5009
32.7000 10.8834 -0.5308
32.7200 10.8901 -0.5159
32.7400 10.8967 -0.4958
32.7600 10.9033 -0.5292
32.7800 10.9100 -0.5169
32.8000 10.9167 -0.5025
32.8200 10.9234 -0.5306
32.8400 10.9300 -0.5187
32.8600 10.9367 -0.4978
32.8800 10.9434 -0.5315
32.9000 10.9501 -0.5224
32.9200 10.9567 -0.5050
32.9400 10.9633 -0.5279
32.9600 10.9700 -0.5166
32.9800 10.9767 -0.5088
33.0000 10.9834 -0.5310
33.0200 10.9901 -0.5142
33.0400 10.9968 -0.5119
33.0600 11.0034 -0.5265
33.0800 11.0101 -0.5201
33.1000 11.0167 -0.5145
33.1200 11.0233 -0.5245
33.1400 11.0300 -0.5120
33.1600 11.0367 -0.5203
33.1800 11.0434 -0.5239
33.2000 11.0501 -0.5137
33.2200 11.0568 -0.5258
33.2400 11.0635 -0.5219
33.2600 11.0701 -0.5078
33.2800 11.0767 -0.5252
33.3000 11.0833 -0.5252
33.3200 11.0900 -0.5083
33.3400 11.0967 -0.5271
33.3600 11.1034 -0.5254
33.3800 11.1100 -0.5159
33.4000 11.1167 -0.5256
33.4200 11.1234 -0.5210
33.4400 11.1301 -0.5180
33.4600 11.1367 -0.5331
33.4800 11.1433 -0.5160
33.5000 11.1500 -0.5166
33.5200 11.1567 -0.5286
33.5400 11.1634 -0.5214
33.5600 11.1701 -0.5229
33.5800 11.1767 -0.5321
33.6000 11.1834 -0.5176
33.6200 11.1901 -0.5290
33.6400 11.1967 -0.5273
33.6600 11.2033 -0.5213
33.6800 11.2100 -0.5325
33.7000 11.2167 -0.5288
33.7200 11.2235 -0.5243
33.7400 11.2301 -0.5280
33.7600 11.2368 -0.5238
33.7800 11.2435 -0.5338
33.8000 11.2501 -0.5306
33.8200 11.2567 -0.5151
33.8400 11.2633 -0.5353
33.8600 11.2700 -0.5310
33.8800 11.2767 -0.5208
33.9000 11.2834 -0.5366
33.9200 11.2901 -0.5318
33.9400 11.2968 -0.5185
33.9600 11.3034 -0.5395
33.9800 11.3101 -0.5294
34.0000 11.3167 -0.5238
34.0200 11.3233 -0.5392
34.0400 11.3299 -0.5274
34.0600 11.3366 -0.5230
34.0800 11.3434 -0.5430
34.1000 11.3501 -0.5271
34.1200 11.3568 -0.5332
34.1400 11.3635 -0.5375
34.1600 11.3701 -0.5298
34.1800 11.3767 -0.5347
34.2000 11.3833 -0.5375
34.2200 11.3899 -0.5257
34.2400 11.3967 -0.5378
34.2600 11.4034 -0.5400
34.2800 11.4101 -0.5323
34.3000 11.4167 -0.5335
34.3200 11.4234 -0.5384
34.3400 11.4300 -0.5364
34.3600 11.4367 -0.5311
34.3800 11.4433 -0.5389
34.4000 11.4500 -0.5366
34.4200 11.4567 -0.5329
34.4400 11.4634 -0.5382
34.4600 11.4701 -0.5438
34.4800 11.4768 -0.5269
34.5000 11.4835 -0.5409
34.5200 11.4901 -0.5432
34.5400 11.4967 -0.5309
34.5600 11.5033 -0.5430
34.5800 11.5100 -0.5418
34.6000 11.5167 -0.5297
34.6200 11.5234 -0.5449
34.6400 11.5301 -0.5395
34.6600 11.5368 -0.5338
34.6800 11.5434 -0.5444
34.7000 11.5501 -0.5392
34.7200 11.5567 -0.5371
34.7400 11.5633 -0.5477
34.7600 11.5700 -0.5388
34.7800 11.5767 -0.5399
34.8000 11.5834 -0.5438
34.8200 11.5900 -0.5451
34.8400 11.5967 -0.5393
34.8600 11.6034 -0.5399
34.8800 11.6100 -0.5469
34.9000 11.6167 -0.5410
34.9200 11.6233 -0.5416
34.9400 11.6300 -0.5437
34.9600 11.6367 -0.5415
34.9800 11.6434 -0.5410
35.0000 11.6501 -0.5486
35.0200 11.6567 -0.5447
35.0400 11.6634 -0.5429
35.0600 11.6701 -0.5438
35.0800 11.6768 -0.5480
35.1000 11.6834 -0.5434
35.1200 11.6900 -0.5433
35.1400 11.6967 -0.5440
35.1600 11.7034 -0.5454
35.1800 11.7101 -0.5397
35.2000 11.7168 -0.5487
35.2200 11.7235 -0.5441
35.2400 11.7301 -0.5472
35.2600 11.7367 -0.5438
35.2800 11.7433 -0.5410
35.3000 11.7500 -0.5454
35.3200 11.7567 -0.5506
35.3400 11.7634 -0.5397
35.3600 11.7701 -0.5484
35.3800 11.7768 -0.5482
35.4000 11.7834 -0.5426
35.4200 11.7901 -0.5511
35.4400 11.7968 -0.5471
35.4600 11.8034 -0.5390
35.4800 11.8100 -0.5497
35.5000 11.8167 -0.5483
35.5200 11.8234 -0.5414
35.5400 11.8300 -0.5486
35.5600 11.8367 -0.5476
35.5800 11.8434 -0.5457
35.6000 11.8501 -0.5496
35.6200 11.8567 -0.5490
35.6400 11.8633 -0.5439
35.6600 11.8699 -0.5456
35.6800 11.8766 -0.5513
35.7000 11.8834 -0.5489
35.7200 11.8901 -0.5447
35.7400 11.8967 -0.5553
35.7600 11.9034 -0.5458
35.7800 11.9101 -0.5498
35.8000 11.9167 -0.5564
35.8200 11.9233 -0.5462
35.8400 11.9300 -0.5516
35.8600 11.9367 -0.5571
35.8800 11.9434 -0.5436
35.9000 11.9501 -0.5505
35.9200 11.9567 -0.5621
35.9400 11.9634 -0.5413
35.9600 11.9701 -0.5538
35.9800 11.9767 -0.5627
36.0000 11.9833 -0.5387
36.0200 11.9900 -0.5516
36.0400 11.9967 -0.5631
36.0600 12.0034 -0.5419
36.0800 12.0101 -0.5555
36.1000 12.0168 -0.5618
36.1200 12.0235 -0.5416
36.1400 12.0301 -0.5588
36.1600 12.0368 -0.5618
36.1800 12.0433 -0.5412
36.2000 12.0500 -0.5563
36.2200 12.0567 -0.5564
36.2400 12.0634 -0.5487
36.2600 12.0701 -0.5574
36.2800 12.0767 -0.5609
36.3000 12.0834 -0.5491
36.3200 12.0901 -0.5573
36.3400 12.0967 -0.5569
36.3600 12.1033 -0.5516
36.3800 12.1100 -0.5595
36.4000 12.1167 -0.5596
36.4200 12.1234 -0.5505
36.4400 12.1300 -0.5583
36.4600 12.1367 -0.5617
36.4800 12.1434 -0.5523
36.5000 12.1501 -0.5576
36.5200 12.1567 -0.5638
36.5400 12.1634 -0.5532
36.5600 12.1700 -0.5546
36.5800 12.1767 -0.5644
36.6000 12.1834 -0.5531
36.6200 12.1901 -0.5610
36.6400 12.1968 -0.5639
36.6600 12.2035 -0.5517
36.6800 12.2101 -0.5637
36.7000 12.2167 -0.5673
36.7200 12.2233 -0.5518
36.7400 12.2300 -0.5584
36.7600 12.2367 -0.5716
36.7800 12.2434 -0.5537
36.8000 12.2501 -0.5581
36.8200 12.2568 -0.5756
36.8400 12.2634 -0.5497
36.8600 12.2701 -0.5640
36.8800 12.2767 -0.5743
36.9000 12.2833 -0.5518
36.9200 12.2900 -0.5618
36.9400 12.2966 -0.5735
36.9600 12.3033 -0.5489
36.9800 12.3100 -0.5676
37.0000 12.3167 -0.5708
37.0200 12.3234 -0.5542
37.0400 12.3301 -0.5702
37.0600 12.3367 -0.5676
37.0800 12.3433 -0.5551
37.1000 12.3499 -0.5720
37.1200 12.3566 -0.5713
37.1400 12.3633 -0.5567
37.1600 12.3700 -0.5660
37.1800 12.3767 -0.5741
37.2000 12.3834 -0.5611
37.2200 12.3901 -0.5681
37.2400 12.3968 -0.5775
37.2600 12.4034 -0.5612
37.2800 12.4100 -0.5672
37.3000 12.4167 -0.5712
37.3200 12.4234 -0.5710
37.3400 12.4301 -0.5681
37.3600 12.4368 -0.5735
37.3800 12.4434 -0.5642
37.4000 12.4501 -0.5644
37.4200 12.4568 -0.5771
37.4400 12.4634 -0.5725
37.4600 12.4700 -0.5612
37.4800 12.4767 -0.5789
37.5000 12.4834 -0.5720
37.5200 12.4901 -0.5606
37.5400 12.4968 -0.5820
37.5600 12.5034 -0.5772
37.5800 12.5101 -0.5612
37.6000 12.5168 -0.5808
37.6200 12.5234 -0.5754
37.6400 12.5300 -0.5607
37.6600 12.5366 -0.5848
37.6800 12.5433 -0.5702
37.7000 12.5501 -0.5660
37.7200 12.5568 -0.5843
37.7400 12.5634 -0.5706
37.7600 12.5701 -0.5688
37.7800 12.5767 -0.5909
37.8000 12.5833 -0.5656
37.8200 12.5899 -0.5686
37.8400 12.5966 -0.5907
37.8600 12.6033 -0.5677
37.8800 12.6100 -0.5707
37.9000 12.6167 -0.5929
37.9200 12.6234 -0.5722
37.9400 12.6300 -0.5729
37.9600 12.6367 -0.5924
37.9800 12.6433 -0.5740
38.0000 12.6500 -0.5730
38.0200 12.6567 -0.5918
38.0400 12.6634 -0.5723
38.0600 12.6701 -0.5775
38.0800 12.6768 -0.5928
38.1000 12.6835 -0.5735
38.1200 12.6901 -0.5736
38.1400 12.6968 -0.5909
38.1600 12.7034 -0.5789
38.1800 12.7100 -0.5710
38.2000 12.7166 -0.5920
38.2200 12.7234 -0.5816
38.2400 12.7301 -0.5738
38.2600 12.7368 -0.5912
38.2800 12.7435 -0.5852
38.3000 12.7501 -0.5761
38.3200 12.7568 -0.5878
38.3400 12.7634 -0.5846
38.3600 12.7700 -0.5764
38.3800 12.7766 -0.5944
38.4000 12.7834 -0.5867
38.4200 12.7901 -0.5738
38.4400 12.7967 -0.5988
38.4600 12.8034 -0.5836
38.4800 12.8101 -0.5775
38.5000 12.8168 -0.5982
38.5200 12.8234 -0.5871
38.5400 12.8300 -0.5752
38.5600 12.8366 -0.5956
38.5800 12.8433 -0.5873
38.6000 12.8500 -0.5821
38.6200 12.8567 -0.5907
38.6400 12.8634 -0.5892
38.6600 12.8700 -0.5825
38.6800 12.8767 -0.5942
38.7000 12.8833 -0.5908
38.7200 12.8900 -0.5842
38.7400 12.8966 -0.5887
38.7600 12.9034 -0.5904
38.7800 12.9101 -0.5855
38.8000 12.9168 -0.5921
38.8200 12.9235 -0.5947
38.8400 12.9301 -0.5851
38.8600 12.9368 -0.5912
38.8800 12.9434 -0.5927
38.9000 12.9500 -0.5870
38.9200 12.9567 -0.5926
38.9400 12.9634 -0.5955
38.9600 12.9701 -0.5875
38.9800 12.9768 -0.5949
39.0000 12.9835 -0.5961
39.0200 12.9901 -0.5927
39.0400 12.9968 -0.5947
39.0600 13.0034 -0.5999
39.0800 13.0100 -0.5889
39.1000 13.0166 -0.5987
39.1200 13.0233 -0.5983
39.1400 13.0300 -0.5930
39.1600 13.0367 -0.5976
39.1800 13.0434 -0.5971
39.2000 13.0501 -0.5943
39.2200 13.0567 -0.6002
39.2400 13.0634 -0.5989
39.2600 13.0700 -0.5941
39.2800 13.0766 -0.5992
39.3000 13.0833 -0.5995
39.3200 13.0900 -0.5956
39.3400 13.0967 -0.6004
39.3600 13.1034 -0.6034
39.3800 13.1101 -0.5964
39.4000 13.1168 -0.5992
39.4200 13.1234 -0.5999
39.4400 13.1300 -0.5976
39.4600 13.1367 -0.5959
39.4800 13.1434 -0.6044
39.5000 13.1501 -0.6005
39.5200 13.1567 -0.5996
39.5400 13.1634 -0.5986
39.5600 13.1701 -0.6005
39.5800 13.1768 -0.5989
39.6000 13.1834 -0.6031
39.6200 13.1900 -0.5973
39.6400 13.1967 -0.5983
39.6600 13.2033 -0.6036
39.6800 13.2101 -0.5965
39.7000 13.2168 -0.6027
39.7200 13.2234 -0.6081
39.7400 13.2301 -0.5942
39.7600 13.2368 -0.6024
39.7800 13.2434 -0.6101
39.8000 13.2500 -0.5930
39.8200 13.2566 -0.6034
39.8400 13.2634 -0.6058
39.8600 13.2701 -0.5961
39.8800 13.2768 -0.6037
39.9000 13.2835 -0.6028
39.9200 13.2901 -0.5981
39.9400 13.2968 -0.6043
39.9600 13.3034 -0.6069
39.9800 13.3100 -0.5947
40.0000 13.3166 -0.6017
40.0200 13.3233 -0.6100
40.0400 13.3300 -0.5951
40.0600 13.3367 -0.6073
40.0800 13.3433 -0.6061
40.1000 13.3500 -0.6023
40.1200 13.3567 -0.6069
40.1400 13.3634 -0.6064
40.1600 13.3700 -0.5998
40.1800 13.3766 -0.6034
40.2000 13.3833 -0.6088
40.2200 13.3900 -0.6057
40.2400 13.3968 -0.6005
40.2600 13.4035 -0.6123
40.2800 13.4102 -0.6075
40.3000 13.4168 -0.6032
40.3200 13.4234 -0.6095
40.3400 13.4300 -0.6082
40.3600 13.4366 -0.6015
40.3800 13.4433 -0.6107
40.4000 13.4501 -0.6083
40.4200 13.4568 -0.6031
40.4400 13.4635 -0.6140
40.4600 13.4701 -0.6077
40.4800 13.4768 -0.6032
40.5000 13.4834 -0.6136
40.5200 13.4900 -0.6106
40.5400 13.4966 -0.6026
40.5600 13.5033 -0.6160
40.5800 13.5100 -0.6093
40.6000 13.5167 -0.6057
40.6200 13.5234 -0.6105
40.6400 13.5301 -0.6143
40.6600 13.5368 -0.6090
40.6800 13.5434 -0.6203
40.7000 13.5500 -0.6120
40.7200 13.5566 -0.6076
40.7400 13.5633 -0.6158
40.7600 13.5700 -0.6157
40.7800 13.5767 -0.6075
40.8000 13.5834 -0.6142
40.8200 13.5901 -0.6198
40.8400 13.5967 -0.6104
40.8600 13.6034 -0.6132
40.8800 13.6100 -0.6209
40.9000 13.6166 -0.6082
40.9200 13.6233 -0.6077
40.9400 13.6301 -0.6242
40.9600 13.6368 -0.6113
40.9800 13.6434 -0.6109
41.0000 13.6501 -0.6233
41.0200 13.6568 -0.6103
41.0400 13.6634 -0.6065
41.0600 13.6700 -0.6258
41.0800 13.6767 -0.6088
41.1000 13.6834 -0.6139
41.1200 13.6900 -0.6261
41.1400 13.6967 -0.6086
41.1600 13.7034 -0.6140
41.1800 13.7101 -0.6304
41.2000 13.7168 -0.6114
41.2200 13.7234 -0.6176
41.2400 13.7300 -0.6285
41.2600 13.7366 -0.6089
41.2800 13.7433 -0.6185
41.3000 13.7501 -0.6306
41.3200 13.7567 -0.6045
41.3400 13.7634 -0.6238
41.3600 13.7701 -0.6265
41.3800 13.7768 -0.6119
41.4000 13.7834 -0.6280
41.4200 13.7900 -0.6235
41.4400 13.7966 -0.6138
41.4600 13.8033 -0.6268
41.4800 13.8100 -0.6235
41.5000 13.8167 -0.6187
41.5200 13.8234 -0.6281
41.5400 13.8301 -0.6211
41.5600 13.8367 -0.6181
41.5800 13.8434 -0.6283
41.6000 13.8500 -0.6269
41.6200 13.8566 -0.6213
41.6400 13.8633 -0.6232
41.6600 13.8700 -0.6246
41.6800 13.8767 -0.6236
41.7000 13.8834 -0.6248
41.7200 13.8901 -0.6323
41.7400 13.8968 -0.6212
41.7600 13.9034 -0.6281
41.7800 13.9100 -0.6356
41.8000 13.9167 -0.6248
41.8200 13.9233 -0.6213
41.8400 13.9301 -0.6411
41.8600 13.9368 -0.6219
41.8800 13.9434 -0.6254
41.9000 13.9501 -0.6396
41.9200 13.9568 -0.6197
41.9400 13.9634 -0.6279
41.9600 13.9700 -0.6369
41.9800 13.9766 -0.6206
42.0000 13.9833 -0.6306
42.0200 13.9900 -0.6377
42.0400 13.9967 -0.6218
42.0600 14.0034 -0.6320
42.0800 14.0101 -0.6369
42.1000 14.0168 -0.6214
42.1200 14.0234 -0.6322
42.1400 14.0300 -0.6394
42.1600 14.0366 -0.6202
42.1800 14.0433 -0.6339
42.2000 14.0500 -0.6384
42.2200 14.0567 -0.6244
42.2400 14.0634 -0.6356
42.2600 14.0701 -0.6354
42.2800 14.0768 -0.6257
42.3000 14.0834 -0.6379
42.3200 14.0900 -0.6318
42.3400 14.0966 -0.6288
42.3600 14.1033 -0.6329
42.3800 14.1100 -0.6362
42.4000 14.1168 -0.6299
42.4200 14.1234 -0.6379
42.4400 14.1301 -0.6407
42.4600 14.1368 -0.6310
42.4800 14.1435 -0.6408
42.5000 14.1500 -0.6401
42.5200 14.1567 -0.6307
42.5400 14.1634 -0.6368
42.5600 14.1701 -0.6463
42.5800 14.1768 -0.6310
42.6000 14.1834 -0.6371
42.6200 14.1901 -0.6459
42.6400 14.1968 -0.6359
42.6600 14.2034 -0.6347
42.6800 14.2100 -0.6454
42.7000 14.2166 -0.6363
42.7200 14.2233 -0.6394
42.7400 14.2300 -0.6454
42.7600 14.2367 -0.6351
42.7800 14.2434 -0.6377
42.8000 14.2501 -0.6534
42.8200 14.2567 -0.6363
42.8400 14.2634 -0.6405
42.8600 14.2700 -0.6497
42.8800 14.2766 -0.6404
42.9000 14.2833 -0.6370
42.9200 14.2900 -0.6511
42.9400 14.2967 -0.6410
42.9600 14.3034 -0.6421
42.9800 14.3101 -0.6477
43.0000 14.3167 -0.6408
43.0200 14.3234 -0.6461
43.0400 14.3300 -0.6496
43.0600 14.3367 -0.6420
43.0800 14.3433 -0.6411
43.1000 14.3500 -0.6527
43.1200 14.3567 -0.6489
43.1400 14.3634 -0.6404
43.1600 14.3701 -0.6481
43.1800 14.3768 -0.6490
43.2000 14.3834 -0.6440
43.2200 14.3901 -0.6478
43.2400 14.3967 -0.6516
43.2600 14.4033 -0.6475
43.2800 14.4100 -0.6428
43.3000 14.4167 -0.6511
43.3200 14.4234 -0.6456
43.3400 14.4301 -0.6535
43.3600 14.4368 -0.6493
43.3800 14.4435 -0.6470
43.4000 14.4500 -0.6489
43.4200 14.4566 -0.6561
43.4400 14.4633 -0.6428
43.4600 14.4700 -0.6499
43.4800 14.4767 -0.6571
43.5000 14.4834 -0.6475
43.5200 14.4900 -0.6491
43.5400 14.4967 -0.6565
43.5600 14.5034 -0.6496
43.5800 14.5100 -0.6502
43.6000 14.5166 -0.6569
43.6200 14.5233 -0.6444
43.6400 14.5300 -0.6504
43.6600 14.5367 -0.6572
43.6800 14.5434 -0.6509
43.7000 14.5500 -0.6498
43.7200 14.5567 -0.6557
43.7400 14.5634 -0.6492
43.7600 14.5701 -0.6523
43.7800 14.5767 -0.6543
43.8000 14.5833 -0.6510
43.8200 14.5900 -0.6508
43.8400 14.5967 -0.6580
43.8600 14.6034 -0.6499
43.8800 14.6101 -0.6539
43.9000 14.6168 -0.6595
43.9200 14.6234 -0.6540
43.9400 14.6300 -0.6532
43.9600 14.6367 -0.6628
43.9800 14.6433 -0.6494
44.0000 14.6500 -0.6533
44.0200 14.6567 -0.6640
44.0400 14.6634 -0.6558
44.0600 14.6701 -0.6560
44.0800 14.6768 -0.6587
44.1000 14.6834 -0.6538
44.1200 14.6900 -0.6558
44.1400 14.6967 -0.6618
44.1600 14.7033 -0.6531
44.1800 14.7100 -0.6544
44.2000 14.7167 -0.6667
44.2200 14.7234 -0.6520
44.2400 14.7301 -0.6547
44.2600 14.7368 -0.6648
44.2800 14.7434 -0.6544
44.3000 14.7501 -0.6602
44.3200 14.7566 -0.6635
44.3400 14.7632 -0.6558
44.3600 14.7699 -0.6583
44.3800 14.7766 -0.6696
44.4000 14.7833 -0.6513
44.4200 14.7900 -0.6597
44.4400 14.7967 -0.6704
44.4600 14.8034 -0.6559
44.4800 14.8100 -0.6578
44.5000 14.8166 -0.6707
44.5200 14.8233 -0.6549
44.5400 14.8300 -0.6645
44.5600 14.8367 -0.6703
44.5800 14.8434 -0.6583
44.6000 14.8501 -0.6634
44.6200 14.8568 -0.6690
44.6400 14.8635 -0.6579
44.6600 14.8701 -0.6668
44.6800 14.8767 -0.6694
44.7000 14.8834 -0.6598
44.7200 14.8901 -0.6660
44.7400 14.8967 -0.6705
44.7600 14.9034 -0.6593
44.7800 14.9101 -0.6671
44.8000 14.9168 -0.6745
44.8200 14.9235 -0.6670
44.8400 14.9301 -0.6670
44.8600 14.9367 -0.6695
44.8800 14.9433 -0.6645
44.9000 14.9500 -0.6648
44.9200 14.9567 -0.6721
44.9400 14.9634 -0.6665
44.9600 14.9701 -0.6701
44.9800 14.9767 -0.6675
45.0000 14.9834 -0.6713
45.0200 14.9900 -0.6701
45.0400 14.9966 -0.6670
45.0600 15.0033 -0.6685
45.0800 15.0100 -0.6705
45.1000 15.0167 -0.6711
45.1200 15.0234 -0.6743
45.1400 15.0301 -0.6673
45.1600 15.0367 -0.6714
45.1800 15.0434 -0.6762
45.2000 15.0500 -0.6674
45.2200 15.0567 -0.6682
45.2400 15.0633 -0.6805
45.2600 15.0700 -0.6676
45.2800 15.0767 -0.6693
45.3000 15.0834 -0.6778
45.3200 15.0901 -0.6658
45.3400 15.0968 -0.6768
45.3600 15.1035 -0.6730
45.3800 15.1101 -0.6705
45.4000 15.1167 -0.6792
45.4200 15.1233 -0.6758
45.4400 15.1300 -0.6616
45.4600 15.1367 -0.6795
45.4800 15.1434 -0.6798
45.5000 15.1501 -0.6654
45.5200 15.1568 -0.6789
45.5400 15.1634 -0.6829
45.5600 15.1700 -0.6648
45.5800 15.1766 -0.6824
45.6000 15.1833 -0.6797
45.6200 15.1900 -0.6691
45.6400 15.1967 -0.6867
45.6600 15.2034 -0.6821
45.6800 15.2101 -0.6689
45.7000 15.2167 -0.6848
45.7200 15.2234 -0.6850
45.7400 15.2301 -0.6685
45.7600 15.2367 -0.6858
45.7800 15.2433 -0.6841
45.8000 15.2500 -0.6720
45.8200 15.2567 -0.6855
45.8400 15.2634 -0.6850
45.8600 15.2700 -0.6727
45.8800 15.2767 -0.6876
45.9000 15.2834 -0.6840
45.9200 15.2901 -0.6764
45.9400 15.2967 -0.6879
45.9600 15.3033 -0.6849
45.9800 15.3100 -0.6731
46.0000 15.3167 -0.6911
46.0200 15.3234 -0.6878
46.0400 15.3301 -0.6770
46.0600 15.3368 -0.6866
46.0800 15.3434 -0.6906
46.1000 15.3501 -0.6802
46.1200 15.3567 -0.6905
46.1400 15.3634 -0.6853
46.1600 15.3700 -0.6806
46.1800 15.3768 -0.6898
46.2000 15.3834 -0.6934
46.2200 15.3901 -0.6872
46.2400 15.3968 -0.6867
46.2600 15.4035 -0.6932
46.2800 15.4101 -0.6887
46.3000 15.4167 -0.6893
46.3200 15.4233 -0.6930
46.3400 15.4300 -0.6865
46.3600 15.4367 -0.6878
46.3800 15.4434 -0.6947
46.4000 15.4501 -0.6894
46.4200 15.4568 -0.6936
46.4400 15.4634 -0.6938
46.4600 15.4701 -0.6892
46.4800 15.4766 -0.6897
46.5000 15.4832 -0.6970
46.5200 15.4899 -0.6867
46.5400 15.4967 -0.6953
46.5600 15.5034 -0.6988
46.5800 15.5101 -0.6907
46.6000 15.5167 -0.6942
46.6200 15.5234 -0.6974
46.6400 15.5301 -0.6921
46.6600 15.5367 -0.7036
46.6800 15.5433 -0.6956
46.7000 15.5500 -0.6961
46.7200 15.5567 -0.7020
46.7400 15.5634 -0.6976
46.7600 15.5701 -0.6953
46.7800 15.5768 -0.7016
46.8000 15.5835 -0.6991
46.8200 15.5901 -0.7000
46.8400 15.5967 -0.7024
46.8600 15.6033 -0.6932
46.8800 15.6100 -0.7038
46.9000 15.6167 -0.7025
46.9200 15.6235 -0.6984
46.9400 15.6301 -0.7056
46.9600 15.6368 -0.6989
46.9800 15.6435 -0.6961
47.0000 15.6501 -0.7054
47.0200 15.6567 -0.7062
47.0400 15.6633 -0.6956
47.0600 15.6700 -0.7022
47.0800 15.6767 -0.7032
47.1000 15.6834 -0.6951
47.1200 15.6901 -0.7118
47.1400 15.6967 -0.6998
47.1600 15.7034 -0.6982
47.1800 15.7101 -0.7100
47.2000 15.7167 -0.7004
47.2200 15.7233 -0.6990
47.2400 15.7300 -0.7100
47.2600 15.7367 -0.7041
47.2800 15.7434 -0.7012
47.3000 15.7500 -0.7068
47.3200 15.7567 -0.7045
47.3400 15.7634 -0.7008
47.3600 15.7701 -0.7129
47.3800 15.7767 -0.7026
47.4000 15.7833 -0.6996
47.4200 15.7900 -0.7137
47.4400 15.7967 -0.7027
47.4600 15.8034 -0.7095
47.4800 15.8101 -0.7106
47.5000 15.8168 -0.7037
47.5200 15.8235 -0.7067
47.5400 15.8301 -0.7161
47.5600 15.8367 -0.7049
47.5800 15.8433 -0.7119
47.6000 15.8500 -0.7098
47.6200 15.8567 -0.7024
47.6400 15.8634 -0.7150
47.6600 15.8701 -0.7108
47.6800 15.8768 -0.7007
47.7000 15.8835 -0.7158
47.7200 15.8901 -0.7102
47.7400 15.8967 -0.7080
47.7600 15.9034 -0.7156
47.7800 15.9100 -0.7148
47.8000 15.9167 -0.7067
47.8200 15.9234 -0.7145
47.8400 15.9300 -0.7111
47.8600 15.9367 -0.7066
47.8800 15.9434 -0.7161
47.9000 15.9501 -0.7118
47.9200 15.9567 -0.7111
47.9400 15.9633 -0.7143
47.9600 15.9699 -0.7098
47.9800 15.9766 -0.7123
48.0000 15.9834 -0.7177
48.0200 15.9901 -0.7150
48.0400 15.9967 -0.7104
48.0600 16.0034 -0.7181
48.0800 16.0101 -0.7188
48.1000 16.0167 -0.7105
48.1200 16.0233 -0.7227
48.1400 16.0300 -0.7211
48.1600 16.0367 -0.7101
48.1800 16.0434 -0.7225
48.2000 16.0501 -0.7213
48.2200 16.0568 -0.7126
48.2400 16.0635 -0.7276
48.2600 16.0701 -0.7264
48.2800 16.0767 -0.7179
48.3000 16.0833 -0.7204
48.3200 16.0900 -0.7273
48.3400 16.0967 -0.7188
48.3600 16.1034 -0.7224
48.3800 16.1101 -0.7222
48.4000 16.1168 -0.7193
48.4200 16.1235 -0.7248
48.4400 16.1301 -0.7240
48.4600 16.1367 -0.7233
48.4800 16.1433 -0.7252
48.5000 16.1500 -0.7261
48.5200 16.1566 -0.7219
48.5400 16.1634 -0.7250
48.5600 16.1701 -0.7265
48.5800 16.1768 -0.7253
48.6000 16.1834 -0.7244
48.6200 16.1901 -0.7309
48.6400 16.1967 -0.7269
48.6600 16.2033 -0.7236
48.6800 16.2099 -0.7257
48.7000 16.2166 -0.7273
48.7200 16.2234 -0.7263
48.7400 16.2301 -0.7302
48.7600 16.2367 -0.7260
48.7800 16.2434 -0.7235
48.8000 16.2501 -0.7301
48.8200 16.2567 -0.7290
48.8400 16.2633 -0.7243
48.8600 16.2700 -0.7309
48.8800 16.2767 -0.7265
48.9000 16.2834 -0.7240
48.9200 16.2901 -0.7348
48.9400 16.2968 -0.7306
48.9600 16.3035 -0.7202
48.9800 16.3101 -0.7322
49.0000 16.3167 -0.7246
49.0200 16.3233 -0.7237
49.0400 16.3300 -0.7338
49.0600 16.3367 -0.7259
49.0800 16.3434 -0.7312
49.1000 16.3501 -0.7328
49.1200 16.3568 -0.7258
49.1400 16.3634 -0.7279
49.1600 16.3701 -0.7391
49.1800 16.3767 -0.7255
49.2000 16.3833 -0.7294
49.2200 16.3900 -0.7348
49.2400 16.3967 -0.7241
49.2600 16.4034 -0.7342
49.2800 16.4100 -0.7392
49.3000 16.4167 -0.7261
49.3200 16.4234 -0.7371
49.3400 16.4300 -0.7335
49.3600 16.4367 -0.7337
49.3800 16.4433 -0.7327
49.4000 16.4499 -0.7339
49.4200 16.4566 -0.7357
49.4400 16.4634 -0.7368
49.4600 16.4700 -0.7296
49.4800 16.4767 -0.7349
49.5000 16.4834 -0.7394
49.5200 16.4901 -0.7329
49.5400 16.4968 -0.7411
49.5600 16.5033 -0.7383
49.5800 16.5100 -0.7321
49.6000 16.5167 -0.7400
49.6200 16.5234 -0.7392
49.6400 16.5301 -0.7406
49.6600 16.5368 -0.7436
49.6800 16.5435 -0.7335
49.7000 16.5501 -0.7446
49.7200 16.5567 -0.7424
49.7400 16.5633 -0.7376
49.7600 16.5700 -0.7410
49.7800 16.5767 -0.7436
49.8000 16.5834 -0.7375
49.8200 16.5901 -0.7472
49.8400 16.5968 -0.7423
49.8600 16.6034 -0.7408
49.8800 16.6101 -0.7468
49.9000 16.6168 -0.7425
49.9200 16.6234 -0.7408
49.9400 16.6300 -0.7456
49.9600 16.6367 -0.7462
49.9800 16.6434 -0.7422
50.0000 16.6501 -0.7452
50.0200 16.6568 -0.7477
50.0400 16.6634 -0.7469
50.0600 16.6701 -0.7533
50.0800 16.6767 -0.7482
50.1000 16.6833 -0.7454
50.1200 16.6899 -0.7499
50.1400 16.6966 -0.7484
50.1600 16.7033 -0.7502
50.1800 16.7101 -0.7517
50.2000 16.7167 -0.7499
50.2200 16.7234 -0.7495
50.2400 16.7301 -0.7532
50.2600 16.7367 -0.7500
50.2800 16.7433 -0.7473
50.3000 16.7500 -0.7491
50.3200 16.7567 -0.7556
50.3400 16.7634 -0.7468
50.3600 16.7701 -0.7545
50.3800 16.7767 -0.7529
50.4000 16.7834 -0.7502
50.4200 16.7901 -0.7535
50.4400 16.7968 -0.7567
50.4600 16.8034 -0.7496
50.4800 16.8100 -0.7541
50.5000 16.8167 -0.7525
50.5200 16.8234 -0.7528
50.5400 16.8301 -0.7558
50.5600 16.8368 -0.7579
50.5800 16.8435 -0.7542
50.6000 16.8501 -0.7574
50.6200 16.8568 -0.7569
50.6400 16.8633 -0.7549
50.6600 16.8700 -0.7550
50.6800 16.8767 -0.7582
50.7000 16.8834 -0.7584
50.7200 16.8901 -0.7541
50.7400 16.8968 -0.7606
50.7600 16.9034 -0.7557
50.7800 16.9101 -0.7567
50.8000 16.9167 -0.7552
50.8200 16.9233 -0.7583
50.8400 16.9300 -0.7585
50.8600 16.9367 -0.7575
50.8800 16.9434 -0.7612
50.9000 16.9500 -0.7593
50.9200 16.9567 -0.7597
50.9400 16.9634 -0.7579
50.9600 16.9700 -0.7572
50.9800 16.9767 -0.7637
51.0000 16.9833 -0.7596
51.0200 16.9900 -0.7619
51.0400 16.9966 -0.7575
51.0600 17.0033 -0.7638
51.0800 17.0101 -0.7588
51.1000 17.0168 -0.7592
51.1200 17.0235 -0.7688
51.1400 17.0301 -0.7612
51.1600 17.0368 -0.7630
51.1800 17.0434 -0.7660
51.2000 17.0500 -0.7563
51.2200 17.0567 -0.7630
51.2400 17.0634 -0.7708
51.2600 17.0701 -0.7566
51.2800 17.0768 -0.7663
51.3000 17.0834 -0.7670
51.3200 17.0901 -0.7602
51.3400 17.0967 -0.7680
51.3600 17.1033 -0.7707
51.3800 17.1100 -0.7615
51.4000 17.1166 -0.7672
51.4200 17.1233 -0.7711
51.4400 17.1301 -0.7660
51.4600 17.1367 -0.7653
51.4800 17.1434 -0.7676
51.5000 17.1501 -0.7663
51.5200 17.1567 -0.7693
51.5400 17.1633 -0.7691
51.5600 17.1699 -0.7677
51.5800 17.1766 -0.7673
51.6000 17.1833 -0.7706
51.6200 17.1901 -0.7682
51.6400 17.1968 -0.7701
51.6600 17.2034 -0.7681
51.6800 17.2101 -0.7705
51.7000 17.2167 -0.7721
51.7200 17.2234 -0.7710
51.7400 17.2300 -0.7711
51.7600 17.2367 -0.7716
51.7800 17.2434 -0.7738
51.8000 17.2501 -0.7733
51.8200 17.2567 -0.7727
51.8400 17.2634 -0.7748
51.8600 17.2701 -0.7715
51.8800 17.2768 -0.7736
51.9000 17.2834 -0.7801
51.9200 17.2900 -0.7638
51.9400 17.2967 -0.7795
51.9600 17.3034 -0.7830
51.9800 17.3101 -0.7684
52.0000 17.3168 -0.7752
52.0200 17.3235 -0.7841
52.0400 17.3301 -0.7665
52.0600 17.3368 -0.7820
52.0800 17.3434 -0.7826
52.1000 17.3500 -0.7688
52.1200 17.3566 -0.7810
52.1400 17.3633 -0.7824
52.1600 17.3700 -0.7709
52.1800 17.3767 -0.7865
52.2000 17.3834 -0.7817
52.2200 17.3901 -0.7745
52.2400 17.3967 -0.7847
52.2600 17.4033 -0.7819
52.2800 17.4099 -0.7771
52.3000 17.4166 -0.7825
52.3200 17.4233 -0.7819
52.3400 17.4300 -0.7802
52.3600 17.4367 -0.7887
52.3800 17.4434 -0.7786
52.4000 17.4501 -0.7846
52.4200 17.4567 -0.7877
52.4400 17.4634 -0.7825
52.4600 17.4700 -0.7816
52.4800 17.4767 -0.7850
52.5000 17.4834 -0.7876
52.5200 17.4901 -0.7882
52.5400 17.4968 -0.7842
52.5600 17.5035 -0.7909
52.5800 17.5101 -0.7911
52.6000 17.5168 -0.7941
52.6200 17.5234 -0.7891
52.6400 17.5300 -0.7896
52.6600 17.5366 -0.7910
52.6800 17.5434 -0.7949
52.7000 17.5501 -0.7906
52.7200 17.5568 -0.7915
52.7400 17.5635 -0.7962
52.7600 17.5701 -0.7876
52.7800 17.5768 -0.7920
52.8000 17.5834 -0.7992
52.8200 17.5900 -0.7899
52.8400 17.5966 -0.7941
52.8600 17.6034 -0.8013
52.8800 17.6101 -0.7936
52.9000 17.6168 -0.7961
52.9200 17.6234 -0.8003
52.9400 17.6301 -0.7941
52.9600 17.6368 -0.7948
52.9800 17.6434 -0.8030
53.0000 17.6500 -0.7930
53.0200 17.6566 -0.7971
53.0400 17.6633 -0.8003
53.0600 17.6700 -0.7986
53.0800 17.6767 -0.7972
53.1000 17.6834 -0.8028
53.1200 17.6901 -0.7982
53.1400 17.6967 -0.8021
53.1600 17.7034 -0.8006
53.1800 17.7100 -0.7990
53.2000 17.7166 -0.8018
53.2200 17.7234 -0.8040
53.2400 17.7301 -0.8003
53.2600 17.7368 -0.8046
53.2800 17.7435 -0.8025
53.3000 17.7501 -0.7993
53.3200 17.7568 -0.8083
53.3400 17.7634 -0.8024
53.3600 17.7700 -0.7986
53.3800 17.7766 -0.8087
53.4000 17.7834 -0.8027
53.4200 17.7901 -0.8045
53.4400 17.7968 -0.8102
53.4600 17.8035 -0.8029
53.4800 17.8101 -0.8029
53.5000 17.8168 -0.8098
53.5200 17.8234 -0.8062
53.5400 17.8300 -0.8031
53.5600 17.8366 -0.8109
53.5800 17.8433 -0.8048
53.6000 17.8500 -0.8099
53.6200 17.8567 -0.8038
53.6400 17.8634 -0.8069
53.6600 17.8701 -0.8111
53.6800 17.8767 -0.8119
53.7000 17.8834 -0.8049
53.7200 17.8900 -0.8111
53.7400 17.8966 -0.8084
53.7600 17.9033 -0.8076
53.7800 17.9100 -0.8087
53.8000 17.9167 -0.8114
53.8200 17.9234 -0.8111
53.8400 17.9301 -0.8131
53.8600 17.9367 -0.8092
53.8800 17.9434 -0.8157
53.9000 17.9500 -0.8146
53.9200 17.9567 -0.8069
53.9400 17.9634 -0.8151
53.9600 17.9701 -0.8134
53.9800 17.9767 -0.8124
54.0000 17.9834 -0.8179
54.0200 17.9901 -0.8145
54.0400 17.9968 -0.8135
54.0600 18.0034 -0.8230
54.0800 18.0100 -0.8119
54.1000 18.0166 -0.8124
54.1200 18.0233 -0.8241
54.1400 18.0300 -0.8156
54.1600 18.0367 -0.8147
54.1800 18.0434 -0.8290
54.2000 18.0501 -0.8138
54.2200 18.0568 -0.8205
54.2400 18.0634 -0.8255
54.2600 18.0700 -0.8196
54.2800 18.0767 -0.8199
54.3000 18.0834 -0.8231
54.3200 18.0901 -0.8248
54.3400 18.0968 -0.8238
54.3600 18.1034 -0.8260
54.3800 18.1101 -0.8193
54.4000 18.1168 -0.8265
54.4200 18.1234 -0.8311
54.4400 18.1300 -0.8199
54.4600 18.1366 -0.8266
54.4800 18.1433 -0.8279
54.5000 18.1500 -0.8238
54.5200 18.1567 -0.8303
54.5400 18.1634 -0.8266
54.5600 18.1700 -0.8290
54.5800 18.1767 -0.8284
54.6000 18.1834 -0.8273
54.6200 18.1900 -0.8304
54.6400 18.1966 -0.8328
54.6600 18.2033 -0.8238
54.6800 18.2100 -0.8317
54.7000 18.2168 -0.8307
54.7200 18.2235 -0.8247
54.7400 18.2302 -0.8338
54.7600 18.2368 -0.8287
54.7800 18.2434 -0.8233
54.8000 18.2500 -0.8327
54.8200 18.2567 -0.8245
54.8400 18.2633 -0.8285
54.8600 18.2701 -0.8351
54.8800 18.2768 -0.8292
54.9000 18.2835 -0.8257
54.9200 18.2901 -0.8315
54.9400 18.2968 -0.8276
54.9600 18.3034 -0.8279
54.9800 18.3100 -0.8380
55.0000 18.3166 -0.8272
55.0200 18.3233 -0.8284
55.0400 18.3300 -0.8355
55.0600 18.3367 -0.8271
55.0800 18.3434 -0.8317
55.1000 18.3501 -0.8377
55.1200 18.3568 -0.8322
55.1400 18.3634 -0.8339
55.1600 18.3700 -0.8335
55.1800 18.3766 -0.8377
55.2000 18.3833 -0.8296
55.2200 18.3900 -0.8378
55.2400 18.3967 -0.8375
55.2600 18.4034 -0.8348
55.2800 18.4101 -0.8372
55.3000 18.4167 -0.8406
55.3200 18.4234 -0.8343
55.3400 18.4300 -0.8443
55.3600 18.4366 -0.8384
55.3800 18.4433 -0.8350
55.4000 18.4501 -0.8446
55.4200 18.4568 -0.8421
55.4400 18.4634 -0.8387
55.4600 18.4701 -0.8468
55.4800 18.4768 -0.8417
55.5000 18.4834 -0.8433
55.5200 18.4900 -0.8494
55.5400 18.4967 -0.8432
55.5600 18.5034 -0.8423
55.5800 18.5101 -0.8516
55.6000 18.5168 -0.8482
55.6200 18.5234 -0.8414
55.6400 18.5301 -0.8536
55.6600 18.5368 -0.8467
55.6800 18.5434 -0.8483
55.7000 18.5500 -0.8540
55.7200 18.5566 -0.8472
55.7400 18.5633 -0.8488
55.7600 18.5700 -0.8603
55.7800 18.5767 -0.8434
55.8000 18.5834 -0.8544
55.8200 18.5901 -0.8576
55.8400 18.5968 -0.8523
55.8600 18.6034 -0.8508
55.8800 18.6100 -0.8574
55.9000 18.6166 -0.8524
55.9200 18.6233 -0.8513
55.9400 18.6300 -0.8593
55.9600 18.6367 -0.8547
55.9800 18.6434 -0.8541
56.0000 18.6501 -0.8607
56.0200 18.6568 -0.8532
56.0400 18.6634 -0.8586
56.0600 18.6700 -0.8636
56.0800 18.6767 -0.8569
56.1000 18.6833 -0.8565
56.1200 18.6900 -0.8638
56.1400 18.6967 -0.8606
56.1600 18.7034 -0.8565
56.1800 18.7101 -0.8647
56.2000 18.7168 -0.8665
56.2200 18.7235 -0.8610
56.2400 18.7300 -0.8616
56.2600 18.7366 -0.8636
56.2800 18.7433 -0.8595
56.3000 18.7500 -0.8654
56.3200 18.7568 -0.8615
56.3400 18.7634 -0.8651
56.3600 18.7701 -0.8648
56.3800 18.7768 -0.8653
56.4000 18.7834 -0.8617
56.4200 18.7900 -0.8667
56.4400 18.7967 -0.8645
56.4600 18.8033 -0.8655
56.4800 18.8100 -0.8699
56.5000 18.8167 -0.8672
56.5200 18.8234 -0.8621
56.5400 18.8301 -0.8683
56.5600 18.8367 -0.8681
56.5800 18.8434 -0.8636
56.6000 18.8500 -0.8710
56.6200 18.8566 -0.8705
56.6400 18.8632 -0.8618
56.6600 18.8700 -0.8693
56.6800 18.8767 -0.8744
56.7000 18.8834 -0.8626
56.7200 18.8901 -0.8731
56.7400 18.8968 -0.8705
56.7600 18.9034 -0.8643
56.7800 18.9100 -0.8770
56.8000 18.9166 -0.8717
56.8200 18.9233 -0.8667
56.8400 18.9300 -0.8825
56.8600 18.9368 -0.8651
56.8800 18.9435 -0.8657
56.9000 18.9501 -0.8826
56.9200 18.9568 -0.8709
56.9400 18.9634 -0.8625
56.9600 18.9700 -0.8814
56.9800 18.9767 -0.8638
57.0000 18.9833 -0.8692
57.0200 18.9901 -0.8826
57.0400 18.9968 -0.8718
57.0600 19.0034 -0.8733
57.0800 19.0101 -0.8813
57.1000 19.0168 -0.8734
57.1200 19.0234 -0.8757
57.1400 19.0300 -0.8828
57.1600 19.0366 -0.8698
57.1800 19.0433 -0.8771
57.2000 19.0500 -0.8795
57.2200 19.0567 -0.8747
57.2400 19.0634 -0.8799
57.2600 19.0701 -0.8779
57.2800 19.0768 -0.8736
57.3000 19.0834 -0.8840
57.3200 19.0900 -0.8824
57.3400 19.0966 -0.8756
57.3600 19.1033 -0.8799
57.3800 19.1100 -0.8865
57.4000 19.1167 -0.8753
57.4200 19.1234 -0.8840
57.4400 19.1301 -0.8845
57.4600 19.1367 -0.8769
57.4800 19.1434 -0.8817
57.5000 19.1500 -0.8821
57.5200 19.1567 -0.8812
57.5400 19.1633 -0.8829
57.5600 19.1700 -0.8882
57.5800 19.1767 -0.8839
57.6000 19.1834 -0.8822
57.6200 19.1901 -0.8888
57.6400 19.1968 -0.8838
57.6600 19.2035 -0.8877
57.6800 19.2101 -0.8876
57.7000 19.2167 -0.8808
57.7200 19.2233 -0.8834
57.7400 19.2300 -0.8937
57.7600 19.2368 -0.8901
57.7800 19.2435 -0.8879
57.8000 19.2501 -0.8943
57.8200 19.2568 -0.8880
57.8400 19.2635 -0.8922
57.8600 19.2701 -0.8957
57.8800 19.2767 -0.8899
57.9000 19.2833 -0.8922
57.9200 19.2900 -0.8961
57.9400 19.2967 -0.8852
57.9600 19.3034 -0.8970
57.9800 19.3101 -0.8958
58.0000 19.3167 -0.8892
58.0200 19.3234 -0.8949
58.0400 19.3300 -0.9015
58.0600 19.3366 -0.8864
58.0800 19.3433 -0.8986
58.1000 19.3500 -0.8973
58.1200 19.3567 -0.8913
58.1400 19.3634 -0.9001
58.1600 19.3700 -0.8963
58.1800 19.3767 -0.8954
58.2000 19.3834 -0.9039
58.2200 19.3901 -0.8980
58.2400 19.3967 -0.8968
58.2600 19.4033 -0.9027
58.2800 19.4100 -0.9036
58.3000 19.4167 -0.8999
58.3200 19.4234 -0.9040
58.3400 19.4301 -0.9034
58.3600 19.4368 -0.9038
58.3800 19.4435 -0.9064
58.4000 19.4501 -0.9021
58.4200 19.4567 -0.9077
58.4400 19.4633 -0.9053
58.4600 19.4700 -0.9048
58.4800 19.4767 -0.9060
58.5000 19.4834 -0.9109
58.5200 19.4901 -0.9050
58.5400 19.4968 -0.9118
58.5600 19.5034 -0.9111
58.5800 19.5101 -0.9133
58.6000 19.5167 -0.9105
58.6200 19.5233 -0.9090
58.6400 19.5300 -0.9139
58.6600 19.5367 -0.9184
58.6800 19.5434 -0.9153
58.7000 19.5501 -0.9161
58.7200 19.5568 -0.9137
58.7400 19.5634 -0.9201
58.7600 19.5700 -0.9204
58.7800 19.5766 -0.9172
58.8000 19.5833 -0.9174
58.8200 19.5900 -0.9233
58.8400 19.5967 -0.9247
58.8600 19.6034 -0.9215
58.8800 19.6100 -0.9298
58.9000 19.6167 -0.9329
58.9200 19.6234 -0.9394
58.9400 19.6300 -0.9530
58.9600 19.6366 -0.9603
58.9800 19.6433 -0.9641
59.0000 19.6500 -0.9603
59.0200 19.6567 -0.9622
59.0400 19.6634 -0.9656
59.0600 19.6701 -0.9650
59.0800 19.6768 -0.9634
59.1000 19.6835 -0.9623
59.1200 19.6901 -0.9658
59.1400 19.6967 -0.9681
59.1600 19.7034 -0.9668
59.1800 19.7100 -0.9617
59.2000 19.7167 -0.9717
59.2200 19.7234 -0.9679
59.2400 19.7301 -0.9633
59.2600 19.7368 -0.9725
59.2800 19.7435 -0.9729
59.3000 19.7500 -0.9747
