Raw Data
Time Displacement Force
(s) (mm) (N)
0.0000 0.0000 0.3472
0.0200 0.0000 0.3610
0.0400 0.0008 0.3694
0.0600 0.0040 0.3905
0.0800 0.0094 0.3538
0.1000 0.0152 0.3386
0.1200 0.0211 0.3734
0.1400 0.0277 0.3631
0.1600 0.0350 0.3494
0.1800 0.0425 0.3595
0.2000 0.0497 0.3420
0.2200 0.0566 0.3447
0.2400 0.0632 0.3686
0.2600 0.0698 0.3505
0.2800 0.0765 0.3505
0.3000 0.0832 0.3646
0.3200 0.0899 0.3572
0.3400 0.0966 0.3599
0.3600 0.1034 0.3593
0.3800 0.1100 0.3567
0.4000 0.1167 0.3713
0.4200 0.1233 0.3562
0.4400 0.1300 0.3686
0.4600 0.1366 0.3709
0.4800 0.1433 0.3613
0.5000 0.1500 0.3707
0.5200 0.1567 0.3708
0.5400 0.1634 0.3675
0.5600 0.1701 0.3795
0.5800 0.1767 0.3701
0.6000 0.1833 0.3717
0.6200 0.1899 0.3852
0.6400 0.1966 0.3742
0.6600 0.2034 0.3709
0.6800 0.2101 0.3883
0.7000 0.2167 0.3740
0.7200 0.2234 0.3743
0.7400 0.2301 0.3950
0.7600 0.2367 0.3704
0.7800 0.2433 0.3878
0.8000 0.2499 0.3909
0.8200 0.2566 0.3741
0.8400 0.2633 0.3847
0.8600 0.2700 0.3937
0.8800 0.2767 0.3842
0.9000 0.2834 0.3941
0.9200 0.2901 0.3879
0.9400 0.2967 0.3839
0.9600 0.3033 0.3976
0.9800 0.3099 0.3946
1.0000 0.3166 0.3855
1.0200 0.3233 0.3941
1.0400 0.3300 0.3860
1.0600 0.3367 0.3896
1.0800 0.3434 0.3900
1.1000 0.3500 0.3861
1.1200 0.3566 0.3923
1.1400 0.3633 0.3887
1.1600 0.3699 0.3913
1.1800 0.3766 0.3886
1.2000 0.3834 0.3913
1.2200 0.3901 0.3839
1.2400 0.3967 0.3857
1.2600 0.4034 0.3883
1.2800 0.4101 0.3831
1.3000 0.4167 0.3843
1.3200 0.4233 0.3830
1.3400 0.4300 0.3879
1.3600 0.4367 0.3917
1.3800 0.4434 0.3764
1.4000 0.4501 0.3875
1.4200 0.4567 0.3847
1.4400 0.4634 0.3762
1.4600 0.4701 0.3811
1.4800 0.4767 0.3843
1.5000 0.4833 0.3796
1.5200 0.4899 0.3806
1.5400 0.4966 0.3853
1.5600 0.5033 0.3694
1.5800 0.5100 0.3814
1.6000 0.5167 0.3809
1.6200 0.5234 0.3673
1.6400 0.5300 0.3807
1.6600 0.5366 0.3809
1.6800 0.5433 0.3631
1.7000 0.5499 0.3859
1.7200 0.5566 0.3771
1.7400 0.5633 0.3637
1.7600 0.5700 0.3797
1.7800 0.5767 0.3707
1.8000 0.5834 0.3647
1.8200 0.5900 0.3852
1.8400 0.5967 0.3739
1.8600 0.6033 0.3652
1.8800 0.6100 0.3743
1.9000 0.6167 0.3692
1.9200 0.6233 0.3655
1.9400 0.6300 0.3728
1.9600 0.6367 0.3634
1.9800 0.6434 0.3660
2.0000 0.6501 0.3764
2.0200 0.6567 0.3585
2.0400 0.6633 0.3702
2.0600 0.6699 0.3731
2.0800 0.6766 0.3598
2.1000 0.6834 0.3630
2.1200 0.6901 0.3701
2.1400 0.6967 0.3610
2.1600 0.7034 0.3630
2.1800 0.7101 0.3639
2.2000 0.7167 0.3668
2.2200 0.7233 0.3700
2.2400 0.7299 0.3633
2.2600 0.7366 0.3675
2.2800 0.7434 0.3636
2.3000 0.7500 0.3524
2.3200 0.7567 0.3686
2.3400 0.7634 0.3591
2.3600 0.7700 0.3621
2.3800 0.7767 0.3654
2.4000 0.7833 0.3517
2.4200 0.7899 0.3642
2.4400 0.7966 0.3709
2.4600 0.8033 0.3522
2.4800 0.8100 0.3576
2.5000 0.8167 0.3653
2.5200 0.8234 0.3468
2.5400 0.8301 0.3658
2.5600 0.8367 0.3633
2.5800 0.8433 0.3446
2.6000 0.8499 0.3620
2.6200 0.8566 0.3610
2.6400 0.8634 0.3468
2.6600 0.8701 0.3668
2.6800 0.8768 0.3580
2.7000 0.8834 0.3452
2.7200 0.8901 0.3606
2.7400 0.8967 0.3576
2.7600 0.9033 0.3452
2.7800 0.9099 0.3650
2.8000 0.9166 0.3471
2.8200 0.9234 0.3489
2.8400 0.9301 0.3626
2.8600 0.9367 0.3509
2.8800 0.9434 0.3526
2.9000 0.9501 0.3541
2.9200 0.9567 0.3465
2.9400 0.9633 0.3524
2.9600 0.9699 0.3526
2.9800 0.9766 0.3480
3.0000 0.9833 0.3515
3.0200 0.9900 0.3519
3.0400 0.9967 0.3498
3.0600 1.0034 0.3544
3.0800 1.0101 0.3508
3.1000 1.0167 0.3485
3.1200 1.0233 0.3536
3.1400 1.0299 0.3484
3.1600 1.0366 0.3544
3.1800 1.0433 0.3444
3.2000 1.0500 0.3470
3.2200 1.0567 0.3494
3.2400 1.0634 0.3456
3.2600 1.0700 0.3450
3.2800 1.0767 0.3562
3.3000 1.0833 0.3471
3.3200 1.0899 0.3433
3.3400 1.0966 0.3502
3.3600 1.1033 0.3459
3.3800 1.1100 0.3472
3.4000 1.1167 0.3465
3.4200 1.1234 0.3440
3.4400 1.1301 0.3408
3.4600 1.1368 0.3471
3.4800 1.1434 0.3419
3.5000 1.1500 0.3468
3.5200 1.1566 0.3450
3.5400 1.1633 0.3402
3.5600 1.1700 0.3403
3.5800 1.1767 0.3508
3.6000 1.1834 0.3364
3.6200 1.1901 0.3395
3.6400 1.1967 0.3452
3.6600 1.2033 0.3417
3.6800 1.2099 0.3435
3.7000 1.2166 0.3449
3.7200 1.2233 0.3412
3.7400 1.2300 0.3411
3.7600 1.2367 0.3435
3.7800 1.2434 0.3363
3.8000 1.2501 0.3417
3.8200 1.2567 0.3375
3.8400 1.2633 0.3353
3.8600 1.2700 0.3442
3.8800 1.2766 0.3391
3.9000 1.2833 0.3359
3.9200 1.2900 0.3368
3.9400 1.2967 0.3340
3.9600 1.3033 0.3450
3.9800 1.3100 0.3322
4.0000 1.3167 0.3386
4.0200 1.3233 0.3445
4.0400 1.3300 0.3304
4.0600 1.3366 0.3335
4.0800 1.3433 0.3499
4.1000 1.3500 0.3303
4.1200 1.3567 0.3341
4.1400 1.3634 0.3425
4.1600 1.3701 0.3277
4.1800 1.3767 0.3376
4.2000 1.3833 0.3413
4.2200 1.3899 0.3243
4.2400 1.3966 0.3398
4.2600 1.4034 0.3388
4.2800 1.4101 0.3205
4.3000 1.4168 0.3441
4.3200 1.4234 0.3385
4.3400 1.4301 0.3244
4.3600 1.4367 0.3379
4.3800 1.4434 0.3418
4.4000 1.4500 0.3312
4.4200 1.4566 0.3394
4.4400 1.4633 0.3354
4.4600 1.4700 0.3324
4.4800 1.4767 0.3325
4.5000 1.4834 0.3340
4.5200 1.4900 0.3343
4.5400 1.4967 0.3341
4.5600 1.5033 0.3313
4.5800 1.5099 0.3342
4.6000 1.5166 0.3383
4.6200 1.5233 0.3360
4.6400 1.5300 0.3284
4.6600 1.5367 0.3324
4.6800 1.5434 0.3340
4.7000 1.5501 0.3340
4.7200 1.5567 0.3286
4.7400 1.5633 0.3384
4.7600 1.5700 0.3311
4.7800 1.5766 0.3273
4.8000 1.5833 0.3424
4.8200 1.5901 0.3275
4.8400 1.5968 0.3280
4.8600 1.6034 0.3392
4.8800 1.6101 0.3272
4.9000 1.6168 0.3270
4.9200 1.6234 0.3430
4.9400 1.6300 0.3271
4.9600 1.6366 0.3253
4.9800 1.6433 0.3375
5.0000 1.6501 0.3257
5.0200 1.6567 0.3284
5.0400 1.6634 0.3422
5.0600 1.6701 0.3164
5.0800 1.6768 0.3276
5.1000 1.6834 0.3416
5.1200 1.6900 0.3202
5.1400 1.6966 0.3267
5.1600 1.7033 0.3372
5.1800 1.7100 0.3173
5.2000 1.7167 0.3289
5.2200 1.7234 0.3359
5.2400 1.7301 0.3246
5.2600 1.7367 0.3260
5.2800 1.7434 0.3272
5.3000 1.7499 0.3250
5.3200 1.7566 0.3312
5.3400 1.7633 0.3262
5.3600 1.7700 0.3196
5.3800 1.7767 0.3258
5.4000 1.7834 0.3285
5.4200 1.7900 0.3222
5.4400 1.7967 0.3221
5.4600 1.8033 0.3358
5.4800 1.8100 0.3202
5.5000 1.8166 0.3176
5.5200 1.8233 0.3316
5.5400 1.8300 0.3162
5.5600 1.8367 0.3164
5.5800 1.8434 0.3320
5.6000 1.8501 0.3143
5.6200 1.8568 0.3172
5.6400 1.8634 0.3278
5.6600 1.8700 0.3174
5.6800 1.8766 0.3201
5.7000 1.8833 0.3268
5.7200 1.8900 0.3122
5.7400 1.8967 0.3188
5.7600 1.9034 0.3251
5.7800 1.9101 0.3123
5.8000 1.9167 0.3177
5.8200 1.9234 0.3209
5.8400 1.9300 0.3207
5.8600 1.9366 0.3210
5.8800 1.9433 0.3208
5.9000 1.9500 0.3099
5.9200 1.9567 0.3176
5.9400 1.9633 0.3174
5.9600 1.9700 0.3143
5.9800 1.9767 0.3132
6.0000 1.9833 0.3201
6.0200 1.9899 0.3157
6.0400 1.9966 0.3122
6.0600 2.0033 0.3230
6.0800 2.0100 0.3152
6.1000 2.0167 0.3071
6.1200 2.0234 0.3264
6.1400 2.0301 0.3101
6.1600 2.0368 0.3013
6.1800 2.0434 0.3205
6.2000 2.0500 0.3125
6.2200 2.0566 0.3090
6.2400 2.0633 0.3153
6.2600 2.0700 0.3116
6.2800 2.0767 0.3096
6.3000 2.0834 0.3211
6.3200 2.0901 0.3076
6.3400 2.0968 0.3049
6.3600 2.1034 0.3139
6.3800 2.1100 0.3045
6.4000 2.1166 0.3092
6.4200 2.1233 0.3198
6.4400 2.1300 0.3068
6.4600 2.1367 0.3026
6.4800 2.1434 0.3153
6.5000 2.1501 0.3151
6.5200 2.1568 0.3046
6.5400 2.1634 0.3094
6.5600 2.1700 0.3038
6.5800 2.1766 0.3050
6.6000 2.1833 0.3094
6.6200 2.1900 0.3107
6.6400 2.1967 0.3037
6.6600 2.2034 0.3038
6.6800 2.2101 0.3084
6.7000 2.2168 0.3076
6.7200 2.2234 0.3077
6.7400 2.2300 0.3024
6.7600 2.2366 0.3054
6.7800 2.2432 0.3024
6.8000 2.2500 0.3076
6.8200 2.2567 0.3026
6.8400 2.2634 0.3026
6.8600 2.2700 0.3070
6.8800 2.2767 0.3056
6.9000 2.2834 0.3006
6.9200 2.2900 0.3120
6.9400 2.2966 0.3010
6.9600 2.3033 0.3012
6.9800 2.3100 0.3097
7.0000 2.3167 0.2986
7.0200 2.3234 0.3009
7.0400 2.3301 0.3096
7.0600 2.3367 0.2952
7.0800 2.3434 0.3012
7.1000 2.3500 0.3132
7.1200 2.3566 0.2975
7.1400 2.3633 0.3060
7.1600 2.3700 0.3069
7.1800 2.3767 0.2947
7.2000 2.3834 0.3051
7.2200 2.3901 0.3065
7.2400 2.3968 0.2930
7.2600 2.4034 0.3039
7.2800 2.4100 0.3052
7.3000 2.4166 0.3004
7.3200 2.4233 0.3001
7.3400 2.4300 0.3082
7.3600 2.4367 0.2969
7.3800 2.4434 0.2993
7.4000 2.4501 0.3048
7.4200 2.4567 0.2966
7.4400 2.4634 0.2980
7.4600 2.4700 0.3060
7.4800 2.4766 0.2951
7.5000 2.4833 0.2981
7.5200 2.4900 0.3029
7.5400 2.4967 0.2964
7.5600 2.5033 0.2998
7.5800 2.5100 0.3035
7.6000 2.5167 0.2945
7.6200 2.5234 0.2946
7.6400 2.5300 0.3028
7.6600 2.5366 0.2934
7.6800 2.5433 0.2988
7.7000 2.5500 0.3019
7.7200 2.5567 0.2965
7.7400 2.5634 0.2957
7.7600 2.5701 0.2999
7.7800 2.5768 0.2902
7.8000 2.5834 0.2903
7.8200 2.5900 0.3032
7.8400 2.5966 0.2993
7.8600 2.6033 0.2893
7.8800 2.6100 0.2989
7.9000 2.6167 0.2918
7.9200 2.6234 0.2916
7.9400 2.6301 0.3070
7.9600 2.6367 0.2923
7.9800 2.6434 0.2883
8.0000 2.6500 0.3010
8.0200 2.6566 0.2883
8.0400 2.6633 0.2955
8.0600 2.6700 0.3039
8.0800 2.6767 0.2825
8.1000 2.6834 0.2896
8.1200 2.6901 0.2983
8.1400 2.6967 0.2866
8.1600 2.7034 0.2927
8.1800 2.7100 0.2990
8.2000 2.7166 0.2823
8.2200 2.7232 0.2949
8.2400 2.7299 0.3000
8.2600 2.7367 0.2836
8.2800 2.7434 0.2882
8.3000 2.7501 0.2979
8.3200 2.7568 0.2808
8.3400 2.7634 0.2869
8.3600 2.7700 0.2920
8.3800 2.7766 0.2844
8.4000 2.7833 0.2896
8.4200 2.7900 0.2858
8.4400 2.7967 0.2839
8.4600 2.8034 0.2870
8.4800 2.8101 0.2904
8.5000 2.8168 0.2865
8.5200 2.8234 0.2828
8.5400 2.8300 0.2873
8.5600 2.8366 0.2896
8.5800 2.8433 0.2820
8.6000 2.8500 0.2869
8.6200 2.8567 0.2874
8.6400 2.8634 0.2805
8.6600 2.8701 0.2788
8.6800 2.8768 0.2897
8.7000 2.8834 0.2798
8.7200 2.8900 0.2825
8.7400 2.8966 0.2835
8.7600 2.9033 0.2802
8.7800 2.9100 0.2845
8.8000 2.9167 0.2852
8.8200 2.9234 0.2764
8.8400 2.9301 0.2791
8.8600 2.9367 0.2870
8.8800 2.9434 0.2753
8.9000 2.9500 0.2746
8.9200 2.9566 0.2876
8.9400 2.9632 0.2730
8.9600 2.9699 0.2733
8.9800 2.9766 0.2873
9.0000 2.9833 0.2795
9.0200 2.9900 0.2841
9.0400 2.9967 0.2823
9.0600 3.0034 0.2730
9.0800 3.0100 0.2773
9.1000 3.0166 0.2919
9.1200 3.0233 0.2713
9.1400 3.0300 0.2803
9.1600 3.0367 0.2850
9.1800 3.0434 0.2744
9.2000 3.0501 0.2798
9.2200 3.0568 0.2892
9.2400 3.0634 0.2710
9.2600 3.0701 0.2756
9.2800 3.0766 0.2833
9.3000 3.0833 0.2749
9.3200 3.0900 0.2829
9.3400 3.0967 0.2832
9.3600 3.1034 0.2720
9.3800 3.1101 0.2799
9.4000 3.1168 0.2818
9.4200 3.1234 0.2713
9.4400 3.1300 0.2830
9.4600 3.1366 0.2844
9.4800 3.1433 0.2737
9.5000 3.1500 0.2754
9.5200 3.1567 0.2825
9.5400 3.1634 0.2701
9.5600 3.1701 0.2798
9.5800 3.1767 0.2841
9.6000 3.1834 0.2678
9.6200 3.1900 0.2787
9.6400 3.1966 0.2884
9.6600 3.2033 0.2750
9.6800 3.2100 0.2789
9.7000 3.2167 0.2790
9.7200 3.2233 0.2749
9.7400 3.2300 0.2756
9.7600 3.2367 0.2760
9.7800 3.2434 0.2739
9.8000 3.2500 0.2859
9.8200 3.2566 0.2763
9.8400 3.2633 0.2674
9.8600 3.2700 0.2876
9.8800 3.2767 0.2798
9.9000 3.2834 0.2655
9.9200 3.2901 0.2812
9.9400 3.2968 0.2787
9.9600 3.3034 0.2686
9.9800 3.3100 0.2758
10.0000 3.3166 0.2781
10.0200 3.3233 0.2795
10.0400 3.3300 0.2743
10.0600 3.3367 0.2712
10.0800 3.3434 0.2705
10.1000 3.3501 0.2928
10.1200 3.3567 0.2696
10.1400 3.3634 0.2618
10.1600 3.3700 0.2788
10.1800 3.3766 0.2797
10.2000 3.3833 0.2651
10.2200 3.3900 0.2714
10.2400 3.3967 0.2830
10.2600 3.4033 0.2658
10.2800 3.4100 0.2709
10.3000 3.4167 0.2854
10.3200 3.4234 0.2671
10.3400 3.4300 0.2710
10.3600 3.4366 0.2806
10.3800 3.4432 0.2606
10.4000 3.4499 0.2741
10.4200 3.4567 0.2789
10.4400 3.4634 0.2597
10.4600 3.4700 0.2719
10.4800 3.4767 0.2839
10.5000 3.4834 0.2587
10.5200 3.4900 0.2692
10.5400 3.4966 0.2743
10.5600 3.5033 0.2681
10.5800 3.5100 0.2697
10.6000 3.5167 0.2693
10.6200 3.5234 0.2585
10.6400 3.5300 0.2711
10.6600 3.5367 0.2661
10.6800 3.5434 0.2631
10.7000 3.5501 0.2713
10.7200 3.5567 0.2632
10.7400 3.5633 0.2633
10.7600 3.5700 0.2675
10.7800 3.5767 0.2672
10.8000 3.5834 0.2637
10.8200 3.5901 0.2653
10.8400 3.5967 0.2647
10.8600 3.6034 0.2629
10.8800 3.6100 0.2626
10.9000 3.6166 0.2656
10.9200 3.6233 0.2640
10.9400 3.6300 0.2635
10.9600 3.6367 0.2636
10.9800 3.6434 0.2638
11.0000 3.6501 0.2560
11.0200 3.6567 0.2618
11.0400 3.6634 0.2609
11.0600 3.6700 0.2601
11.0800 3.6766 0.2614
11.1000 3.6832 0.2651
11.1200 3.6899 0.2592
11.1400 3.6967 0.2589
11.1600 3.7034 0.2614
11.1800 3.7100 0.2570
11.2000 3.7167 0.2592
11.2200 3.7234 0.2587
11.2400 3.7300 0.2560
11.2600 3.7366 0.2569
11.2800 3.7433 0.2627
11.3000 3.7500 0.2545
11.3200 3.7567 0.2569
11.3400 3.7634 0.2611
11.3600 3.7701 0.2519
11.3800 3.7768 0.2552
11.4000 3.7835 0.2671
11.4200 3.7901 0.2472
11.4400 3.7967 0.2533
11.4600 3.8033 0.2614
11.4800 3.8100 0.2493
11.5000 3.8167 0.2546
11.5200 3.8234 0.2624
11.5400 3.8301 0.2480
11.5600 3.8368 0.2544
11.5800 3.8434 0.2597
11.6000 3.8501 0.2466
11.6200 3.8567 0.2566
11.6400 3.8633 0.2615
11.6600 3.8700 0.2435
11.6800 3.8766 0.2557
11.7000 3.8833 0.2584
11.7200 3.8900 0.2467
11.7400 3.8967 0.2547
11.7600 3.9034 0.2491
11.7800 3.9100 0.2476
11.8000 3.9166 0.2549
11.8200 3.9232 0.2528
11.8400 3.9299 0.2457
11.8600 3.9366 0.2542
11.8800 3.9433 0.2451
11.9000 3.9500 0.2459
11.9200 3.9567 0.2532
11.9400 3.9634 0.2489
11.9600 3.9700 0.2428
11.9800 3.9766 0.2492
12.0000 3.9833 0.2476
12.0200 3.9900 0.2513
12.0400 3.9967 0.2427
12.0600 4.0034 0.2484
12.0800 4.0101 0.2463
12.1000 4.0167 0.2404
12.1200 4.0234 0.2519
12.1400 4.0301 0.2451
12.1600 4.0367 0.2394
12.1800 4.0433 0.2545
12.2000 4.0500 0.2442
12.2200 4.0567 0.2296
12.2400 4.0634 0.2531
12.2600 4.0701 0.2447
12.2800 4.0767 0.2361
12.3000 4.0834 0.2511
12.3200 4.0901 0.2464
12.3400 4.0967 0.2304
12.3600 4.1033 0.2509
12.3800 4.1099 0.2436
12.4000 4.1166 0.2384
12.4200 4.1234 0.2509
12.4400 4.1300 0.2359
12.4600 4.1367 0.2399
12.4800 4.1434 0.2523
12.5000 4.1501 0.2342
12.5200 4.1567 0.2368
12.5400 4.1633 0.2493
12.5600 4.1699 0.2411
12.5800 4.1766 0.2392
12.6000 4.1833 0.2477
12.6200 4.1900 0.2320
12.6400 4.1967 0.2387
12.6600 4.2034 0.2528
12.6800 4.2101 0.2339
12.7000 4.2167 0.2354
12.7200 4.2233 0.2522
12.7400 4.2300 0.2382
12.7600 4.2367 0.2275
12.7800 4.2434 0.2557
12.8000 4.2501 0.2366
12.8200 4.2568 0.2286
12.8400 4.2634 0.2488
12.8600 4.2701 0.2395
12.8800 4.2767 0.2285
12.9000 4.2833 0.2513
12.9200 4.2900 0.2361
12.9400 4.2967 0.2350
12.9600 4.3034 0.2451
12.9800 4.3101 0.2318
13.0000 4.3168 0.2385
13.0200 4.3234 0.2464
13.0400 4.3301 0.2274
13.0600 4.3367 0.2382
13.0800 4.3433 0.2464
13.1000 4.3500 0.2280
13.1200 4.3567 0.2392
13.1400 4.3634 0.2442
13.1600 4.3700 0.2305
13.1800 4.3767 0.2378
13.2000 4.3834 0.2450
13.2200 4.3901 0.2320
13.2400 4.3967 0.2353
13.2600 4.4033 0.2413
13.2800 4.4099 0.2370
13.3000 4.4166 0.2304
13.3200 4.4233 0.2403
13.3400 4.4300 0.2379
13.3600 4.4367 0.2322
13.3800 4.4434 0.2339
13.4000 4.4501 0.2428
13.4200 4.4567 0.2332
13.4400 4.4633 0.2321
13.4600 4.4699 0.2359
13.4800 4.4767 0.2368
13.5000 4.4834 0.2351
13.5200 4.4901 0.2334
13.5400 4.4968 0.2361
13.5600 4.5035 0.2362
13.5800 4.5101 0.2299
13.6000 4.5167 0.2280
13.6200 4.5233 0.2442
13.6400 4.5300 0.2329
13.6600 4.5367 0.2282
13.6800 4.5434 0.2362
13.7000 4.5501 0.2312
13.7200 4.5567 0.2264
13.7400 4.5634 0.2372
13.7600 4.5700 0.2280
13.7800 4.5766 0.2329
13.8000 4.5833 0.2335
13.8200 4.5899 0.2306
13.8400 4.5966 0.2303
13.8600 4.6034 0.2261
13.8800 4.6100 0.2302
13.9000 4.6167 0.2353
13.9200 4.6234 0.2267
13.9400 4.6301 0.2288
13.9600 4.6367 0.2304
13.9800 4.6433 0.2306
14.0000 4.6499 0.2339
14.0200 4.6566 0.2283
14.0400 4.6633 0.2245
14.0600 4.6700 0.2346
14.0800 4.6767 0.2322
14.1000 4.6834 0.2200
14.1200 4.6900 0.2335
14.1400 4.6967 0.2228
14.1600 4.7033 0.2215
14.1800 4.7099 0.2354
14.2000 4.7166 0.2296
14.2200 4.7234 0.2167
14.2400 4.7301 0.2399
14.2600 4.7367 0.2255
14.2800 4.7434 0.2207
14.3000 4.7501 0.2325
14.3200 4.7567 0.2278
14.3400 4.7633 0.2180
14.3600 4.7700 0.2328
14.3800 4.7766 0.2300
14.4000 4.7834 0.2200
14.4200 4.7901 0.2284
14.4400 4.7968 0.2272
14.4600 4.8035 0.2270
14.4800 4.8101 0.2228
14.5000 4.8167 0.2214
14.5200 4.8233 0.2239
14.5400 4.8299 0.2285
14.5600 4.8366 0.2253
14.5800 4.8433 0.2203
14.6000 4.8500 0.2214
14.6200 4.8567 0.2288
14.6400 4.8634 0.2223
14.6600 4.8701 0.2214
14.6800 4.8767 0.2232
14.7000 4.8833 0.2259
14.7200 4.8899 0.2218
14.7400 4.8966 0.2216
14.7600 4.9033 0.2185
14.7800 4.9100 0.2240
14.8000 4.9167 0.2212
14.8200 4.9233 0.2187
14.8400 4.9300 0.2245
14.8600 4.9367 0.2224
14.8800 4.9433 0.2221
14.9000 4.9500 0.2227
14.9200 4.9566 0.2276
14.9400 4.9633 0.2212
14.9600 4.9700 0.2181
14.9800 4.9767 0.2220
15.0000 4.9834 0.2217
15.0200 4.9901 0.2158
15.0400 4.9967 0.2219
15.0600 5.0033 0.2187
15.0800 5.0099 0.2237
15.1000 5.0166 0.2148
15.1200 5.0234 0.2222
15.1400 5.0301 0.2239
15.1600 5.0367 0.2199
15.1800 5.0434 0.2169
15.2000 5.0501 0.2178
15.2200 5.0567 0.2180
15.2400 5.0633 0.2213
15.2600 5.0700 0.2162
15.2800 5.0766 0.2184
15.3000 5.0833 0.2209
15.3200 5.0900 0.2085
15.3400 5.0967 0.2224
15.3600 5.1034 0.2236
15.3800 5.1101 0.2049
15.4000 5.1167 0.2243
15.4200 5.1233 0.2212
15.4400 5.1299 0.2056
15.4600 5.1366 0.2328
15.4800 5.1433 0.2137
15.5000 5.1500 0.2017
15.5200 5.1567 0.2284
15.5400 5.1634 0.2127
15.5600 5.1700 0.2045
15.5800 5.1767 0.2267
15.6000 5.1833 0.2026
15.6200 5.1899 0.2116
15.6400 5.1966 0.2277
15.6600 5.2033 0.2017
15.6800 5.2101 0.2095
15.7000 5.2167 0.2231
15.7200 5.2234 0.1969
15.7400 5.2301 0.2184
15.7600 5.2368 0.2201
15.7800 5.2434 0.1991
15.8000 5.2500 0.2171
15.8200 5.2567 0.2166
15.8400 5.2634 0.2013
15.8600 5.2701 0.2166
15.8800 5.2767 0.2140
15.9000 5.2834 0.1995
15.9200 5.2901 0.2151
15.9400 5.2967 0.2098
15.9600 5.3033 0.2072
15.9800 5.3099 0.2153
16.0000 5.3166 0.2065
16.0200 5.3233 0.2049
16.0400 5.3300 0.2131
16.0600 5.3367 0.2055
16.0800 5.3434 0.2050
16.1000 5.3501 0.2055
16.1200 5.3567 0.2100
16.1400 5.3633 0.2050
16.1600 5.3699 0.2094
16.1800 5.3766 0.2117
16.2000 5.3833 0.2035
16.2200 5.3901 0.2022
16.2400 5.3967 0.2123
16.2600 5.4034 0.2039
16.2800 5.4101 0.1975
16.3000 5.4167 0.2110
16.3200 5.4234 0.1991
16.3400 5.4300 0.2039
16.3600 5.4367 0.2105
16.3800 5.4433 0.1984
16.4000 5.4500 0.2053
16.4200 5.4567 0.2077
16.4400 5.4634 0.1991
16.4600 5.4701 0.2066
16.4800 5.4767 0.2001
16.5000 5.4833 0.1983
16.5200 5.4899 0.2057
16.5400 5.4966 0.2018
16.5600 5.5033 0.1968
16.5800 5.5101 0.2050
16.6000 5.5167 0.1992
16.6200 5.5234 0.2029
16.6400 5.5301 0.2052
16.6600 5.5367 0.1919
16.6800 5.5433 0.2026
16.7000 5.5499 0.2049
16.7200 5.5566 0.1937
16.7400 5.5633 0.2036
16.7600 5.5700 0.1964
16.7800 5.5767 0.1958
16.8000 5.5834 0.2050
16.8200 5.5900 0.1937
16.8400 5.5967 0.1956
16.8600 5.6033 0.2036
16.8800 5.6100 0.1978
16.9000 5.6166 0.1922
16.9200 5.6233 0.2043
16.9400 5.6300 0.1905
16.9600 5.6367 0.1968
16.9800 5.6434 0.2002
17.0000 5.6501 0.1957
17.0200 5.6567 0.1995
17.0400 5.6633 0.1984
17.0600 5.6700 0.1910
17.0800 5.6766 0.2068
17.1000 5.6834 0.1934
17.1200 5.6901 0.1914
17.1400 5.6968 0.2026
17.1600 5.7034 0.1925
17.1800 5.7101 0.1905
17.2000 5.7167 0.2018
17.2200 5.7233 0.1875
17.2400 5.7300 0.1958
17.2600 5.7366 0.2087
17.2800 5.7433 0.1798
17.3000 5.7501 0.1979
17.3200 5.7567 0.2069
17.3400 5.7634 0.1832
17.3600 5.7701 0.1997
17.3800 5.7767 0.2036
17.4000 5.7834 0.1796
17.4200 5.7900 0.2007
17.4400 5.7966 0.1991
17.4600 5.8033 0.1846
17.4800 5.8100 0.2014
17.5000 5.8167 0.1950
17.5200 5.8234 0.1841
17.5400 5.8301 0.2033
17.5600 5.8367 0.1890
17.5800 5.8433 0.1900
17.6000 5.8499 0.2020
17.6200 5.8566 0.1924
17.6400 5.8633 0.1925
17.6600 5.8700 0.1958
17.6800 5.8767 0.1879
17.7000 5.8834 0.1959
17.7200 5.8900 0.1931
17.7400 5.8967 0.1850
17.7600 5.9033 0.2002
17.7800 5.9100 0.1895
17.8000 5.9166 0.1869
17.8200 5.9234 0.1979
17.8400 5.9300 0.1890
17.8600 5.9367 0.1847
17.8800 5.9434 0.2035
17.9000 5.9501 0.1819
17.9200 5.9568 0.1851
17.9400 5.9634 0.1999
17.9600 5.9700 0.1810
17.9800 5.9766 0.1895
18.0000 5.9833 0.1985
18.0200 5.9900 0.1737
18.0400 5.9967 0.1968
18.0600 6.0034 0.1956
18.0800 6.0101 0.1694
18.1000 6.0167 0.1943
18.1200 6.0233 0.1925
18.1400 6.0299 0.1777
18.1600 6.0366 0.1906
18.1800 6.0433 0.1898
18.2000 6.0500 0.1810
18.2200 6.0567 0.1919
18.2400 6.0634 0.1785
18.2600 6.0700 0.1929
18.2800 6.0767 0.1903
18.3000 6.0834 0.1649
18.3200 6.0900 0.1883
18.3400 6.0966 0.2005
18.3600 6.1033 0.1648
18.3800 6.1100 0.1851
18.4000 6.1167 0.1960
18.4200 6.1234 0.1666
18.4400 6.1300 0.1802
18.4600 6.1367 0.1941
18.4800 6.1434 0.1734
18.5000 6.1500 0.1846
18.5200 6.1566 0.1862
18.5400 6.1633 0.1811
18.5600 6.1700 0.1802
18.5800 6.1767 0.1740
18.6000 6.1834 0.1882
18.6200 6.1901 0.1802
18.6400 6.1967 0.1703
18.6600 6.2034 0.1869
18.6800 6.2100 0.1886
18.7000 6.2166 0.1659
18.7200 6.2233 0.1809
18.7400 6.2301 0.1843
18.7600 6.2367 0.1722
18.7800 6.2434 0.1775
18.8000 6.2501 0.1788
18.8200 6.2567 0.1761
18.8400 6.2634 0.1896
18.8600 6.2700 0.1704
18.8800 6.2766 0.1718
18.9000 6.2833 0.1881
18.9200 6.2900 0.1712
18.9400 6.2967 0.1709
18.9600 6.3034 0.1897
18.9800 6.3100 0.1728
19.0000 6.3167 0.1783
19.0200 6.3234 0.1799
19.0400 6.3299 0.1697
19.0600 6.3366 0.1790
19.0800 6.3433 0.1776
19.1000 6.3500 0.1697
19.1200 6.3567 0.1820
19.1400 6.3633 0.1752
19.1600 6.3700 0.1675
19.1800 6.3767 0.1861
19.2000 6.3833 0.1616
19.2200 6.3899 0.1718
19.2400 6.3966 0.1892
19.2600 6.4033 0.1624
19.2800 6.4101 0.1730
19.3000 6.4168 0.1810
19.3200 6.4234 0.1635
19.3400 6.4301 0.1779
19.3600 6.4367 0.1735
19.3800 6.4434 0.1647
19.4000 6.4500 0.1825
19.4200 6.4566 0.1737
19.4400 6.4633 0.1599
19.4600 6.4700 0.1872
19.4800 6.4767 0.1666
19.5000 6.4834 0.1614
19.5200 6.4901 0.1888
19.5400 6.4968 0.1611
19.5600 6.5034 0.1692
19.5800 6.5100 0.1834
19.6000 6.5166 0.1635
19.6200 6.5233 0.1695
19.6400 6.5300 0.1869
19.6600 6.5367 0.1628
19.6800 6.5434 0.1683
19.7000 6.5501 0.1754
19.7200 6.5567 0.1630
19.7400 6.5634 0.1741
19.7600 6.5699 0.1695
19.7800 6.5766 0.1618
19.8000 6.5833 0.1835
19.8200 6.5900 0.1656
19.8400 6.5967 0.1574
19.8600 6.6033 0.1760
19.8800 6.6100 0.1712
19.9000 6.6167 0.1594
19.9200 6.6233 0.1741
19.9400 6.6300 0.1721
19.9600 6.6366 0.1634
19.9800 6.6433 0.1720
20.0000 6.6500 0.1648
20.0200 6.6567 0.1675
20.0400 6.6634 0.1739
20.0600 6.6701 0.1612
20.0800 6.6768 0.1668
20.1000 6.6834 0.1714
20.1200 6.6900 0.1626
20.1400 6.6966 0.1705
20.1600 6.7033 0.1686
20.1800 6.7100 0.1592
20.2000 6.7167 0.1614
20.2200 6.7234 0.1744
20.2400 6.7301 0.1615
20.2600 6.7368 0.1594
20.2800 6.7434 0.1658
20.3000 6.7500 0.1646
20.3200 6.7566 0.1605
20.3400 6.7633 0.1638
20.3600 6.7700 0.1710
20.3800 6.7767 0.1553
20.4000 6.7834 0.1634
20.4200 6.7900 0.1743
20.4400 6.7967 0.1512
20.4600 6.8034 0.1660
20.4800 6.8100 0.1710
20.5000 6.8166 0.1484
20.5200 6.8233 0.1683
20.5400 6.8300 0.1707
20.5600 6.8367 0.1509
20.5800 6.8434 0.1626
20.6000 6.8501 0.1668
20.6200 6.8568 0.1491
20.6400 6.8634 0.1686
20.6600 6.8700 0.1582
20.6800 6.8766 0.1580
20.7000 6.8833 0.1694
20.7200 6.8900 0.1502
20.7400 6.8967 0.1515
20.7600 6.9034 0.1739
20.7800 6.9101 0.1501
20.8000 6.9168 0.1498
20.8200 6.9234 0.1670
20.8400 6.9300 0.1557
20.8600 6.9366 0.1536
20.8800 6.9433 0.1694
20.9000 6.9500 0.1498
20.9200 6.9567 0.1508
20.9400 6.9634 0.1628
20.9600 6.9701 0.1502
20.9800 6.9768 0.1545
21.0000 6.9834 0.1576
21.0200 6.9900 0.1536
21.0400 6.9966 0.1583
21.0600 7.0033 0.1577
21.0800 7.0100 0.1525
21.1000 7.0167 0.1618
21.1200 7.0234 0.1508
21.1400 7.0301 0.1514
21.1600 7.0368 0.1577
21.1800 7.0434 0.1536
21.2000 7.0500 0.1509
21.2200 7.0566 0.1550
21.2400 7.0632 0.1547
21.2600 7.0699 0.1547
21.2800 7.0766 0.1483
21.3000 7.0833 0.1580
21.3200 7.0900 0.1547
21.3400 7.0967 0.1461
21.3600 7.1033 0.1537
21.3800 7.1100 0.1564
21.4000 7.1166 0.1444
21.4200 7.1233 0.1519
21.4400 7.1300 0.1586
21.4600 7.1367 0.1431
21.4800 7.1434 0.1519
21.5000 7.1501 0.1539
21.5200 7.1568 0.1420
21.5400 7.1634 0.1544
21.5600 7.1700 0.1523
21.5800 7.1767 0.1425
21.6000 7.1833 0.1568
21.6200 7.1900 0.1470
21.6400 7.1967 0.1387
21.6600 7.2034 0.1528
21.6800 7.2101 0.1533
21.7000 7.2168 0.1448
21.7200 7.2234 0.1504
21.7400 7.2300 0.1468
21.7600 7.2366 0.1505
21.7800 7.2433 0.1513
21.8000 7.2500 0.1415
21.8200 7.2567 0.1493
21.8400 7.2634 0.1529
21.8600 7.2701 0.1416
21.8800 7.2767 0.1454
21.9000 7.2834 0.1522
21.9200 7.2900 0.1453
21.9400 7.2966 0.1449
21.9600 7.3033 0.1463
21.9800 7.3100 0.1485
22.0000 7.3167 0.1485
22.0200 7.3233 0.1437
22.0400 7.3300 0.1411
22.0600 7.3367 0.1531
22.0800 7.3434 0.1451
22.1000 7.3500 0.1424
22.1200 7.3566 0.1412
22.1400 7.3633 0.1506
22.1600 7.3700 0.1430
22.1800 7.3767 0.1446
22.2000 7.3834 0.1472
22.2200 7.3901 0.1386
22.2400 7.3968 0.1486
22.2600 7.4034 0.1455
22.2800 7.4100 0.1384
22.3000 7.4166 0.1475
22.3200 7.4233 0.1462
22.3400 7.4300 0.1341
22.3600 7.4367 0.1435
22.3800 7.4434 0.1544
22.4000 7.4501 0.1388
22.4200 7.4567 0.1364
22.4400 7.4634 0.1442
22.4600 7.4700 0.1388
22.4800 7.4766 0.1464
22.5000 7.4833 0.1399
22.5200 7.4900 0.1407
22.5400 7.4967 0.1437
22.5600 7.5034 0.1408
22.5800 7.5101 0.1364
22.6000 7.5167 0.1505
22.6200 7.5234 0.1415
22.6400 7.5300 0.1299
22.6600 7.5366 0.1462
22.6800 7.5432 0.1520
22.7000 7.5499 0.1318
22.7200 7.5567 0.1423
22.7400 7.5634 0.1390
22.7600 7.5701 0.1357
22.7800 7.5767 0.1441
22.8000 7.5834 0.1332
22.8200 7.5900 0.1356
22.8400 7.5966 0.1482
22.8600 7.6033 0.1368
22.8800 7.6100 0.1288
22.9000 7.6167 0.1502
22.9200 7.6234 0.1409
22.9400 7.6301 0.1336
22.9600 7.6367 0.1420
22.9800 7.6434 0.1386
23.0000 7.6500 0.1364
23.0200 7.6567 0.1408
23.0400 7.6633 0.1341
23.0600 7.6700 0.1419
23.0800 7.6767 0.1373
23.1000 7.6834 0.1263
23.1200 7.6901 0.1380
23.1400 7.6968 0.1466
23.1600 7.7034 0.1194
23.1800 7.7101 0.1330
23.2000 7.7167 0.1495
23.2200 7.7233 0.1256
23.2400 7.7300 0.1252
23.2600 7.7367 0.1511
23.2800 7.7434 0.1293
23.3000 7.7501 0.1283
23.3200 7.7567 0.1439
23.3400 7.7634 0.1280
23.3600 7.7700 0.1349
23.3800 7.7766 0.1465
23.4000 7.7832 0.1193
23.4200 7.7899 0.1369
23.4400 7.7966 0.1515
23.4600 7.8033 0.1106
23.4800 7.8100 0.1379
23.5000 7.8167 0.1551
23.5200 7.8234 0.1089
23.5400 7.8300 0.1300
23.5600 7.8366 0.1590
23.5800 7.8433 0.1126
23.6000 7.8500 0.1334
23.6200 7.8567 0.1461
23.6400 7.8634 0.1147
23.6600 7.8701 0.1432
23.6800 7.8768 0.1390
23.7000 7.8834 0.1064
23.7200 7.8901 0.1511
23.7400 7.8966 0.1394
23.7600 7.9033 0.1117
23.7800 7.9100 0.1464
23.8000 7.9167 0.1289
23.8200 7.9234 0.1225
23.8400 7.9301 0.1439
23.8600 7.9368 0.1230
23.8800 7.9434 0.1222
23.9000 7.9500 0.1442
23.9200 7.9566 0.1183
23.9400 7.9633 0.1258
23.9600 7.9700 0.1447
23.9800 7.9767 0.1229
24.0000 7.9834 0.1255
24.0200 7.9900 0.1332
24.0400 7.9967 0.1260
24.0600 8.0034 0.1323
24.0800 8.0101 0.1221
24.1000 8.0167 0.1267
24.1200 8.0233 0.1330
24.1400 8.0299 0.1243
24.1600 8.0366 0.1253
24.1800 8.0433 0.1305
24.2000 8.0500 0.1202
24.2200 8.0567 0.1286
24.2400 8.0634 0.1251
24.2600 8.0700 0.1202
24.2800 8.0766 0.1326
24.3000 8.0833 0.1238
24.3200 8.0899 0.1255
24.3400 8.0967 0.1328
24.3600 8.1034 0.1206
24.3800 8.1101 0.1216
24.4000 8.1168 0.1333
24.4200 8.1234 0.1162
24.4400 8.1300 0.1245
24.4600 8.1366 0.1345
24.4800 8.1433 0.1203
24.5000 8.1500 0.1176
24.5200 8.1567 0.1325
24.5400 8.1634 0.1168
24.5600 8.1701 0.1177
24.5800 8.1768 0.1316
24.6000 8.1834 0.1155
24.6200 8.1900 0.1138
24.6400 8.1967 0.1307
24.6600 8.2033 0.1168
24.6800 8.2099 0.1136
24.7000 8.2166 0.1348
24.7200 8.2233 0.1131
24.7400 8.2300 0.1161
24.7600 8.2367 0.1311
24.7800 8.2434 0.1132
24.8000 8.2500 0.1141
24.8200 8.2566 0.1306
24.8400 8.2632 0.1153
24.8600 8.2699 0.1177
24.8800 8.2767 0.1269
24.9000 8.2834 0.1156
24.9200 8.2900 0.1100
24.9400 8.2967 0.1310
24.9600 8.3034 0.1181
24.9800 8.3100 0.1084
25.0000 8.3167 0.1221
25.0200 8.3233 0.1211
25.0400 8.3300 0.1135
25.0600 8.3367 0.1215
25.0800 8.3434 0.1146
25.1000 8.3500 0.1139
25.1200 8.3567 0.1239
25.1400 8.3634 0.1185
25.1600 8.3701 0.1107
25.1800 8.3767 0.1200
25.2000 8.3833 0.1195
25.2200 8.3900 0.1114
25.2400 8.3967 0.1165
25.2600 8.4034 0.1130
25.2800 8.4100 0.1171
25.3000 8.4167 0.1117
25.3200 8.4234 0.1175
25.3400 8.4301 0.1143
25.3600 8.4367 0.1172
25.3800 8.4433 0.1169
25.4000 8.4500 0.1077
25.4200 8.4567 0.1152
25.4400 8.4634 0.1176
25.4600 8.4701 0.1124
25.4800 8.4767 0.1114
25.5000 8.4834 0.1188
25.5200 8.4900 0.1168
25.5400 8.4966 0.1115
25.5600 8.5032 0.1207
25.5800 8.5099 0.1167
25.6000 8.5166 0.1097
25.6200 8.5233 0.1189
25.6400 8.5300 0.1105
25.6600 8.5367 0.1145
25.6800 8.5434 0.1181
25.7000 8.5500 0.1097
25.7200 8.5566 0.1109
25.7400 8.5633 0.1210
25.7600 8.5699 0.1066
25.7800 8.5767 0.1119
25.8000 8.5834 0.1222
25.8200 8.5901 0.1053
25.8400 8.5968 0.1058
25.8600 8.6035 0.1220
25.8800 8.6101 0.1030
25.9000 8.6167 0.1156
25.9200 8.6233 0.1201
25.9400 8.6300 0.1001
25.9600 8.6367 0.1173
25.9800 8.6434 0.1138
26.0000 8.6501 0.0995
26.0200 8.6568 0.1173
26.0400 8.6634 0.1137
26.0600 8.6701 0.0984
26.0800 8.6767 0.1205
26.1000 8.6833 0.1117
26.1200 8.6900 0.1022
26.1400 8.6966 0.1226
26.1600 8.7033 0.1076
26.1800 8.7100 0.1030
26.2000 8.7167 0.1221
26.2200 8.7234 0.1016
26.2400 8.7300 0.1113
26.2600 8.7366 0.1139
26.2800 8.7432 0.1032
26.3000 8.7499 0.1090
26.3200 8.7566 0.1124
26.3400 8.7633 0.0971
26.3600 8.7700 0.1156
26.3800 8.7767 0.1136
26.4000 8.7834 0.0991
26.4200 8.7900 0.1119
26.4400 8.7966 0.1077
26.4600 8.8033 0.1024
26.4800 8.8099 0.1103
26.5000 8.8167 0.1080
26.5200 8.8234 0.1088
26.5400 8.8301 0.1024
26.5600 8.8368 0.1040
26.5800 8.8434 0.1073
26.6000 8.8501 0.1076
26.6200 8.8567 0.1099
26.6400 8.8633 0.0999
26.6600 8.8700 0.1065
26.6800 8.8767 0.1046
26.7000 8.8834 0.1049
26.7200 8.8901 0.1030
26.7400 8.8967 0.1094
26.7600 8.9034 0.1011
26.7800 8.9101 0.0988
26.8000 8.9167 0.1063
26.8200 8.9233 0.1120
26.8400 8.9299 0.1026
26.8600 8.9366 0.1069
26.8800 8.9434 0.1051
26.9000 8.9500 0.1031
26.9200 8.9567 0.1063
26.9400 8.9634 0.0990
26.9600 8.9701 0.0975
26.9800 8.9767 0.1123
27.0000 8.9833 0.1014
27.0200 8.9899 0.0937
27.0400 8.9966 0.1211
27.0600 9.0033 0.1004
27.0800 9.0100 0.0881
27.1000 9.0167 0.1144
27.1200 9.0234 0.0995
27.1400 9.0301 0.0882
27.1600 9.0367 0.1186
27.1800 9.0433 0.0927
27.2000 9.0499 0.0961
27.2200 9.0566 0.1169
27.2400 9.0633 0.0944
27.2600 9.0700 0.0928
27.2800 9.0767 0.1127
27.3000 9.0834 0.0950
27.3200 9.0901 0.0987
27.3400 9.0967 0.1004
27.3600 9.1033 0.0975
27.3800 9.1099 0.1069
27.4000 9.1166 0.0918
27.4200 9.1234 0.1021
27.4400 9.1301 0.1092
27.4600 9.1368 0.0900
27.4800 9.1434 0.1011
27.5000 9.1501 0.1069
27.5200 9.1567 0.0842
27.5400 9.1633 0.1040
27.5600 9.1700 0.1022
27.5800 9.1767 0.0907
27.6000 9.1834 0.1039
27.6200 9.1900 0.0998
27.6400 9.1967 0.0873
27.6600 9.2034 0.1095
27.6800 9.2101 0.0964
27.7000 9.2167 0.0912
27.7200 9.2233 0.1073
27.7400 9.2299 0.0950
27.7600 9.2366 0.0924
27.7800 9.2433 0.1045
27.8000 9.2500 0.0933
27.8200 9.2567 0.0915
27.8400 9.2634 0.1036
27.8600 9.2701 0.0945
27.8800 9.2767 0.0936
27.9000 9.2833 0.0973
27.9200 9.2899 0.0956
27.9400 9.2966 0.0936
27.9600 9.3034 0.0936
27.9800 9.3101 0.0926
28.0000 9.3168 0.0921
28.0200 9.3235 0.0898
28.0400 9.3301 0.0986
28.0600 9.3367 0.0881
28.0800 9.3433 0.0925
28.1000 9.3500 0.0994
28.1200 9.3567 0.0932
28.1400 9.3634 0.0928
28.1600 9.3701 0.0933
28.1800 9.3767 0.0864
28.2000 9.3834 0.0945
28.2200 9.3901 0.0935
28.2400 9.3967 0.0827
28.2600 9.4033 0.0931
28.2800 9.4099 0.1016
28.3000 9.4166 0.0844
28.3200 9.4233 0.0937
28.3400 9.4300 0.0954
28.3600 9.4367 0.0851
28.3800 9.4434 0.0932
28.4000 9.4501 0.0877
28.4200 9.4567 0.0873
28.4400 9.4633 0.0974
28.4600 9.4699 0.0932
28.4800 9.4766 0.0808
28.5000 9.4833 0.0985
28.5200 9.4900 0.0957
28.5400 9.4967 0.0863
28.5600 9.5034 0.0902
28.5800 9.5101 0.0874
28.6000 9.5167 0.0849
28.6200 9.5233 0.0958
28.6400 9.5300 0.0912
28.6600 9.5366 0.0854
28.6800 9.5434 0.0906
28.7000 9.5501 0.0875
28.7200 9.5567 0.0816
28.7400 9.5634 0.0943
28.7600 9.5701 0.0937
28.7800 9.5767 0.0775
28.8000 9.5833 0.0888
28.8200 9.5900 0.0902
28.8400 9.5966 0.0838
28.8600 9.6034 0.0892
28.8800 9.6101 0.0913
28.9000 9.6168 0.0833
28.9200 9.6235 0.0900
28.9400 9.6301 0.0891
28.9600 9.6367 0.0829
28.9800 9.6433 0.0899
29.0000 9.6499 0.0891
29.0200 9.6566 0.0838
29.0400 9.6633 0.0856
29.0600 9.6700 0.0896
29.0800 9.6767 0.0887
29.1000 9.6834 0.0828
29.1200 9.6901 0.0922
29.1400 9.6967 0.0859
29.1600 9.7033 0.0827
29.1800 9.7099 0.0902
29.2000 9.7166 0.0861
29.2200 9.7233 0.0865
29.2400 9.7300 0.0856
29.2600 9.7367 0.0883
29.2800 9.7434 0.0866
29.3000 9.7500 0.0833
29.3200 9.7567 0.0812
29.3400 9.7633 0.0926
29.3600 9.7700 0.0870
29.3800 9.7766 0.0813
29.4000 9.7834 0.0868
29.4200 9.7900 0.0872
29.4400 9.7967 0.0791
29.4600 9.8034 0.0853
29.4800 9.8101 0.0849
29.5000 9.8167 0.0782
29.5200 9.8233 0.0824
29.5400 9.8299 0.0881
29.5600 9.8366 0.0784
29.5800 9.8433 0.0865
29.6000 9.8501 0.0876
29.6200 9.8567 0.0766
29.6400 9.8634 0.0788
29.6600 9.8701 0.0852
29.6800 9.8767 0.0793
29.7000 9.8833 0.0824
29.7200 9.8900 0.0826
29.7400 9.8966 0.0714
29.7600 9.9033 0.0904
29.7800 9.9100 0.0798
29.8000 9.9167 0.0711
29.8200 9.9234 0.0837
29.8400 9.9301 0.0773
29.8600 9.9367 0.0713
29.8800 9.9433 0.0842
29.9000 9.9499 0.0776
29.9200 9.9566 0.0800
29.9400 9.9633 0.0805
29.9600 9.9700 0.0732
29.9800 9.9767 0.0769
30.0000 9.9834 0.0839
30.0200 9.9900 0.0712
30.0400 9.9967 0.0747
30.0600 10.0033 0.0836
30.0800 10.0099 0.0725
30.1000 10.0166 0.0747
30.1200 10.0233 0.0809
30.1400 10.0301 0.0716
30.1600 10.0367 0.0678
30.1800 10.0434 0.0799
30.2000 10.0501 0.0733
30.2200 10.0568 0.0717
30.2400 10.0634 0.0780
30.2600 10.0700 0.0693
30.2800 10.0767 0.0694
30.3000 10.0834 0.0737
30.3200 10.0901 0.0707
30.3400 10.0967 0.0752
30.3600 10.1034 0.0703
30.3800 10.1101 0.0715
30.4000 10.1167 0.0711
30.4200 10.1233 0.0720
30.4400 10.1299 0.0655
30.4600 10.1366 0.0692
30.4800 10.1433 0.0743
30.5000 10.1500 0.0646
30.5200 10.1567 0.0650
30.5400 10.1634 0.0675
30.5600 10.1701 0.0637
30.5800 10.1767 0.0686
30.6000 10.1833 0.0684
30.6200 10.1899 0.0681
30.6400 10.1966 0.0712
30.6600 10.2033 0.0679
30.6800 10.2100 0.0605
30.7000 10.2167 0.0699
30.7200 10.2234 0.0720
30.7400 10.2300 0.0599
30.7600 10.2367 0.0672
30.7800 10.2433 0.0646
30.8000 10.2500 0.0649
30.8200 10.2566 0.0669
30.8400 10.2633 0.0668
30.8600 10.2700 0.0608
30.8800 10.2767 0.0683
30.9000 10.2834 0.0638
30.9200 10.2901 0.0608
30.9400 10.2968 0.0666
30.9600 10.3034 0.0604
30.9800 10.3100 0.0618
31.0000 10.3166 0.0639
31.0200 10.3233 0.0602
31.0400 10.3301 0.0706
31.0600 10.3368 0.0652
31.0800 10.3434 0.0592
31.1000 10.3501 0.0679
31.1200 10.3567 0.0609
31.1400 10.3633 0.0570
31.1600 10.3699 0.0666
31.1800 10.3766 0.0668
31.2000 10.3833 0.0564
31.2200 10.3900 0.0649
31.2400 10.3967 0.0608
31.2600 10.4034 0.0637
31.2800 10.4101 0.0662
31.3000 10.4167 0.0614
31.3200 10.4234 0.0580
31.3400 10.4299 0.0674
31.3600 10.4366 0.0596
31.3800 10.4433 0.0617
31.4000 10.4500 0.0633
31.4200 10.4567 0.0552
31.4400 10.4634 0.0577
31.4600 10.4701 0.0622
31.4800 10.4767 0.0625
31.5000 10.4833 0.0622
31.5200 10.4900 0.0625
31.5400 10.4966 0.0546
31.5600 10.5033 0.0640
31.5800 10.5100 0.0599
31.6000 10.5168 0.0593
31.6200 10.5234 0.0588
31.6400 10.5301 0.0579
31.6600 10.5367 0.0585
31.6800 10.5434 0.0594
31.7000 10.5500 0.0570
31.7200 10.5566 0.0627
31.7400 10.5633 0.0575
31.7600 10.5701 0.0534
31.7800 10.5767 0.0575
31.8000 10.5834 0.0607
31.8200 10.5901 0.0509
31.8400 10.5968 0.0669
31.8600 10.6034 0.0511
31.8800 10.6100 0.0488
31.9000 10.6166 0.0677
31.9200 10.6233 0.0603
31.9400 10.6300 0.0456
31.9600 10.6367 0.0615
31.9800 10.6434 0.0584
32.0000 10.6501 0.0449
32.0200 10.6567 0.0602
32.0400 10.6633 0.0556
32.0600 10.6699 0.0483
32.0800 10.6765 0.0578
32.1000 10.6833 0.0568
32.1200 10.6900 0.0510
32.1400 10.6967 0.0516
32.1600 10.7034 0.0520
32.1800 10.7100 0.0519
32.2000 10.7167 0.0536
32.2200 10.7234 0.0543
32.2400 10.7300 0.0486
32.2600 10.7366 0.0510
32.2800 10.7433 0.0501
32.3000 10.7500 0.0558
32.3200 10.7567 0.0496
32.3400 10.7634 0.0478
32.3600 10.7701 0.0515
32.3800 10.7768 0.0436
32.4000 10.7834 0.0482
32.4200 10.7900 0.0500
32.4400 10.7966 0.0442
32.4600 10.8033 0.0455
32.4800 10.8100 0.0514
32.5000 10.8167 0.0395
32.5200 10.8234 0.0484
32.5400 10.8301 0.0529
32.5600 10.8367 0.0400
32.5800 10.8433 0.0496
32.6000 10.8499 0.0538
32.6200 10.8566 0.0392
32.6400 10.8633 0.0487
32.6600 10.8700 0.0483
32.6800 10.8767 0.0424
32.7000 10.8834 0.0454
32.7200 10.8901 0.0472
32.7400 10.8967 0.0411
32.7600 10.9034 0.0496
32.7800 10.9100 0.0459
32.8000 10.9166 0.0459
32.8200 10.9233 0.0458
32.8400 10.9300 0.0403
32.8600 10.9367 0.0481
32.8800 10.9433 0.0448
32.9000 10.9500 0.0386
32.9200 10.9567 0.0481
32.9400 10.9634 0.0456
32.9600 10.9700 0.0406
32.9800 10.9766 0.0535
33.0000 10.9833 0.0382
33.0200 10.9900 0.0430
33.0400 10.9967 0.0471
33.0600 11.0034 0.0377
33.0800 11.0101 0.0468
33.1000 11.0167 0.0456
33.1200 11.0234 0.0319
33.1400 11.0300 0.0506
33.1600 11.0366 0.0416
33.1800 11.0433 0.0367
33.2000 11.0500 0.0488
33.2200 11.0568 0.0408
33.2400 11.0634 0.0374
33.2600 11.0701 0.0460
33.2800 11.0768 0.0333
33.3000 11.0834 0.0379
33.3200 11.0900 0.0431
33.3400 11.0966 0.0367
33.3600 11.1033 0.0422
33.3800 11.1100 0.0426
33.4000 11.1167 0.0363
33.4200 11.1234 0.0378
33.4400 11.1300 0.0463
33.4600 11.1367 0.0337
33.4800 11.1434 0.0359
33.5000 11.1500 0.0366
33.5200 11.1566 0.0360
33.5400 11.1633 0.0382
33.5600 11.1700 0.0392
33.5800 11.1767 0.0373
33.6000 11.1834 0.0406
33.6200 11.1901 0.0390
33.6400 11.1967 0.0354
33.6600 11.2034 0.0345
33.6800 11.2100 0.0395
33.7000 11.2166 0.0368
33.7200 11.2233 0.0355
33.7400 11.2301 0.0362
33.7600 11.2368 0.0318
33.7800 11.2434 0.0369
33.8000 11.2501 0.0337
33.8200 11.2568 0.0435
33.8400 11.2634 0.0356
33.8600 11.2700 0.0331
33.8800 11.2766 0.0400
33.9000 11.2833 0.0357
33.9200 11.2900 0.0281
33.9400 11.2967 0.0408
33.9600 11.3034 0.0300
33.9800 11.3101 0.0322
34.0000 11.3168 0.0404
34.0200 11.3234 0.0305
34.0400 11.3300 0.0384
34.0600 11.3366 0.0402
34.0800 11.3433 0.0273
34.1000 11.3500 0.0357
34.1200 11.3567 0.0340
34.1400 11.3634 0.0254
34.1600 11.3701 0.0368
34.1800 11.3768 0.0325
34.2000 11.3834 0.0260
34.2200 11.3900 0.0372
34.2400 11.3966 0.0371
34.2600 11.4032 0.0273
34.2800 11.4100 0.0337
34.3000 11.4167 0.0321
34.3200 11.4234 0.0300
34.3400 11.4300 0.0325
34.3600 11.4367 0.0248
34.3800 11.4433 0.0340
34.4000 11.4500 0.0344
34.4200 11.4566 0.0221
34.4400 11.4633 0.0352
34.4600 11.4700 0.0265
34.4800 11.4767 0.0241
34.5000 11.4834 0.0335
34.5200 11.4901 0.0289
34.5400 11.4968 0.0195
34.5600 11.5034 0.0337
34.5800 11.5100 0.0245
34.6000 11.5166 0.0267
34.6200 11.5233 0.0387
34.6400 11.5300 0.0192
34.6600 11.5367 0.0224
34.6800 11.5434 0.0411
34.7000 11.5501 0.0214
34.7200 11.5567 0.0211
34.7400 11.5634 0.0371
34.7600 11.5700 0.0205
34.7800 11.5766 0.0244
34.8000 11.5833 0.0288
34.8200 11.5900 0.0218
34.8400 11.5967 0.0247
34.8600 11.6034 0.0305
34.8800 11.6100 0.0205
34.9000 11.6167 0.0300
34.9200 11.6234 0.0221
34.9400 11.6300 0.0173
34.9600 11.6366 0.0304
34.9800 11.6432 0.0221
35.0000 11.6500 0.0204
35.0200 11.6567 0.0272
35.0400 11.6634 0.0180
35.0600 11.6701 0.0214
35.0800 11.6768 0.0326
35.1000 11.6834 0.0207
35.1200 11.6900 0.0213
35.1400 11.6966 0.0292
35.1600 11.7033 0.0171
35.1800 11.7100 0.0190
35.2000 11.7167 0.0270
35.2200 11.7234 0.0137
35.2400 11.7301 0.0270
35.2600 11.7368 0.0206
35.2800 11.7434 0.0131
35.3000 11.7500 0.0328
35.3200 11.7566 0.0285
35.3400 11.7633 0.0121
35.3600 11.7700 0.0276
35.3800 11.7767 0.0189
35.4000 11.7834 0.0205
35.4200 11.7901 0.0264
35.4400 11.7968 0.0129
35.4600 11.8034 0.0200
35.4800 11.8100 0.0266
35.5000 11.8167 0.0135
35.5200 11.8233 0.0229
35.5400 11.8300 0.0256
35.5600 11.8367 0.0108
35.5800 11.8434 0.0203
35.6000 11.8500 0.0272
35.6200 11.8567 0.0119
35.6400 11.8634 0.0190
35.6600 11.8700 0.0191
35.6800 11.8766 0.0074
35.7000 11.8832 0.0287
35.7200 11.8899 0.0256
35.7400 11.8967 0.0154
35.7600 11.9034 0.0161
35.7800 11.9100 0.0200
35.8000 11.9167 0.0180
35.8200 11.9234 0.0165
35.8400 11.9300 0.0210
35.8600 11.9366 0.0205
35.8800 11.9433 0.0148
35.9000 11.9500 0.0186
35.9200 11.9567 0.0181
35.9400 11.9634 0.0199
35.9600 11.9701 0.0228
35.9800 11.9767 0.0143
36.0000 11.9834 0.0126
36.0200 11.9900 0.0242
36.0400 11.9967 0.0121
36.0600 12.0033 0.0099
36.0800 12.0100 0.0300
36.1000 12.0167 0.0133
36.1200 12.0234 0.0086
36.1400 12.0301 0.0261
36.1600 12.0368 0.0166
36.1800 12.0434 0.0095
36.2000 12.0500 0.0250
36.2200 12.0566 0.0121
36.2400 12.0633 0.0133
36.2600 12.0700 0.0162
36.2800 12.0767 0.0107
36.3000 12.0834 0.0129
36.3200 12.0901 0.0215
36.3400 12.0967 0.0093
36.3600 12.1034 0.0153
36.3800 12.1100 0.0184
36.4000 12.1166 0.0059
36.4200 12.1233 0.0154
36.4400 12.1300 0.0129
36.4600 12.1367 0.0090
36.4800 12.1433 0.0193
36.5000 12.1500 0.0096
36.5200 12.1567 0.0059
36.5400 12.1634 0.0175
36.5600 12.1700 0.0139
36.5800 12.1766 0.0117
36.6000 12.1833 0.0172
36.6200 12.1900 0.0171
36.6400 12.1967 0.0019
36.6600 12.2034 0.0158
36.6800 12.2101 0.0151
36.7000 12.2168 0.0035
36.7200 12.2234 0.0103
36.7400 12.2301 0.0157
36.7600 12.2367 0.0032
36.7800 12.2433 0.0136
36.8000 12.2500 0.0157
36.8200 12.2567 -0.0006
36.8400 12.2634 0.0121
36.8600 12.2701 0.0130
36.8800 12.2767 0.0016
36.9000 12.2834 0.0119
36.9200 12.2900 0.0099
36.9400 12.2966 -0.0002
36.9600 12.3033 0.0172
36.9800 12.3100 0.0049
37.0000 12.3167 0.0008
37.0200 12.3233 0.0199
37.0400 12.3300 0.0060
37.0600 12.3367 -0.0005
37.0800 12.3434 0.0155
37.1000 12.3500 0.0021
37.1200 12.3566 0.0038
37.1400 12.3632 0.0163
37.1600 12.3699 0.0011
37.1800 12.3767 0.0018
37.2000 12.3834 0.0154
37.2200 12.3901 0.0016
37.2400 12.3967 0.0104
37.2600 12.4034 0.0060
37.2800 12.4100 -0.0025
37.3000 12.4166 0.0074
37.3200 12.4233 0.0045
37.3400 12.4300 0.0060
37.3600 12.4367 0.0030
37.3800 12.4434 0.0051
37.4000 12.4501 0.0043
37.4200 12.4567 0.0096
37.4400 12.4634 0.0060
37.4600 12.4701 0.0008
37.4800 12.4767 0.0004
37.5000 12.4833 0.0049
37.5200 12.4900 0.0001
37.5400 12.4967 0.0011
37.5600 12.5034 0.0048
37.5800 12.5101 0.0026
37.6000 12.5168 -0.0009
37.6200 12.5234 0.0034
37.6400 12.5301 0.0013
37.6600 12.5366 0.0065
37.6800 12.5433 0.0016
37.7000 12.5499 -0.0034
37.7200 12.5567 0.0003
37.7400 12.5634 -0.0014
37.7600 12.5700 0.0004
37.7800 12.5767 -0.0018
37.8000 12.5834 -0.0028
37.8200 12.5900 -0.0054
37.8400 12.5966 0.0002
37.8600 12.6032 0.0031
37.8800 12.6099 -0.0047
37.9000 12.6166 0.0001
37.9200 12.6233 -0.0030
37.9400 12.6300 -0.0082
37.9600 12.6367 -0.0003
37.9800 12.6434 -0.0026
38.0000 12.6500 -0.0002
38.0200 12.6566 -0.0167
38.0400 12.6633 -0.0008
38.0600 12.6700 0.0025
38.0800 12.6767 -0.0094
38.1000 12.6834 -0.0050
38.1200 12.6901 0.0006
38.1400 12.6968 -0.0105
38.1600 12.7035 -0.0135
38.1800 12.7101 0.0020
38.2000 12.7167 0.0040
38.2200 12.7233 -0.0131
38.2400 12.7300 -0.0109
38.2600 12.7367 -0.0018
38.2800 12.7434 -0.0135
38.3000 12.7501 0.0029
38.3200 12.7568 0.0026
38.3400 12.7634 -0.0273
38.3600 12.7700 -0.0031
38.3800 12.7766 0.0067
38.4000 12.7832 -0.0257
38.4200 12.7899 0.0033
38.4400 12.7967 -0.0013
38.4600 12.8034 -0.0247
38.4800 12.8100 -0.0016
38.5000 12.8167 0.0010
38.5200 12.8234 -0.0229
38.5400 12.8301 0.0090
38.5600 12.8367 -0.0100
38.5800 12.8433 -0.0281
38.6000 12.8500 0.0137
38.6200 12.8566 -0.0099
38.6400 12.8633 -0.0224
38.6600 12.8700 0.0133
38.6800 12.8767 -0.0191
38.7000 12.8834 -0.0189
38.7200 12.8900 0.0061
38.7400 12.8966 -0.0189
38.7600 12.9033 -0.0073
38.7800 12.9099 0.0009
38.8000 12.9167 -0.0233
38.8200 12.9234 -0.0060
38.8400 12.9301 -0.0017
38.8600 12.9368 -0.0227
38.8800 12.9434 0.0011
38.9000 12.9501 -0.0092
38.9200 12.9567 -0.0164
38.9400 12.9633 -0.0019
38.9600 12.9700 -0.0152
38.9800 12.9767 -0.0087
39.0000 12.9834 -0.0006
39.0200 12.9901 -0.0275
39.0400 12.9968 -0.0094
39.0600 13.0034 0.0008
39.0800 13.0101 -0.0289
39.1000 13.0167 -0.0106
39.1200 13.0233 0.0061
39.1400 13.0300 -0.0245
39.1600 13.0366 -0.0110
39.1800 13.0433 -0.0029
39.2000 13.0500 -0.0231
39.2200 13.0567 -0.0055
39.2400 13.0634 -0.0120
39.2600 13.0700 -0.0178
39.2800 13.0767 -0.0098
39.3000 13.0833 -0.0139
39.3200 13.0899 -0.0147
39.3400 13.0966 -0.0041
39.3600 13.1033 -0.0148
39.3800 13.1100 -0.0164
39.4000 13.1167 -0.0112
39.4200 13.1234 -0.0142
39.4400 13.1301 -0.0137
39.4600 13.1367 -0.0119
39.4800 13.1433 -0.0179
39.5000 13.1500 -0.0103
39.5200 13.1567 -0.0179
39.5400 13.1634 -0.0152
39.5600 13.1700 -0.0090
39.5800 13.1767 -0.0165
39.6000 13.1834 -0.0170
39.6200 13.1901 -0.0152
39.6400 13.1967 -0.0143
39.6600 13.2033 -0.0166
39.6800 13.2100 -0.0133
39.7000 13.2167 -0.0142
39.7200 13.2234 -0.0130
39.7400 13.2301 -0.0199
39.7600 13.2367 -0.0133
39.7800 13.2434 -0.0108
39.8000 13.2501 -0.0211
39.8200 13.2567 -0.0154
39.8400 13.2633 -0.0122
39.8600 13.2700 -0.0214
39.8800 13.2767 -0.0131
39.9000 13.2834 -0.0199
39.9200 13.2901 -0.0233
39.9400 13.2968 -0.0117
39.9600 13.3034 -0.0198
39.9800 13.3101 -0.0198
40.0000 13.3167 -0.0170
40.0200 13.3233 -0.0258
40.0400 13.3299 -0.0182
40.0600 13.3366 -0.0148
40.0800 13.3433 -0.0308
40.1000 13.3500 -0.0170
40.1200 13.3567 -0.0224
40.1400 13.3634 -0.0280
40.1600 13.3700 -0.0127
40.1800 13.3767 -0.0199
40.2000 13.3833 -0.0231
40.2200 13.3899 -0.0173
40.2400 13.3966 -0.0317
40.2600 13.4034 -0.0205
40.2800 13.4101 -0.0181
40.3000 13.4168 -0.0330
40.3200 13.4235 -0.0209
40.3400 13.4301 -0.0217
40.3600 13.4367 -0.0335
40.3800 13.4433 -0.0147
40.4000 13.4499 -0.0182
40.4200 13.4567 -0.0309
40.4400 13.4634 -0.0178
40.4600 13.4701 -0.0226
40.4800 13.4768 -0.0321
40.5000 13.4834 -0.0259
40.5200 13.4901 -0.0236
40.5400 13.4967 -0.0219
40.5600 13.5033 -0.0256
40.5800 13.5099 -0.0379
40.6000 13.5166 -0.0177
40.6200 13.5233 -0.0211
40.6400 13.5300 -0.0360
40.6600 13.5367 -0.0214
40.6800 13.5434 -0.0267
40.7000 13.5501 -0.0379
40.7200 13.5567 -0.0203
40.7400 13.5633 -0.0296
40.7600 13.5699 -0.0382
40.7800 13.5766 -0.0217
40.8000 13.5833 -0.0280
40.8200 13.5900 -0.0361
40.8400 13.5967 -0.0178
40.8600 13.6034 -0.0352
40.8800 13.6101 -0.0364
40.9000 13.6167 -0.0212
40.9200 13.6233 -0.0359
40.9400 13.6299 -0.0324
40.9600 13.6366 -0.0263
40.9800 13.6434 -0.0421
41.0000 13.6501 -0.0312
41.0200 13.6567 -0.0187
41.0400 13.6634 -0.0435
41.0600 13.6701 -0.0229
41.0800 13.6767 -0.0229
41.1000 13.6833 -0.0481
41.1200 13.6900 -0.0257
41.1400 13.6967 -0.0302
41.1600 13.7034 -0.0489
41.1800 13.7100 -0.0233
41.2000 13.7167 -0.0297
41.2200 13.7234 -0.0458
41.2400 13.7301 -0.0268
41.2600 13.7367 -0.0274
41.2800 13.7433 -0.0468
41.3000 13.7499 -0.0279
41.3200 13.7566 -0.0306
41.3400 13.7633 -0.0423
41.3600 13.7700 -0.0325
41.3800 13.7767 -0.0347
41.4000 13.7834 -0.0379
41.4200 13.7900 -0.0384
41.4400 13.7967 -0.0331
41.4600 13.8033 -0.0346
41.4800 13.8099 -0.0343
41.5000 13.8166 -0.0398
41.5200 13.8233 -0.0361
41.5400 13.8300 -0.0393
41.5600 13.8367 -0.0360
41.5800 13.8434 -0.0361
41.6000 13.8501 -0.0382
41.6200 13.8567 -0.0354
41.6400 13.8633 -0.0364
41.6600 13.8700 -0.0449
41.6800 13.8766 -0.0332
41.7000 13.8833 -0.0335
41.7200 13.8900 -0.0409
41.7400 13.8967 -0.0425
41.7600 13.9034 -0.0376
41.7800 13.9101 -0.0398
41.8000 13.9167 -0.0420
41.8200 13.9233 -0.0386
41.8400 13.9300 -0.0377
41.8600 13.9366 -0.0380
41.8800 13.9434 -0.0386
41.9000 13.9501 -0.0332
41.9200 13.9568 -0.0459
41.9400 13.9634 -0.0403
41.9600 13.9701 -0.0381
41.9800 13.9767 -0.0447
42.0000 13.9833 -0.0448
42.0200 13.9899 -0.0433
42.0400 13.9967 -0.0411
42.0600 14.0034 -0.0359
42.0800 14.0101 -0.0508
42.1000 14.0167 -0.0465
42.1200 14.0234 -0.0288
42.1400 14.0301 -0.0467
42.1600 14.0367 -0.0483
42.1800 14.0433 -0.0380
42.2000 14.0499 -0.0512
42.2200 14.0566 -0.0406
42.2400 14.0633 -0.0422
42.2600 14.0700 -0.0515
42.2800 14.0767 -0.0392
42.3000 14.0834 -0.0392
42.3200 14.0901 -0.0498
42.3400 14.0967 -0.0464
42.3600 14.1033 -0.0403
42.3800 14.1099 -0.0517
42.4000 14.1166 -0.0458
42.4200 14.1234 -0.0467
42.4400 14.1301 -0.0420
42.4600 14.1368 -0.0493
42.4800 14.1435 -0.0506
42.5000 14.1501 -0.0459
42.5200 14.1567 -0.0468
42.5400 14.1633 -0.0470
42.5600 14.1700 -0.0392
42.5800 14.1767 -0.0539
42.6000 14.1834 -0.0522
42.6200 14.1901 -0.0422
42.6400 14.1967 -0.0489
42.6600 14.2034 -0.0493
42.6800 14.2101 -0.0461
42.7000 14.2167 -0.0538
42.7200 14.2233 -0.0495
42.7400 14.2299 -0.0410
42.7600 14.2366 -0.0505
42.7800 14.2433 -0.0447
42.8000 14.2500 -0.0533
42.8200 14.2567 -0.0518
42.8400 14.2634 -0.0460
42.8600 14.2701 -0.0531
42.8800 14.2767 -0.0491
42.9000 14.2833 -0.0445
42.9200 14.2899 -0.0544
42.9400 14.2966 -0.0447
42.9600 14.3033 -0.0468
42.9800 14.3100 -0.0558
43.0000 14.3167 -0.0492
43.0200 14.3234 -0.0521
43.0400 14.3301 -0.0541
43.0600 14.3367 -0.0505
43.0800 14.3433 -0.0528
43.1000 14.3499 -0.0502
43.1200 14.3566 -0.0484
43.1400 14.3634 -0.0611
43.1600 14.3701 -0.0456
43.1800 14.3767 -0.0464
43.2000 14.3834 -0.0610
43.2200 14.3901 -0.0499
43.2400 14.3967 -0.0543
43.2600 14.4033 -0.0626
43.2800 14.4100 -0.0391
43.3000 14.4166 -0.0584
43.3200 14.4233 -0.0612
43.3400 14.4301 -0.0416
43.3600 14.4368 -0.0590
43.3800 14.4434 -0.0553
43.4000 14.4501 -0.0446
43.4200 14.4567 -0.0644
43.4400 14.4633 -0.0521
43.4600 14.4699 -0.0460
43.4800 14.4766 -0.0666
43.5000 14.4833 -0.0518
43.5200 14.4900 -0.0517
43.5400 14.4967 -0.0689
43.5600 14.5034 -0.0463
43.5800 14.5101 -0.0466
43.6000 14.5167 -0.0696
43.6200 14.5233 -0.0513
43.6400 14.5299 -0.0494
43.6600 14.5366 -0.0686
43.6800 14.5433 -0.0516
43.7000 14.5500 -0.0545
43.7200 14.5567 -0.0705
43.7400 14.5633 -0.0486
43.7600 14.5700 -0.0616
43.7800 14.5767 -0.0630
43.8000 14.5833 -0.0451
43.8200 14.5900 -0.0590
43.8400 14.5966 -0.0641
43.8600 14.6033 -0.0493
43.8800 14.6100 -0.0630
43.9000 14.6167 -0.0557
43.9200 14.6234 -0.0564
43.9400 14.6301 -0.0685
43.9600 14.6367 -0.0566
43.9800 14.6433 -0.0571
44.0000 14.6499 -0.0590
44.0200 14.6566 -0.0564
44.0400 14.6633 -0.0588
44.0600 14.6701 -0.0591
44.0800 14.6767 -0.0597
44.1000 14.6834 -0.0655
44.1200 14.6901 -0.0543
44.1400 14.6967 -0.0603
44.1600 14.7033 -0.0643
44.1800 14.7100 -0.0574
44.2000 14.7166 -0.0568
44.2200 14.7233 -0.0671
44.2400 14.7300 -0.0539
44.2600 14.7367 -0.0628
44.2800 14.7434 -0.0644
44.3000 14.7501 -0.0553
44.3200 14.7567 -0.0647
44.3400 14.7633 -0.0651
44.3600 14.7699 -0.0578
44.3800 14.7766 -0.0651
44.4000 14.7833 -0.0595
44.4200 14.7900 -0.0550
44.4400 14.7967 -0.0660
44.4600 14.8033 -0.0656
44.4800 14.8100 -0.0597
44.5000 14.8167 -0.0694
44.5200 14.8233 -0.0622
44.5400 14.8299 -0.0569
44.5600 14.8366 -0.0789
44.5800 14.8433 -0.0654
44.6000 14.8500 -0.0574
44.6200 14.8567 -0.0734
44.6400 14.8634 -0.0562
44.6600 14.8701 -0.0567
44.6800 14.8768 -0.0768
44.7000 14.8834 -0.0584
44.7200 14.8900 -0.0627
44.7400 14.8967 -0.0742
44.7600 14.9034 -0.0622
44.7800 14.9101 -0.0626
44.8000 14.9168 -0.0738
44.8200 14.9234 -0.0606
44.8400 14.9301 -0.0627
44.8600 14.9368 -0.0746
44.8800 14.9434 -0.0585
44.9000 14.9499 -0.0672
44.9200 14.9566 -0.0743
44.9400 14.9633 -0.0603
44.9600 14.9700 -0.0695
44.9800 14.9767 -0.0773
45.0000 14.9834 -0.0617
45.0200 14.9901 -0.0687
45.0400 14.9967 -0.0712
45.0600 15.0033 -0.0678
45.0800 15.0099 -0.0662
45.1000 15.0166 -0.0732
45.1200 15.0233 -0.0657
45.1400 15.0300 -0.0740
45.1600 15.0367 -0.0710
45.1800 15.0434 -0.0711
45.2000 15.0500 -0.0736
45.2200 15.0567 -0.0706
45.2400 15.0634 -0.0712
45.2600 15.0700 -0.0720
45.2800 15.0767 -0.0676
45.3000 15.0833 -0.0724
45.3200 15.0900 -0.0731
45.3400 15.0967 -0.0666
45.3600 15.1034 -0.0717
45.3800 15.1101 -0.0740
45.4000 15.1168 -0.0758
45.4200 15.1234 -0.0723
45.4400 15.1300 -0.0749
45.4600 15.1366 -0.0695
45.4800 15.1433 -0.0722
45.5000 15.1500 -0.0772
45.5200 15.1567 -0.0717
45.5400 15.1634 -0.0742
45.5600 15.1701 -0.0755
45.5800 15.1767 -0.0705
45.6000 15.1834 -0.0815
45.6200 15.1900 -0.0721
45.6400 15.1966 -0.0741
45.6600 15.2033 -0.0751
45.6800 15.2101 -0.0711
45.7000 15.2167 -0.0782
45.7200 15.2234 -0.0755
45.7400 15.2300 -0.0703
45.7600 15.2367 -0.0790
45.7800 15.2433 -0.0791
45.8000 15.2500 -0.0710
45.8200 15.2566 -0.0837
45.8400 15.2633 -0.0756
45.8600 15.2700 -0.0708
45.8800 15.2767 -0.0784
45.9000 15.2834 -0.0773
45.9200 15.2901 -0.0754
45.9400 15.2967 -0.0823
45.9600 15.3034 -0.0724
45.9800 15.3099 -0.0771
46.0000 15.3166 -0.0793
46.0200 15.3233 -0.0700
46.0400 15.3300 -0.0853
46.0600 15.3367 -0.0804
46.0800 15.3434 -0.0692
46.1000 15.3501 -0.0865
46.1200 15.3567 -0.0794
46.1400 15.3634 -0.0759
46.1600 15.3700 -0.0861
46.1800 15.3766 -0.0723
46.2000 15.3833 -0.0783
46.2200 15.3900 -0.0896
46.2400 15.3967 -0.0724
46.2600 15.4034 -0.0797
46.2800 15.4101 -0.0818
46.3000 15.4168 -0.0738
46.3200 15.4234 -0.0882
46.3400 15.4300 -0.0769
46.3600 15.4366 -0.0708
46.3800 15.4433 -0.0864
46.4000 15.4500 -0.0794
46.4200 15.4567 -0.0743
46.4400 15.4634 -0.0902
46.4600 15.4701 -0.0778
46.4800 15.4767 -0.0815
46.5000 15.4833 -0.0839
46.5200 15.4899 -0.0707
46.5400 15.4965 -0.0917
46.5600 15.5032 -0.0850
46.5800 15.5100 -0.0612
46.6000 15.5167 -0.0954
46.6200 15.5234 -0.0860
46.6400 15.5300 -0.0736
46.6600 15.5367 -0.0957
46.6800 15.5434 -0.0802
46.7000 15.5500 -0.0780
46.7200 15.5566 -0.0951
46.7400 15.5633 -0.0747
46.7600 15.5700 -0.0775
46.7800 15.5767 -0.1021
46.8000 15.5834 -0.0739
46.8200 15.5901 -0.0783
46.8400 15.5968 -0.0982
46.8600 15.6034 -0.0856
46.8800 15.6100 -0.0791
46.9000 15.6166 -0.0920
46.9200 15.6233 -0.0822
46.9400 15.6300 -0.0823
46.9600 15.6367 -0.0888
46.9800 15.6434 -0.0801
47.0000 15.6501 -0.0858
47.0200 15.6568 -0.0947
47.0400 15.6634 -0.0826
47.0600 15.6700 -0.0840
47.0800 15.6766 -0.0903
47.1000 15.6833 -0.0836
47.1200 15.6900 -0.0888
47.1400 15.6967 -0.0906
47.1600 15.7034 -0.0893
47.1800 15.7101 -0.0882
47.2000 15.7167 -0.0901
47.2200 15.7234 -0.0818
47.2400 15.7300 -0.0919
47.2600 15.7366 -0.0900
47.2800 15.7433 -0.0841
47.3000 15.7500 -0.0945
47.3200 15.7567 -0.0922
47.3400 15.7634 -0.0817
47.3600 15.7700 -0.0963
47.3800 15.7767 -0.0892
47.4000 15.7834 -0.0834
47.4200 15.7900 -0.0919
47.4400 15.7966 -0.0876
47.4600 15.8033 -0.0864
47.4800 15.8100 -0.0972
47.5000 15.8167 -0.0903
47.5200 15.8234 -0.0904
47.5400 15.8301 -0.0967
47.5600 15.8367 -0.0841
47.5800 15.8434 -0.0912
47.6000 15.8500 -0.0995
47.6200 15.8566 -0.0830
47.6400 15.8633 -0.0838
47.6600 15.8700 -0.1036
47.6800 15.8767 -0.0856
47.7000 15.8834 -0.0930
47.7200 15.8901 -0.1031
47.7400 15.8968 -0.0830
47.7600 15.9034 -0.0933
47.7800 15.9100 -0.1053
47.8000 15.9166 -0.0765
47.8200 15.9233 -0.0976
47.8400 15.9300 -0.1050
47.8600 15.9367 -0.0816
47.8800 15.9434 -0.0972
47.9000 15.9501 -0.1030
47.9200 15.9567 -0.0912
47.9400 15.9634 -0.1027
47.9600 15.9700 -0.0963
47.9800 15.9766 -0.0880
48.0000 15.9833 -0.1030
48.0200 15.9900 -0.0942
48.0400 15.9967 -0.0945
48.0600 16.0034 -0.0957
48.0800 16.0100 -0.0989
48.1000 16.0167 -0.0983
48.1200 16.0234 -0.0970
48.1400 16.0300 -0.0951
48.1600 16.0366 -0.1040
48.1800 16.0433 -0.0956
48.2000 16.0501 -0.0953
48.2200 16.0568 -0.1014
48.2400 16.0634 -0.0954
48.2600 16.0701 -0.0976
48.2800 16.0768 -0.1027
48.3000 16.0834 -0.0970
48.3200 16.0900 -0.1048
48.3400 16.0966 -0.0959
48.3600 16.1033 -0.0902
48.3800 16.1100 -0.1063
48.4000 16.1167 -0.1017
48.4200 16.1234 -0.0887
48.4400 16.1301 -0.1035
48.4600 16.1368 -0.1098
48.4800 16.1434 -0.0889
48.5000 16.1500 -0.1049
48.5200 16.1566 -0.1029
48.5400 16.1633 -0.0981
48.5600 16.1700 -0.1091
48.5800 16.1767 -0.0982
48.6000 16.1834 -0.0958
48.6200 16.1901 -0.1087
48.6400 16.1967 -0.0996
48.6600 16.2034 -0.1023
48.6800 16.2100 -0.1064
48.7000 16.2166 -0.0934
48.7200 16.2232 -0.0944
48.7400 16.2300 -0.1184
48.7600 16.2367 -0.0998
48.7800 16.2434 -0.0937
48.8000 16.2500 -0.1088
48.8200 16.2567 -0.1020
48.8400 16.2634 -0.0990
48.8600 16.2700 -0.1060
48.8800 16.2766 -0.1032
48.9000 16.2833 -0.0994
48.9200 16.2900 -0.1107
48.9400 16.2967 -0.0994
48.9600 16.3034 -0.0989
48.9800 16.3101 -0.1209
49.0000 16.3168 -0.1042
49.0200 16.3235 -0.0907
49.0400 16.3300 -0.1158
49.0600 16.3366 -0.1065
49.0800 16.3433 -0.0974
49.1000 16.3500 -0.1053
49.1200 16.3567 -0.0995
49.1400 16.3634 -0.1101
49.1600 16.3701 -0.1110
49.1800 16.3767 -0.0920
49.2000 16.3834 -0.1156
49.2200 16.3900 -0.1134
49.2400 16.3966 -0.0897
49.2600 16.4033 -0.1118
49.2800 16.4100 -0.1108
49.3000 16.4167 -0.0960
49.3200 16.4233 -0.1178
49.3400 16.4300 -0.1039
49.3600 16.4367 -0.0991
49.3800 16.4434 -0.1215
49.4000 16.4500 -0.1018
49.4200 16.4566 -0.1101
49.4400 16.4632 -0.1175
49.4600 16.4699 -0.1052
49.4800 16.4766 -0.1059
49.5000 16.4833 -0.1113
49.5200 16.4900 -0.1082
49.5400 16.4967 -0.1186
49.5600 16.5034 -0.1091
49.5800 16.5100 -0.1086
49.6000 16.5166 -0.1161
49.6200 16.5233 -0.1133
49.6400 16.5300 -0.1124
49.6600 16.5367 -0.1088
49.6800 16.5434 -0.1081
49.7000 16.5501 -0.1237
49.7200 16.5568 -0.1037
49.7400 16.5634 -0.1073
49.7600 16.5700 -0.1305
49.7800 16.5766 -0.1070
49.8000 16.5833 -0.1084
49.8200 16.5900 -0.1224
49.8400 16.5967 -0.1101
49.8600 16.6034 -0.1103
49.8800 16.6101 -0.1212
49.9000 16.6168 -0.1073
49.9200 16.6234 -0.1173
49.9400 16.6301 -0.1172
49.9600 16.6367 -0.1077
49.9800 16.6433 -0.1175
50.0000 16.6500 -0.1200
50.0200 16.6567 -0.1091
50.0400 16.6634 -0.1188
50.0600 16.6701 -0.1172
50.0800 16.6768 -0.1175
50.1000 16.6834 -0.1157
50.1200 16.6900 -0.1116
50.1400 16.6966 -0.1246
50.1600 16.7032 -0.1177
50.1800 16.7100 -0.1056
50.2000 16.7167 -0.1279
50.2200 16.7234 -0.1231
50.2400 16.7300 -0.0985
50.2600 16.7367 -0.1322
50.2800 16.7434 -0.1199
50.3000 16.7500 -0.1068
50.3200 16.7566 -0.1305
50.3400 16.7633 -0.1129
50.3600 16.7700 -0.1057
50.3800 16.7767 -0.1395
50.4000 16.7834 -0.1148
50.4200 16.7901 -0.1103
50.4400 16.7968 -0.1328
50.4600 16.8034 -0.1148
50.4800 16.8101 -0.1119
50.5000 16.8167 -0.1349
50.5200 16.8233 -0.1147
50.5400 16.8300 -0.1142
50.5600 16.8367 -0.1326
50.5800 16.8434 -0.1063
50.6000 16.8501 -0.1179
50.6200 16.8568 -0.1395
50.6400 16.8634 -0.1084
50.6600 16.8700 -0.1159
50.6800 16.8766 -0.1403
50.7000 16.8833 -0.1100
50.7200 16.8900 -0.1141
50.7400 16.8967 -0.1410
50.7600 16.9034 -0.1187
50.7800 16.9101 -0.1056
50.8000 16.9167 -0.1366
50.8200 16.9234 -0.1259
50.8400 16.9300 -0.1139
50.8600 16.9366 -0.1299
50.8800 16.9433 -0.1281
50.9000 16.9500 -0.1127
50.9200 16.9567 -0.1324
50.9400 16.9633 -0.1299
50.9600 16.9700 -0.1175
50.9800 16.9767 -0.1279
51.0000 16.9834 -0.1275
51.0200 16.9900 -0.1219
51.0400 16.9966 -0.1305
51.0600 17.0033 -0.1297
51.0800 17.0100 -0.1224
51.1000 17.0167 -0.1293
51.1200 17.0234 -0.1270
51.1400 17.0301 -0.1246
51.1600 17.0368 -0.1308
51.1800 17.0434 -0.1258
51.2000 17.0500 -0.1222
51.2200 17.0566 -0.1344
51.2400 17.0633 -0.1267
51.2600 17.0700 -0.1230
51.2800 17.0767 -0.1377
51.3000 17.0834 -0.1298
51.3200 17.0901 -0.1180
51.3400 17.0967 -0.1353
51.3600 17.1034 -0.1316
51.3800 17.1100 -0.1277
51.4000 17.1166 -0.1304
51.4200 17.1233 -0.1257
51.4400 17.1300 -0.1284
51.4600 17.1367 -0.1378
51.4800 17.1434 -0.1253
51.5000 17.1500 -0.1314
51.5200 17.1567 -0.1381
51.5400 17.1634 -0.1265
51.5600 17.1700 -0.1335
51.5800 17.1766 -0.1365
51.6000 17.1833 -0.1292
51.6200 17.1899 -0.1321
51.6400 17.1967 -0.1346
51.6600 17.2034 -0.1268
51.6800 17.2101 -0.1407
51.7000 17.2167 -0.1343
51.7200 17.2234 -0.1308
51.7400 17.2300 -0.1391
51.7600 17.2366 -0.1349
51.7800 17.2433 -0.1296
51.8000 17.2500 -0.1389
51.8200 17.2567 -0.1360
51.8400 17.2634 -0.1310
51.8600 17.2701 -0.1349
51.8800 17.2767 -0.1380
51.9000 17.2834 -0.1422
51.9200 17.2901 -0.1375
51.9400 17.2967 -0.1350
51.9600 17.3033 -0.1350
51.9800 17.3100 -0.1364
52.0000 17.3167 -0.1399
52.0200 17.3234 -0.1439
52.0400 17.3301 -0.1360
52.0600 17.3368 -0.1340
52.0800 17.3434 -0.1428
52.1000 17.3501 -0.1402
52.1200 17.3567 -0.1382
52.1400 17.3633 -0.1417
52.1600 17.3699 -0.1393
52.1800 17.3766 -0.1386
52.2000 17.3834 -0.1385
52.2200 17.3900 -0.1440
52.2400 17.3967 -0.1413
52.2600 17.4034 -0.1355
52.2800 17.4100 -0.1411
52.3000 17.4166 -0.1476
52.3200 17.4232 -0.1388
52.3400 17.4299 -0.1385
52.3600 17.4366 -0.1430
52.3800 17.4433 -0.1475
52.4000 17.4500 -0.1375
52.4200 17.4567 -0.1461
52.4400 17.4634 -0.1484
52.4600 17.4700 -0.1344
52.4800 17.4766 -0.1498
52.5000 17.4833 -0.1467
52.5200 17.4900 -0.1359
52.5400 17.4967 -0.1508
52.5600 17.5034 -0.1500
52.5800 17.5101 -0.1296
52.6000 17.5168 -0.1517
52.6200 17.5234 -0.1532
52.6400 17.5301 -0.1369
52.6600 17.5367 -0.1511
52.6800 17.5433 -0.1490
52.7000 17.5500 -0.1336
52.7200 17.5567 -0.1542
52.7400 17.5634 -0.1490
52.7600 17.5701 -0.1461
52.7800 17.5768 -0.1526
52.8000 17.5834 -0.1432
52.8200 17.5901 -0.1413
52.8400 17.5967 -0.1563
52.8600 17.6033 -0.1510
52.8800 17.6099 -0.1388
52.9000 17.6167 -0.1515
52.9200 17.6234 -0.1520
52.9400 17.6300 -0.1444
52.9600 17.6367 -0.1487
52.9800 17.6434 -0.1547
53.0000 17.6500 -0.1424
53.0200 17.6567 -0.1521
53.0400 17.6633 -0.1484
53.0600 17.6699 -0.1384
53.0800 17.6766 -0.1584
53.1000 17.6833 -0.1530
53.1200 17.6900 -0.1344
53.1400 17.6967 -0.1616
53.1600 17.7034 -0.1583
53.1800 17.7101 -0.1331
53.2000 17.7167 -0.1554
53.2200 17.7233 -0.1615
53.2400 17.7299 -0.1365
53.2600 17.7367 -0.1514
53.2800 17.7434 -0.1558
53.3000 17.7501 -0.1441
53.3200 17.7568 -0.1623
53.3400 17.7634 -0.1449
53.3600 17.7701 -0.1475
53.3800 17.7767 -0.1643
53.4000 17.7833 -0.1399
53.4200 17.7900 -0.1475
53.4400 17.7967 -0.1749
53.4600 17.8034 -0.1378
53.4800 17.8101 -0.1438
53.5000 17.8168 -0.1775
53.5200 17.8234 -0.1403
53.5400 17.8301 -0.1411
53.5600 17.8367 -0.1746
53.5800 17.8433 -0.1445
53.6000 17.8499 -0.1439
53.6200 17.8566 -0.1672
53.6400 17.8633 -0.1522
53.6600 17.8700 -0.1514
53.6800 17.8767 -0.1579
53.7000 17.8834 -0.1482
53.7200 17.8900 -0.1548
53.7400 17.8966 -0.1630
53.7600 17.9032 -0.1534
53.7800 17.9099 -0.1514
53.8000 17.9166 -0.1638
53.8200 17.9234 -0.1625
53.8400 17.9300 -0.1493
53.8600 17.9367 -0.1576
53.8800 17.9434 -0.1671
53.9000 17.9500 -0.1600
53.9200 17.9567 -0.1442
53.9400 17.9633 -0.1581
53.9600 17.9700 -0.1635
53.9800 17.9767 -0.1581
54.0000 17.9834 -0.1650
54.0200 17.9901 -0.1569
54.0400 17.9967 -0.1573
54.0600 18.0034 -0.1655
54.0800 18.0101 -0.1501
54.1000 18.0167 -0.1638
54.1200 18.0233 -0.1705
54.1400 18.0299 -0.1433
54.1600 18.0366 -0.1708
54.1800 18.0433 -0.1686
54.2000 18.0501 -0.1420
54.2200 18.0567 -0.1742
54.2400 18.0634 -0.1834
54.2600 18.0701 -0.1322
54.2800 18.0767 -0.1690
54.3000 18.0833 -0.1874
54.3200 18.0899 -0.1442
54.3400 18.0967 -0.1564
54.3600 18.1034 -0.1746
54.3800 18.1101 -0.1645
54.4000 18.1167 -0.1582
54.4200 18.1234 -0.1667
54.4400 18.1301 -0.1654
54.4600 18.1367 -0.1664
54.4800 18.1433 -0.1730
54.5000 18.1499 -0.1558
54.5200 18.1566 -0.1648
54.5400 18.1633 -0.1793
54.5600 18.1700 -0.1569
54.5800 18.1767 -0.1504
54.6000 18.1834 -0.1792
54.6200 18.1900 -0.1762
54.6400 18.1967 -0.1545
54.6600 18.2033 -0.1700
54.6800 18.2099 -0.1763
54.7000 18.2166 -0.1649
54.7200 18.2234 -0.1618
54.7400 18.2301 -0.1677
54.7600 18.2368 -0.1750
54.7800 18.2435 -0.1631
54.8000 18.2501 -0.1575
54.8200 18.2567 -0.1841
54.8400 18.2633 -0.1690
54.8600 18.2700 -0.1581
54.8800 18.2767 -0.1722
54.9000 18.2834 -0.1740
54.9200 18.2901 -0.1693
54.9400 18.2968 -0.1696
54.9600 18.3034 -0.1656
54.9800 18.3101 -0.1724
55.0000 18.3167 -0.1727
55.0200 18.3233 -0.1630
55.0400 18.3299 -0.1792
55.0600 18.3366 -0.1730
55.0800 18.3433 -0.1622
55.1000 18.3500 -0.1812
55.1200 18.3567 -0.1755
55.1400 18.3634 -0.1653
55.1600 18.3701 -0.1816
55.1800 18.3767 -0.1643
55.2000 18.3833 -0.1624
55.2200 18.3899 -0.1809
55.2400 18.3966 -0.1748
55.2600 18.4033 -0.1684
55.2800 18.4100 -0.1819
55.3000 18.4167 -0.1666
55.3200 18.4234 -0.1766
55.3400 18.4300 -0.1847
55.3600 18.4367 -0.1647
55.3800 18.4433 -0.1753
55.4000 18.4499 -0.1863
55.4200 18.4566 -0.1577
55.4400 18.4634 -0.1821
55.4600 18.4701 -0.1864
55.4800 18.4768 -0.1640
55.5000 18.4834 -0.1811
55.5200 18.4901 -0.1865
55.5400 18.4967 -0.1649
55.5600 18.5034 -0.1801
55.5800 18.5100 -0.1840
55.6000 18.5167 -0.1630
55.6200 18.5234 -0.1851
55.6400 18.5300 -0.1816
55.6600 18.5367 -0.1605
55.6800 18.5434 -0.1842
55.7000 18.5501 -0.1888
55.7200 18.5567 -0.1675
55.7400 18.5633 -0.1806
55.7600 18.5699 -0.1840
55.7800 18.5766 -0.1696
55.8000 18.5833 -0.1838
55.8200 18.5900 -0.1887
55.8400 18.5967 -0.1627
55.8600 18.6034 -0.1847
55.8800 18.6101 -0.1882
55.9000 18.6167 -0.1718
55.9200 18.6233 -0.1868
55.9400 18.6299 -0.1841
55.9600 18.6366 -0.1740
55.9800 18.6433 -0.1772
56.0000 18.6500 -0.1920
56.0200 18.6567 -0.1783
56.0400 18.6634 -0.1744
56.0600 18.6701 -0.1852
56.0800 18.6767 -0.1815
56.1000 18.6833 -0.1764
56.1200 18.6900 -0.1921
56.1400 18.6966 -0.1804
56.1600 18.7033 -0.1752
56.1800 18.7100 -0.1880
56.2000 18.7167 -0.1807
56.2200 18.7234 -0.1814
56.2400 18.7301 -0.1944
56.2600 18.7367 -0.1752
56.2800 18.7433 -0.1742
56.3000 18.7499 -0.1966
56.3200 18.7566 -0.1811
56.3400 18.7634 -0.1768
56.3600 18.7701 -0.1971
56.3800 18.7768 -0.1749
56.4000 18.7834 -0.1804
56.4200 18.7901 -0.2013
56.4400 18.7967 -0.1751
56.4600 18.8033 -0.1787
56.4800 18.8100 -0.1951
56.5000 18.8166 -0.1805
56.5200 18.8233 -0.1768
56.5400 18.8300 -0.2003
56.5600 18.8367 -0.1802
56.5800 18.8434 -0.1796
56.6000 18.8500 -0.2042
56.6200 18.8567 -0.1858
56.6400 18.8633 -0.1743
56.6600 18.8699 -0.1973
56.6800 18.8766 -0.1892
56.7000 18.8833 -0.1761
56.7200 18.8900 -0.1962
56.7400 18.8967 -0.1987
56.7600 18.9034 -0.1767
56.7800 18.9101 -0.1913
56.8000 18.9167 -0.2018
56.8200 18.9233 -0.1773
56.8400 18.9299 -0.1945
56.8600 18.9366 -0.2020
56.8800 18.9434 -0.1773
56.9000 18.9501 -0.1895
56.9200 18.9568 -0.2070
56.9400 18.9635 -0.1805
56.9600 18.9701 -0.1979
56.9800 18.9767 -0.2030
57.0000 18.9833 -0.1855
57.0200 18.9900 -0.1897
57.0400 18.9966 -0.1968
57.0600 19.0034 -0.1885
57.0800 19.0101 -0.1920
57.1000 19.0167 -0.1949
57.1200 19.0234 -0.1959
57.1400 19.0301 -0.1919
57.1600 19.0367 -0.1946
57.1800 19.0433 -0.1988
57.2000 19.0499 -0.1931
57.2200 19.0566 -0.1917
57.2400 19.0633 -0.2057
57.2600 19.0700 -0.1981
57.2800 19.0767 -0.1893
57.3000 19.0834 -0.2086
57.3200 19.0901 -0.1910
57.3400 19.0967 -0.1934
57.3600 19.1033 -0.2088
57.3800 19.1099 -0.1929
57.4000 19.1166 -0.1937
57.4200 19.1233 -0.2118
57.4400 19.1300 -0.1932
57.4600 19.1367 -0.2022
57.4800 19.1434 -0.2105
57.5000 19.1501 -0.1904
57.5200 19.1567 -0.2016
57.5400 19.1633 -0.2078
57.5600 19.1700 -0.1860
57.5800 19.1766 -0.2118
57.6000 19.1833 -0.2071
57.6200 19.1901 -0.1889
57.6400 19.1967 -0.2153
57.6600 19.2034 -0.2061
57.6800 19.2101 -0.1978
57.7000 19.2168 -0.2116
57.7200 19.2234 -0.2001
57.7400 19.2300 -0.1962
57.7600 19.2366 -0.2158
57.7800 19.2433 -0.1880
57.8000 19.2501 -0.2027
57.8200 19.2568 -0.2271
57.8400 19.2635 -0.1852
57.8600 19.2701 -0.2036
57.8800 19.2768 -0.2292
57.9000 19.2834 -0.1926
57.9200 19.2899 -0.2038
57.9400 19.2966 -0.2130
57.9600 19.3033 -0.1970
57.9800 19.3100 -0.2068
58.0000 19.3167 -0.2153
58.0200 19.3234 -0.2031
58.0400 19.3301 -0.2143
58.0600 19.3367 -0.2098
58.0800 19.3433 -0.2074
58.1000 19.3499 -0.2118
58.1200 19.3566 -0.2049
58.1400 19.3633 -0.2087
58.1600 19.3700 -0.2201
58.1800 19.3767 -0.1989
58.2000 19.3833 -0.1945
58.2200 19.3900 -0.2334
58.2400 19.3967 -0.2103
58.2600 19.4033 -0.1907
58.2800 19.4100 -0.2286
58.3000 19.4166 -0.2184
58.3200 19.4233 -0.1912
58.3400 19.4300 -0.2172
58.3600 19.4367 -0.2278
58.3800 19.4434 -0.2068
58.4000 19.4501 -0.1999
58.4200 19.4568 -0.2188
58.4400 19.4634 -0.2285
58.4600 19.4699 -0.2107
58.4800 19.4766 -0.2054
58.5000 19.4833 -0.2236
58.5200 19.4900 -0.2154
58.5400 19.4967 -0.2084
58.5600 19.5034 -0.2331
58.5800 19.5101 -0.2118
58.6000 19.5167 -0.1967
58.6200 19.5234 -0.2392
58.6400 19.5300 -0.2224
58.6600 19.5366 -0.1798
58.6800 19.5433 -0.2417
58.7000 19.5500 -0.2361
58.7200 19.5567 -0.1854
58.7400 19.5634 -0.2302
58.7600 19.5701 -0.2329
58.7800 19.5767 -0.2020
58.8000 19.5833 -0.2364
58.8200 19.5899 -0.2112
58.8400 19.5966 -0.2095
58.8600 19.6033 -0.2442
58.8800 19.6100 -0.2059
58.9000 19.6167 -0.2140
58.9200 19.6234 -0.2473
58.9400 19.6300 -0.2063
58.9600 19.6367 -0.2152
58.9800 19.6433 -0.2443
59.0000 19.6499 -0.2040
59.0200 19.6566 -0.2216
59.0400 19.6633 -0.2386
59.0600 19.6700 -0.2074
59.0800 19.6767 -0.2324
59.1000 19.6834 -0.2344
59.1200 19.6901 -0.2107
59.1400 19.6968 -0.2365
59.1600 19.7034 -0.2244
59.1800 19.7100 -0.2217
59.2000 19.7167 -0.2367
59.2200 19.7234 -0.2123
59.2400 19.7301 -0.2244
59.2600 19.7367 -0.2436
59.2800 19.7434 -0.2170
59.3000 19.7501 -0.2273
59.3200 19.7567 -0.2438
59.3400 19.7634 -0.2198
59.3600 19.7700 -0.2285
59.3800 19.7766 -0.2398
59.4000 19.7833 -0.2235
59.4200 19.7900 -0.2311
59.4400 19.7967 -0.2339
59.4600 19.8034 -0.2232
59.4800 19.8100 -0.2327
59.5000 19.8167 -0.2371
59.5200 19.8233 -0.2347
59.5400 19.8299 -0.2308
59.5600 19.8366 -0.2332
59.5800 19.8433 -0.2350
59.6000 19.8500 -0.2416
59.6200 19.8567 -0.2291
59.6400 19.8634 -0.2340
59.6600 19.8700 -0.2413
59.6800 19.8767 -0.2329
59.7000 19.8834 -0.2328
59.7200 19.8900 -0.2399
59.7400 19.8966 -0.2412
59.7510 19.9002 -0.2466
