Raw Data
Time Displacement Force
(s) (mm) (N)
0.0000 0.0000 -0.0014
0.0200 0.0000 -0.0071
0.0400 0.0008 0.0380
0.0600 0.0040 0.0925
0.0800 0.0094 0.0763
0.1000 0.0152 0.0988
0.1200 0.0211 0.1666
0.1400 0.0277 0.1807
0.1600 0.0350 0.2128
0.1800 0.0425 0.2571
0.2000 0.0496 0.2492
0.2200 0.0565 0.2532
0.2400 0.0632 0.2739
0.2600 0.0699 0.2538
0.2800 0.0765 0.2587
0.3000 0.0832 0.2749
0.3200 0.0899 0.2522
0.3400 0.0967 0.2594
0.3600 0.1034 0.2673
0.3800 0.1100 0.2595
0.4000 0.1166 0.2688
0.4200 0.1233 0.2655
0.4400 0.1300 0.2626
0.4600 0.1367 0.2737
0.4800 0.1434 0.2652
0.5000 0.1501 0.2671
0.5200 0.1568 0.2699
0.5400 0.1634 0.2681
0.5600 0.1700 0.2711
0.5800 0.1766 0.2752
0.6000 0.1833 0.2704
0.6200 0.1900 0.2744
0.6400 0.1967 0.2722
0.6600 0.2034 0.2754
0.6800 0.2101 0.2863
0.7000 0.2167 0.2718
0.7200 0.2234 0.2711
0.7400 0.2300 0.2920
0.7600 0.2366 0.2746
0.7800 0.2433 0.2798
0.8000 0.2500 0.2877
0.8200 0.2567 0.2750
0.8400 0.2633 0.2873
0.8600 0.2700 0.2889
0.8800 0.2767 0.2745
0.9000 0.2833 0.2916
0.9200 0.2899 0.2930
0.9400 0.2965 0.2700
0.9600 0.3032 0.2963
0.9800 0.3099 0.2919
1.0000 0.3167 0.2752
1.0200 0.3233 0.2962
1.0400 0.3300 0.2873
1.0600 0.3367 0.2742
1.0800 0.3433 0.3001
1.1000 0.3499 0.2833
1.1200 0.3566 0.2763
1.1400 0.3633 0.2971
1.1600 0.3700 0.2840
1.1800 0.3767 0.2738
1.2000 0.3834 0.2950
1.2200 0.3901 0.2821
1.2400 0.3968 0.2860
1.2600 0.4034 0.2852
1.2800 0.4100 0.2683
1.3000 0.4166 0.2903
1.3200 0.4233 0.2864
1.3400 0.4300 0.2675
1.3600 0.4367 0.2800
1.3800 0.4434 0.2815
1.4000 0.4501 0.2769
1.4200 0.4568 0.2743
1.4400 0.4634 0.2703
1.4600 0.4700 0.2799
1.4800 0.4766 0.2778
1.5000 0.4832 0.2632
1.5200 0.4899 0.2713
1.5400 0.4967 0.2788
1.5600 0.5033 0.2587
1.5800 0.5100 0.2681
1.6000 0.5167 0.2681
1.6200 0.5233 0.2651
1.6400 0.5299 0.2655
1.6600 0.5366 0.2618
1.6800 0.5433 0.2627
1.7000 0.5500 0.2629
1.7200 0.5567 0.2581
1.7400 0.5633 0.2593
1.7600 0.5700 0.2574
1.7800 0.5767 0.2597
1.8000 0.5834 0.2541
1.8200 0.5900 0.2481
1.8400 0.5966 0.2563
1.8600 0.6033 0.2582
1.8800 0.6100 0.2479
1.9000 0.6167 0.2477
1.9200 0.6234 0.2572
1.9400 0.6301 0.2471
1.9600 0.6368 0.2472
1.9800 0.6434 0.2462
2.0000 0.6500 0.2478
2.0200 0.6566 0.2509
2.0400 0.6633 0.2464
2.0600 0.6700 0.2380
2.0800 0.6767 0.2464
2.1000 0.6834 0.2462
2.1200 0.6901 0.2382
2.1400 0.6967 0.2415
2.1600 0.7034 0.2449
2.1800 0.7100 0.2325
2.2000 0.7166 0.2441
2.2200 0.7233 0.2431
2.2400 0.7300 0.2337
2.2600 0.7367 0.2391
2.2800 0.7434 0.2414
2.3000 0.7500 0.2308
2.3200 0.7567 0.2311
2.3400 0.7634 0.2420
2.3600 0.7700 0.2270
2.3800 0.7766 0.2283
2.4000 0.7833 0.2416
2.4200 0.7900 0.2314
2.4400 0.7966 0.2294
2.4600 0.8033 0.2355
2.4800 0.8100 0.2276
2.5000 0.8167 0.2297
2.5200 0.8234 0.2261
2.5400 0.8300 0.2311
2.5600 0.8366 0.2292
2.5800 0.8433 0.2278
2.6000 0.8500 0.2237
2.6200 0.8567 0.2267
2.6400 0.8634 0.2216
2.6600 0.8701 0.2253
2.6800 0.8768 0.2237
2.7000 0.8834 0.2218
2.7200 0.8900 0.2251
2.7400 0.8966 0.2208
2.7600 0.9033 0.2168
2.7800 0.9100 0.2255
2.8000 0.9167 0.2165
2.8200 0.9234 0.2111
2.8400 0.9301 0.2267
2.8600 0.9367 0.2150
2.8800 0.9434 0.2077
2.9000 0.9500 0.2167
2.9200 0.9566 0.2208
2.9400 0.9633 0.2094
2.9600 0.9699 0.2188
2.9800 0.9767 0.2128
3.0000 0.9833 0.2116
3.0200 0.9900 0.2138
3.0400 0.9967 0.2110
3.0600 1.0034 0.2069
3.0800 1.0100 0.2083
3.1000 1.0166 0.2132
3.1200 1.0232 0.2091
3.1400 1.0299 0.2034
3.1600 1.0367 0.2126
3.1800 1.0434 0.2032
3.2000 1.0500 0.2026
3.2200 1.0567 0.2120
3.2400 1.0634 0.2040
3.2600 1.0700 0.2020
3.2800 1.0766 0.2089
3.3000 1.0833 0.2022
3.3200 1.0900 0.1988
3.3400 1.0967 0.2094
3.3600 1.1034 0.1997
3.3800 1.1101 0.1980
3.4000 1.1168 0.2087
3.4200 1.1234 0.1970
3.4400 1.1301 0.1963
3.4600 1.1367 0.2084
3.4800 1.1433 0.1921
3.5000 1.1500 0.2054
3.5200 1.1567 0.2042
3.5400 1.1634 0.1932
3.5600 1.1701 0.2023
3.5800 1.1767 0.2064
3.6000 1.1834 0.1855
3.6200 1.1900 0.2011
3.6400 1.1966 0.2049
3.6600 1.2032 0.1851
3.6800 1.2100 0.2055
3.7000 1.2167 0.1972
3.7200 1.2234 0.1827
3.7400 1.2300 0.2067
3.7600 1.2367 0.1975
3.7800 1.2434 0.1851
3.8000 1.2500 0.2069
3.8200 1.2566 0.1926
3.8400 1.2633 0.1866
3.8600 1.2700 0.2040
3.8800 1.2767 0.1952
3.9000 1.2834 0.1862
3.9200 1.2900 0.2006
3.9400 1.2967 0.1857
3.9600 1.3034 0.1929
3.9800 1.3100 0.1981
4.0000 1.3166 0.1921
4.0200 1.3233 0.1924
4.0400 1.3300 0.1938
4.0600 1.3367 0.1874
4.0800 1.3434 0.1896
4.1000 1.3501 0.1942
4.1200 1.3567 0.1898
4.1400 1.3634 0.1895
4.1600 1.3700 0.1893
4.1800 1.3766 0.1868
4.2000 1.3833 0.1898
4.2200 1.3900 0.1967
4.2400 1.3967 0.1860
4.2600 1.4034 0.1818
4.2800 1.4101 0.1971
4.3000 1.4167 0.1894
4.3200 1.4234 0.1781
4.3400 1.4300 0.1954
4.3600 1.4366 0.1812
4.3800 1.4433 0.1818
4.4000 1.4500 0.1893
4.4200 1.4567 0.1814
4.4400 1.4633 0.1749
4.4600 1.4700 0.1916
4.4800 1.4767 0.1828
4.5000 1.4834 0.1751
4.5200 1.4900 0.1840
4.5400 1.4966 0.1772
4.5600 1.5032 0.1714
4.5800 1.5099 0.1849
4.6000 1.5166 0.1749
4.6200 1.5233 0.1708
4.6400 1.5300 0.1855
4.6600 1.5367 0.1710
4.6800 1.5434 0.1721
4.7000 1.5500 0.1823
4.7200 1.5566 0.1700
4.7400 1.5633 0.1730
4.7600 1.5700 0.1798
4.7800 1.5767 0.1653
4.8000 1.5834 0.1713
4.8200 1.5901 0.1777
4.8400 1.5968 0.1635
4.8600 1.6034 0.1711
4.8800 1.6100 0.1757
4.9000 1.6166 0.1613
4.9200 1.6233 0.1758
4.9400 1.6300 0.1624
4.9600 1.6367 0.1644
4.9800 1.6434 0.1716
5.0000 1.6501 0.1636
5.0200 1.6567 0.1672
5.0400 1.6634 0.1671
5.0600 1.6700 0.1568
5.0800 1.6766 0.1634
5.1000 1.6832 0.1668
5.1200 1.6899 0.1570
5.1400 1.6966 0.1686
5.1600 1.7034 0.1597
5.1800 1.7100 0.1526
5.2000 1.7167 0.1651
5.2200 1.7234 0.1579
5.2400 1.7300 0.1516
5.2600 1.7366 0.1665
5.2800 1.7432 0.1551
5.3000 1.7499 0.1534
5.3200 1.7566 0.1656
5.3400 1.7633 0.1540
5.3600 1.7700 0.1526
5.3800 1.7767 0.1607
5.4000 1.7833 0.1473
5.4200 1.7900 0.1563
5.4400 1.7966 0.1606
5.4600 1.8033 0.1471
5.4800 1.8100 0.1473
5.5000 1.8167 0.1586
5.5200 1.8234 0.1457
5.5400 1.8301 0.1474
5.5600 1.8368 0.1591
5.5800 1.8434 0.1453
5.6000 1.8501 0.1451
5.6200 1.8567 0.1577
5.6400 1.8633 0.1462
5.6600 1.8700 0.1433
5.6800 1.8767 0.1562
5.7000 1.8834 0.1448
5.7200 1.8901 0.1474
5.7400 1.8967 0.1506
5.7600 1.9034 0.1404
5.7800 1.9100 0.1436
5.8000 1.9166 0.1543
5.8200 1.9232 0.1459
5.8400 1.9299 0.1438
5.8600 1.9367 0.1421
5.8800 1.9433 0.1411
5.9000 1.9500 0.1485
5.9200 1.9567 0.1522
5.9400 1.9633 0.1378
5.9600 1.9700 0.1397
5.9800 1.9766 0.1393
6.0000 1.9833 0.1442
6.0200 1.9899 0.1469
6.0400 1.9966 0.1414
6.0600 2.0033 0.1368
6.0800 2.0100 0.1359
6.1000 2.0167 0.1442
6.1200 2.0234 0.1411
6.1400 2.0301 0.1359
6.1600 2.0367 0.1358
6.1800 2.0433 0.1383
6.2000 2.0500 0.1386
6.2200 2.0567 0.1405
6.2400 2.0634 0.1332
6.2600 2.0701 0.1373
6.2800 2.0767 0.1325
6.3000 2.0834 0.1385
6.3200 2.0900 0.1328
6.3400 2.0966 0.1317
6.3600 2.1033 0.1351
6.3800 2.1100 0.1352
6.4000 2.1167 0.1291
6.4200 2.1234 0.1327
6.4400 2.1300 0.1317
6.4600 2.1367 0.1305
6.4800 2.1434 0.1292
6.5000 2.1501 0.1262
6.5200 2.1567 0.1287
6.5400 2.1633 0.1282
6.5600 2.1700 0.1285
6.5800 2.1766 0.1243
6.6000 2.1833 0.1326
6.6200 2.1900 0.1267
6.6400 2.1967 0.1197
6.6600 2.2034 0.1291
6.6800 2.2101 0.1250
6.7000 2.2167 0.1202
6.7200 2.2232 0.1327
6.7400 2.2299 0.1212
6.7600 2.2366 0.1232
6.7800 2.2433 0.1248
6.8000 2.2500 0.1225
6.8200 2.2567 0.1274
6.8400 2.2634 0.1272
6.8600 2.2700 0.1124
6.8800 2.2767 0.1206
6.9000 2.2833 0.1266
6.9200 2.2900 0.1192
6.9400 2.2967 0.1195
6.9600 2.3034 0.1242
6.9800 2.3100 0.1244
7.0000 2.3167 0.1167
7.0200 2.3234 0.1170
7.0400 2.3301 0.1220
7.0600 2.3367 0.1206
7.0800 2.3433 0.1171
7.1000 2.3499 0.1195
7.1200 2.3567 0.1168
7.1400 2.3634 0.1240
7.1600 2.3701 0.1100
7.1800 2.3767 0.1147
7.2000 2.3834 0.1257
7.2200 2.3901 0.1118
7.2400 2.3967 0.1082
7.2600 2.4033 0.1239
7.2800 2.4099 0.1090
7.3000 2.4167 0.1075
7.3200 2.4234 0.1220
7.3400 2.4301 0.1106
7.3600 2.4367 0.1090
7.3800 2.4434 0.1249
7.4000 2.4500 0.1037
7.4200 2.4566 0.1090
7.4400 2.4633 0.1250
7.4600 2.4699 0.1022
7.4800 2.4766 0.1041
7.5000 2.4833 0.1215
7.5200 2.4900 0.1041
7.5400 2.4967 0.1024
7.5600 2.5034 0.1110
7.5800 2.5100 0.0996
7.6000 2.5167 0.1052
7.6200 2.5233 0.1164
7.6400 2.5300 0.0997
7.6600 2.5367 0.1024
7.6800 2.5434 0.1090
7.7000 2.5500 0.1013
7.7200 2.5567 0.1113
7.7400 2.5634 0.1026
7.7600 2.5701 0.0983
7.7800 2.5767 0.1011
7.8000 2.5833 0.1052
7.8200 2.5900 0.1016
7.8400 2.5967 0.1065
7.8600 2.6034 0.0981
7.8800 2.6101 0.0963
7.9000 2.6167 0.1034
7.9200 2.6234 0.0992
7.9400 2.6301 0.0961
7.9600 2.6367 0.0950
7.9800 2.6433 0.0989
8.0000 2.6499 0.1013
8.0200 2.6566 0.0959
8.0400 2.6633 0.0910
8.0600 2.6700 0.0999
8.0800 2.6767 0.0961
8.1000 2.6834 0.0948
8.1200 2.6901 0.0964
8.1400 2.6967 0.0874
8.1600 2.7032 0.0939
8.1800 2.7099 0.0982
8.2000 2.7166 0.0850
8.2200 2.7233 0.0969
8.2400 2.7300 0.0923
8.2600 2.7367 0.0853
8.2800 2.7434 0.0929
8.3000 2.7501 0.0924
8.3200 2.7567 0.0846
8.3400 2.7633 0.0933
8.3600 2.7699 0.0852
8.3800 2.7766 0.0852
8.4000 2.7834 0.0991
8.4200 2.7900 0.0828
8.4400 2.7967 0.0782
8.4600 2.8034 0.0945
8.4800 2.8101 0.0839
8.5000 2.8167 0.0795
8.5200 2.8233 0.0955
8.5400 2.8299 0.0763
8.5600 2.8366 0.0803
8.5800 2.8434 0.0877
8.6000 2.8501 0.0782
8.6200 2.8567 0.0778
8.6400 2.8634 0.0893
8.6600 2.8701 0.0763
8.6800 2.8767 0.0752
8.7000 2.8833 0.0870
8.7200 2.8899 0.0830
8.7400 2.8966 0.0721
8.7600 2.9033 0.0827
8.7800 2.9100 0.0759
8.8000 2.9167 0.0739
8.8200 2.9234 0.0782
8.8400 2.9301 0.0729
8.8600 2.9367 0.0754
8.8800 2.9432 0.0830
8.9000 2.9499 0.0747
8.9200 2.9566 0.0704
8.9400 2.9633 0.0769
8.9600 2.9700 0.0786
8.9800 2.9767 0.0733
9.0000 2.9833 0.0720
9.0200 2.9900 0.0790
9.0400 2.9967 0.0650
9.0600 3.0033 0.0716
9.0800 3.0099 0.0832
9.1000 3.0166 0.0735
9.1200 3.0234 0.0635
9.1400 3.0301 0.0750
9.1600 3.0367 0.0644
9.1800 3.0434 0.0732
9.2000 3.0501 0.0798
9.2200 3.0567 0.0611
9.2400 3.0633 0.0658
9.2600 3.0699 0.0801
9.2800 3.0766 0.0655
9.3000 3.0833 0.0645
9.3200 3.0900 0.0741
9.3400 3.0967 0.0598
9.3600 3.1034 0.0680
9.3800 3.1101 0.0730
9.4000 3.1167 0.0557
9.4200 3.1233 0.0669
9.4400 3.1299 0.0714
9.4600 3.1366 0.0571
9.4800 3.1433 0.0662
9.5000 3.1500 0.0679
9.5200 3.1567 0.0586
9.5400 3.1634 0.0662
9.5600 3.1701 0.0687
9.5800 3.1767 0.0542
9.6000 3.1833 0.0700
9.6200 3.1899 0.0602
9.6400 3.1966 0.0562
9.6600 3.2033 0.0713
9.6800 3.2100 0.0619
9.7000 3.2167 0.0523
9.7200 3.2233 0.0708
9.7400 3.2300 0.0579
9.7600 3.2367 0.0524
9.7800 3.2433 0.0707
9.8000 3.2499 0.0612
9.8200 3.2566 0.0535
9.8400 3.2633 0.0604
9.8600 3.2701 0.0557
9.8800 3.2768 0.0529
9.9000 3.2834 0.0659
9.9200 3.2901 0.0545
9.9400 3.2967 0.0512
9.9600 3.3033 0.0569
9.9800 3.3099 0.0600
10.0000 3.3167 0.0512
10.0200 3.3234 0.0557
10.0400 3.3301 0.0566
10.0600 3.3367 0.0508
10.0800 3.3434 0.0576
10.1000 3.3501 0.0534
10.1200 3.3567 0.0498
10.1400 3.3633 0.0590
10.1600 3.3699 0.0483
10.1800 3.3766 0.0491
10.2000 3.3833 0.0562
10.2200 3.3900 0.0497
10.2400 3.3967 0.0481
10.2600 3.4034 0.0482
10.2800 3.4101 0.0504
10.3000 3.4167 0.0474
10.3200 3.4233 0.0513
10.3400 3.4299 0.0490
10.3600 3.4366 0.0496
10.3800 3.4433 0.0451
10.4000 3.4500 0.0475
10.4200 3.4567 0.0466
10.4400 3.4634 0.0431
10.4600 3.4700 0.0493
10.4800 3.4767 0.0454
10.5000 3.4833 0.0391
10.5200 3.4900 0.0535
10.5400 3.4966 0.0377
10.5600 3.5034 0.0387
10.5800 3.5100 0.0471
10.6000 3.5167 0.0419
10.6200 3.5234 0.0372
10.6400 3.5301 0.0462
10.6600 3.5367 0.0396
10.6800 3.5433 0.0380
10.7000 3.5500 0.0482
10.7200 3.5566 0.0378
10.7400 3.5633 0.0346
10.7600 3.5700 0.0414
10.7800 3.5767 0.0390
10.8000 3.5834 0.0367
10.8200 3.5901 0.0431
10.8400 3.5967 0.0398
10.8600 3.6033 0.0338
10.8800 3.6099 0.0336
10.9000 3.6166 0.0431
10.9200 3.6233 0.0322
10.9400 3.6301 0.0332
10.9600 3.6367 0.0350
10.9800 3.6434 0.0341
11.0000 3.6501 0.0309
11.0200 3.6567 0.0378
11.0400 3.6633 0.0317
11.0600 3.6699 0.0327
11.0800 3.6766 0.0409
11.1000 3.6833 0.0289
11.1200 3.6900 0.0279
11.1400 3.6966 0.0450
11.1600 3.7033 0.0232
11.1800 3.7100 0.0272
11.2000 3.7167 0.0396
11.2200 3.7233 0.0238
11.2400 3.7299 0.0323
11.2600 3.7366 0.0371
11.2800 3.7433 0.0263
11.3000 3.7500 0.0320
11.3200 3.7567 0.0363
11.3400 3.7634 0.0247
11.3600 3.7701 0.0300
11.3800 3.7768 0.0293
11.4000 3.7833 0.0264
11.4200 3.7899 0.0332
11.4400 3.7966 0.0305
11.4600 3.8034 0.0225
11.4800 3.8101 0.0305
11.5000 3.8168 0.0222
11.5200 3.8234 0.0271
11.5400 3.8301 0.0243
11.5600 3.8367 0.0259
11.5800 3.8433 0.0309
11.6000 3.8499 0.0291
11.6200 3.8566 0.0183
11.6400 3.8633 0.0277
11.6600 3.8700 0.0322
11.6800 3.8766 0.0216
11.7000 3.8833 0.0292
11.7200 3.8900 0.0122
11.7400 3.8967 0.0197
11.7600 3.9033 0.0422
11.7800 3.9099 0.0115
11.8000 3.9165 0.0101
11.8200 3.9233 0.0440
11.8400 3.9300 0.0182
11.8600 3.9367 0.0156
11.8800 3.9434 0.0267
11.9000 3.9500 0.0110
11.9200 3.9567 0.0167
11.9400 3.9633 0.0387
11.9600 3.9699 0.0113
11.9800 3.9766 0.0106
12.0000 3.9833 0.0291
12.0200 3.9900 0.0125
12.0400 3.9967 0.0170
12.0600 4.0034 0.0313
12.0800 4.0101 0.0058
12.1000 4.0168 0.0103
12.1200 4.0234 0.0214
12.1400 4.0300 0.0153
12.1600 4.0367 0.0207
12.1800 4.0433 0.0137
12.2000 4.0500 0.0042
12.2200 4.0567 0.0179
12.2400 4.0634 0.0185
12.2600 4.0701 0.0059
12.2800 4.0768 0.0219
12.3000 4.0834 0.0099
12.3200 4.0899 0.0080
12.3400 4.0966 0.0181
12.3600 4.1033 0.0068
12.3800 4.1100 0.0102
12.4000 4.1167 0.0230
12.4200 4.1234 0.0033
12.4400 4.1301 0.0140
12.4600 4.1367 0.0146
12.4800 4.1433 0.0052
12.5000 4.1499 0.0129
12.5200 4.1566 0.0163
12.5400 4.1633 0.0031
12.5600 4.1700 0.0070
12.5800 4.1767 0.0059
12.6000 4.1833 0.0010
12.6200 4.1900 0.0170
12.6400 4.1967 0.0053
12.6600 4.2034 -0.0018
12.6800 4.2100 0.0069
12.7000 4.2166 0.0068
12.7200 4.2233 0.0057
12.7400 4.2300 0.0096
12.7600 4.2367 -0.0015
12.7800 4.2434 0.0051
12.8000 4.2501 0.0071
12.8200 4.2568 0.0050
12.8400 4.2634 0.0080
12.8600 4.2700 0.0020
12.8800 4.2766 -0.0021
12.9000 4.2833 0.0103
12.9200 4.2900 -0.0030
12.9400 4.2967 -0.0011
12.9600 4.3034 0.0089
12.9800 4.3101 -0.0038
13.0000 4.3167 -0.0035
13.0200 4.3233 0.0030
13.0400 4.3300 -0.0013
13.0600 4.3366 -0.0005
13.0800 4.3433 0.0051
13.1000 4.3500 -0.0031
13.1200 4.3567 -0.0027
13.1400 4.3634 0.0038
13.1600 4.3700 -0.0015
13.1800 4.3767 -0.0048
13.2000 4.3833 0.0037
13.2200 4.3899 -0.0074
13.2400 4.3966 -0.0020
13.2600 4.4033 -0.0011
13.2800 4.4100 -0.0061
13.3000 4.4167 -0.0042
13.3200 4.4234 0.0014
13.3400 4.4301 -0.0111
13.3600 4.4367 -0.0046
13.3800 4.4433 -0.0017
13.4000 4.4499 -0.0125
13.4200 4.4566 -0.0042
13.4400 4.4633 -0.0003
13.4600 4.4701 -0.0139
13.4800 4.4768 -0.0024
13.5000 4.4834 -0.0078
13.5200 4.4901 -0.0124
13.5400 4.4968 -0.0020
13.5600 4.5034 -0.0088
13.5800 4.5100 -0.0098
13.6000 4.5166 -0.0073
13.6200 4.5233 -0.0064
13.6400 4.5300 -0.0158
13.6600 4.5367 -0.0080
13.6800 4.5434 -0.0053
13.7000 4.5500 -0.0113
13.7200 4.5567 -0.0115
13.7400 4.5634 -0.0078
13.7600 4.5699 -0.0110
13.7800 4.5766 -0.0106
13.8000 4.5833 -0.0103
13.8200 4.5900 -0.0122
13.8400 4.5967 -0.0116
13.8600 4.6034 -0.0092
13.8800 4.6101 -0.0179
13.9000 4.6167 -0.0153
13.9200 4.6234 -0.0136
13.9400 4.6299 -0.0150
13.9600 4.6366 -0.0122
13.9800 4.6433 -0.0150
14.0000 4.6500 -0.0152
14.0200 4.6567 -0.0149
14.0400 4.6634 -0.0176
14.0600 4.6700 -0.0132
14.0800 4.6767 -0.0152
14.1000 4.6833 -0.0228
14.1200 4.6899 -0.0139
14.1400 4.6966 -0.0150
14.1600 4.7033 -0.0208
14.1800 4.7100 -0.0158
14.2000 4.7167 -0.0190
14.2200 4.7234 -0.0219
14.2400 4.7301 -0.0186
14.2600 4.7368 -0.0234
14.2800 4.7434 -0.0185
14.3000 4.7500 -0.0194
14.3200 4.7566 -0.0251
14.3400 4.7633 -0.0167
14.3600 4.7700 -0.0204
14.3800 4.7767 -0.0286
14.4000 4.7834 -0.0189
14.4200 4.7901 -0.0236
14.4400 4.7968 -0.0284
14.4600 4.8034 -0.0198
14.4800 4.8100 -0.0266
14.5000 4.8166 -0.0236
14.5200 4.8233 -0.0207
14.5400 4.8300 -0.0259
14.5600 4.8367 -0.0287
14.5800 4.8433 -0.0165
14.6000 4.8500 -0.0285
14.6200 4.8567 -0.0298
14.6400 4.8633 -0.0215
14.6600 4.8699 -0.0292
14.6800 4.8766 -0.0302
14.7000 4.8833 -0.0220
14.7200 4.8900 -0.0346
14.7400 4.8967 -0.0241
14.7600 4.9033 -0.0227
14.7800 4.9100 -0.0360
14.8000 4.9167 -0.0296
14.8200 4.9234 -0.0253
14.8400 4.9300 -0.0399
14.8600 4.9366 -0.0297
14.8800 4.9433 -0.0189
14.9000 4.9500 -0.0423
14.9200 4.9567 -0.0328
14.9400 4.9634 -0.0202
14.9600 4.9701 -0.0402
14.9800 4.9767 -0.0403
15.0000 4.9834 -0.0257
15.0200 4.9900 -0.0363
15.0400 4.9966 -0.0292
15.0600 5.0033 -0.0280
15.0800 5.0100 -0.0414
15.1000 5.0167 -0.0382
15.1200 5.0234 -0.0247
15.1400 5.0301 -0.0406
15.1600 5.0368 -0.0413
15.1800 5.0434 -0.0310
15.2000 5.0500 -0.0388
15.2200 5.0566 -0.0431
15.2400 5.0633 -0.0323
15.2600 5.0700 -0.0358
15.2800 5.0767 -0.0401
15.3000 5.0834 -0.0347
15.3200 5.0901 -0.0413
15.3400 5.0968 -0.0440
15.3600 5.1034 -0.0400
15.3800 5.1100 -0.0439
15.4000 5.1166 -0.0416
15.4200 5.1232 -0.0363
15.4400 5.1299 -0.0433
15.4600 5.1367 -0.0470
15.4800 5.1433 -0.0420
15.5000 5.1500 -0.0359
15.5200 5.1567 -0.0487
15.5400 5.1633 -0.0461
15.5600 5.1700 -0.0421
15.5800 5.1766 -0.0474
15.6000 5.1833 -0.0488
15.6200 5.1900 -0.0371
15.6400 5.1967 -0.0530
15.6600 5.2034 -0.0483
15.6800 5.2101 -0.0365
15.7000 5.2168 -0.0540
15.7200 5.2234 -0.0539
15.7400 5.2300 -0.0379
15.7600 5.2366 -0.0583
15.7800 5.2433 -0.0502
15.8000 5.2500 -0.0350
15.8200 5.2567 -0.0649
15.8400 5.2634 -0.0540
15.8600 5.2701 -0.0430
15.8800 5.2768 -0.0620
15.9000 5.2834 -0.0506
15.9200 5.2900 -0.0437
15.9400 5.2966 -0.0671
15.9600 5.3032 -0.0496
15.9800 5.3099 -0.0469
16.0000 5.3167 -0.0630
16.0200 5.3233 -0.0494
16.0400 5.3300 -0.0506
16.0600 5.3367 -0.0646
16.0800 5.3433 -0.0514
16.1000 5.3499 -0.0550
16.1200 5.3566 -0.0561
16.1400 5.3633 -0.0516
16.1600 5.3700 -0.0562
16.1800 5.3767 -0.0598
16.2000 5.3834 -0.0577
16.2200 5.3900 -0.0520
16.2400 5.3967 -0.0590
16.2600 5.4034 -0.0620
16.2800 5.4100 -0.0575
16.3000 5.4166 -0.0609
16.3200 5.4233 -0.0545
16.3400 5.4300 -0.0510
16.3600 5.4367 -0.0646
16.3800 5.4434 -0.0619
16.4000 5.4501 -0.0583
16.4200 5.4568 -0.0614
16.4400 5.4634 -0.0613
16.4600 5.4700 -0.0557
16.4800 5.4766 -0.0658
16.5000 5.4833 -0.0592
16.5200 5.4900 -0.0554
16.5400 5.4967 -0.0664
16.5600 5.5033 -0.0604
16.5800 5.5100 -0.0551
16.6000 5.5167 -0.0662
16.6200 5.5233 -0.0549
16.6400 5.5300 -0.0564
16.6600 5.5366 -0.0667
16.6800 5.5433 -0.0591
16.7000 5.5500 -0.0584
16.7200 5.5567 -0.0717
16.7400 5.5634 -0.0621
16.7600 5.5700 -0.0562
16.7800 5.5767 -0.0665
16.8000 5.5834 -0.0620
16.8200 5.5900 -0.0670
16.8400 5.5966 -0.0636
16.8600 5.6033 -0.0608
16.8800 5.6100 -0.0624
16.9000 5.6167 -0.0671
16.9200 5.6233 -0.0628
16.9400 5.6300 -0.0668
16.9600 5.6367 -0.0666
16.9800 5.6434 -0.0663
17.0000 5.6500 -0.0634
17.0200 5.6566 -0.0676
17.0400 5.6633 -0.0732
17.0600 5.6700 -0.0683
17.0800 5.6767 -0.0611
17.1000 5.6834 -0.0749
17.1200 5.6901 -0.0656
17.1400 5.6968 -0.0665
17.1600 5.7034 -0.0746
17.1800 5.7100 -0.0622
17.2000 5.7166 -0.0659
17.2200 5.7233 -0.0767
17.2400 5.7300 -0.0649
17.2600 5.7367 -0.0661
17.2800 5.7434 -0.0852
17.3000 5.7501 -0.0614
17.3200 5.7568 -0.0720
17.3400 5.7634 -0.0807
17.3600 5.7700 -0.0655
17.3800 5.7766 -0.0720
17.4000 5.7832 -0.0816
17.4200 5.7899 -0.0613
17.4400 5.7966 -0.0788
17.4600 5.8034 -0.0801
17.4800 5.8101 -0.0571
17.5000 5.8168 -0.0790
17.5200 5.8234 -0.0834
17.5400 5.8300 -0.0588
17.5600 5.8366 -0.0819
17.5800 5.8432 -0.0808
17.6000 5.8499 -0.0585
17.6200 5.8567 -0.0840
17.6400 5.8634 -0.0817
17.6600 5.8700 -0.0668
17.6800 5.8767 -0.0861
17.7000 5.8834 -0.0785
17.7200 5.8900 -0.0704
17.7400 5.8966 -0.0853
17.7600 5.9033 -0.0761
17.7800 5.9100 -0.0788
17.8000 5.9167 -0.0803
17.8200 5.9234 -0.0802
17.8400 5.9301 -0.0777
17.8600 5.9368 -0.0781
17.8800 5.9435 -0.0787
17.9000 5.9501 -0.0830
17.9200 5.9567 -0.0794
17.9400 5.9633 -0.0785
17.9600 5.9700 -0.0837
17.9800 5.9767 -0.0805
18.0000 5.9834 -0.0835
18.0200 5.9901 -0.0879
18.0400 5.9968 -0.0780
18.0600 6.0034 -0.0851
18.0800 6.0100 -0.0886
18.1000 6.0166 -0.0774
18.1200 6.0232 -0.0873
18.1400 6.0299 -0.0865
18.1600 6.0367 -0.0784
18.1800 6.0433 -0.0940
18.2000 6.0500 -0.0851
18.2200 6.0567 -0.0777
18.2400 6.0634 -0.0992
18.2600 6.0700 -0.0809
18.2800 6.0767 -0.0797
18.3000 6.0833 -0.0943
18.3200 6.0900 -0.0804
18.3400 6.0967 -0.0785
18.3600 6.1033 -0.1000
18.3800 6.1100 -0.0795
18.4000 6.1167 -0.0835
18.4200 6.1234 -0.0983
18.4400 6.1300 -0.0813
18.4600 6.1367 -0.0867
18.4800 6.1433 -0.0961
18.5000 6.1500 -0.0762
18.5200 6.1567 -0.0918
18.5400 6.1634 -0.0978
18.5600 6.1701 -0.0782
18.5800 6.1767 -0.0946
18.6000 6.1834 -0.0958
18.6200 6.1900 -0.0826
18.6400 6.1966 -0.0940
18.6600 6.2033 -0.0934
18.6800 6.2100 -0.0815
18.7000 6.2167 -0.0976
18.7200 6.2234 -0.0943
18.7400 6.2301 -0.0857
18.7600 6.2367 -0.0993
18.7800 6.2434 -0.0909
18.8000 6.2500 -0.0896
18.8200 6.2567 -0.1019
18.8400 6.2633 -0.0843
18.8600 6.2700 -0.0957
18.8800 6.2767 -0.1000
18.9000 6.2833 -0.0899
18.9200 6.2900 -0.0982
18.9400 6.2967 -0.0993
18.9600 6.3034 -0.0885
18.9800 6.3100 -0.1027
19.0000 6.3166 -0.0942
19.0200 6.3232 -0.0880
19.0400 6.3299 -0.1062
19.0600 6.3366 -0.0927
19.0800 6.3433 -0.0935
19.1000 6.3500 -0.1084
19.1200 6.3567 -0.0897
19.1400 6.3634 -0.0994
19.1600 6.3700 -0.1111
19.1800 6.3766 -0.0877
19.2000 6.3833 -0.1024
19.2200 6.3900 -0.1066
19.2400 6.3967 -0.0934
19.2600 6.4034 -0.1036
19.2800 6.4101 -0.1098
19.3000 6.4167 -0.0906
19.3200 6.4234 -0.1061
19.3400 6.4301 -0.1097
19.3600 6.4367 -0.0964
19.3800 6.4433 -0.1064
19.4000 6.4500 -0.1058
19.4200 6.4567 -0.0963
19.4400 6.4634 -0.1108
19.4600 6.4701 -0.1050
19.4800 6.4767 -0.0989
19.5000 6.4834 -0.1100
19.5200 6.4901 -0.1093
19.5400 6.4967 -0.1018
19.5600 6.5033 -0.1055
19.5800 6.5099 -0.1066
19.6000 6.5166 -0.1030
19.6200 6.5233 -0.1092
19.6400 6.5300 -0.1069
19.6600 6.5367 -0.1054
19.6800 6.5434 -0.1042
19.7000 6.5500 -0.1098
19.7200 6.5566 -0.1034
19.7400 6.5632 -0.1067
19.7600 6.5699 -0.1071
19.7800 6.5766 -0.1057
19.8000 6.5833 -0.1092
19.8200 6.5900 -0.1124
19.8400 6.5967 -0.1086
19.8600 6.6034 -0.1095
19.8800 6.6100 -0.1133
19.9000 6.6166 -0.1072
19.9200 6.6233 -0.1079
19.9400 6.6300 -0.1165
19.9600 6.6367 -0.1059
19.9800 6.6434 -0.1050
20.0000 6.6501 -0.1146
20.0200 6.6568 -0.1059
20.0400 6.6635 -0.1106
20.0600 6.6701 -0.1181
20.0800 6.6767 -0.1082
20.1000 6.6833 -0.1064
20.1200 6.6900 -0.1184
20.1400 6.6967 -0.1087
20.1600 6.7034 -0.1119
20.1800 6.7101 -0.1224
20.2000 6.7168 -0.1105
20.2200 6.7234 -0.1101
20.2400 6.7301 -0.1218
20.2600 6.7367 -0.1092
20.2800 6.7433 -0.1072
20.3000 6.7499 -0.1195
20.3200 6.7566 -0.1116
20.3400 6.7633 -0.1088
20.3600 6.7700 -0.1192
20.3800 6.7767 -0.1139
20.4000 6.7834 -0.1079
20.4200 6.7900 -0.1260
20.4400 6.7966 -0.1155
20.4600 6.8033 -0.1067
20.4800 6.8099 -0.1207
20.5000 6.8166 -0.1178
20.5200 6.8233 -0.1086
20.5400 6.8300 -0.1274
20.5600 6.8367 -0.1140
20.5800 6.8434 -0.1113
20.6000 6.8501 -0.1287
20.6200 6.8567 -0.1183
20.6400 6.8633 -0.1082
20.6600 6.8700 -0.1300
20.6800 6.8767 -0.1164
20.7000 6.8834 -0.1151
20.7200 6.8901 -0.1293
20.7400 6.8968 -0.1130
20.7600 6.9034 -0.1136
20.7800 6.9100 -0.1349
20.8000 6.9166 -0.1144
20.8200 6.9233 -0.1164
20.8400 6.9299 -0.1325
20.8600 6.9367 -0.1157
20.8800 6.9434 -0.1244
20.9000 6.9501 -0.1293
20.9200 6.9567 -0.1149
20.9400 6.9634 -0.1250
20.9600 6.9701 -0.1280
20.9800 6.9767 -0.1157
21.0000 6.9833 -0.1285
21.0200 6.9900 -0.1285
21.0400 6.9966 -0.1198
21.0600 7.0033 -0.1229
21.0800 7.0100 -0.1265
21.1000 7.0167 -0.1219
21.1200 7.0234 -0.1307
21.1400 7.0301 -0.1254
21.1600 7.0367 -0.1288
21.1800 7.0432 -0.1214
21.2000 7.0499 -0.1209
21.2200 7.0566 -0.1316
21.2400 7.0633 -0.1229
21.2600 7.0700 -0.1289
21.2800 7.0767 -0.1289
21.3000 7.0834 -0.1238
21.3200 7.0900 -0.1313
21.3400 7.0966 -0.1333
21.3600 7.1033 -0.1228
21.3800 7.1099 -0.1295
21.4000 7.1166 -0.1296
21.4200 7.1234 -0.1246
21.4400 7.1300 -0.1336
21.4600 7.1367 -0.1328
21.4800 7.1434 -0.1257
21.5000 7.1501 -0.1379
21.5200 7.1567 -0.1316
21.5400 7.1633 -0.1281
21.5600 7.1700 -0.1336
21.5800 7.1767 -0.1332
21.6000 7.1834 -0.1248
21.6200 7.1900 -0.1366
21.6400 7.1967 -0.1381
21.6600 7.2034 -0.1263
21.6800 7.2101 -0.1388
21.7000 7.2167 -0.1373
21.7200 7.2233 -0.1281
21.7400 7.2299 -0.1390
21.7600 7.2366 -0.1368
21.7800 7.2434 -0.1295
21.8000 7.2501 -0.1399
21.8200 7.2567 -0.1372
21.8400 7.2634 -0.1288
21.8600 7.2700 -0.1379
21.8800 7.2766 -0.1437
21.9000 7.2832 -0.1314
21.9200 7.2899 -0.1380
21.9400 7.2966 -0.1363
21.9600 7.3033 -0.1356
21.9800 7.3100 -0.1356
22.0000 7.3167 -0.1405
22.0200 7.3234 -0.1364
22.0400 7.3300 -0.1402
22.0600 7.3367 -0.1380
22.0800 7.3433 -0.1375
22.1000 7.3499 -0.1405
22.1200 7.3566 -0.1471
22.1400 7.3633 -0.1378
22.1600 7.3700 -0.1387
22.1800 7.3767 -0.1445
22.2000 7.3834 -0.1353
22.2200 7.3901 -0.1414
22.2400 7.3967 -0.1457
22.2600 7.4033 -0.1372
22.2800 7.4100 -0.1386
22.3000 7.4167 -0.1463
22.3200 7.4234 -0.1371
22.3400 7.4301 -0.1423
22.3600 7.4367 -0.1478
22.3800 7.4434 -0.1369
22.4000 7.4501 -0.1410
22.4200 7.4567 -0.1508
22.4400 7.4633 -0.1393
22.4600 7.4699 -0.1437
22.4800 7.4766 -0.1451
22.5000 7.4833 -0.1459
22.5200 7.4900 -0.1471
22.5400 7.4967 -0.1481
22.5600 7.5034 -0.1397
22.5800 7.5101 -0.1467
22.6000 7.5167 -0.1493
22.6200 7.5233 -0.1383
22.6400 7.5299 -0.1501
22.6600 7.5366 -0.1472
22.6800 7.5433 -0.1440
22.7000 7.5500 -0.1458
22.7200 7.5567 -0.1491
22.7400 7.5634 -0.1481
22.7600 7.5701 -0.1469
22.7800 7.5767 -0.1499
22.8000 7.5833 -0.1462
22.8200 7.5899 -0.1426
22.8400 7.5966 -0.1525
22.8600 7.6033 -0.1482
22.8800 7.6100 -0.1506
22.9000 7.6167 -0.1501
22.9200 7.6234 -0.1492
22.9400 7.6301 -0.1462
22.9600 7.6367 -0.1519
22.9800 7.6433 -0.1533
23.0000 7.6500 -0.1480
23.0200 7.6567 -0.1469
23.0400 7.6634 -0.1540
23.0600 7.6701 -0.1499
23.0800 7.6767 -0.1495
23.1000 7.6834 -0.1544
23.1200 7.6901 -0.1476
23.1400 7.6967 -0.1512
23.1600 7.7033 -0.1526
23.1800 7.7099 -0.1455
23.2000 7.7166 -0.1525
23.2200 7.7233 -0.1589
23.2400 7.7300 -0.1444
23.2600 7.7367 -0.1542
23.2800 7.7434 -0.1584
23.3000 7.7501 -0.1523
23.3200 7.7567 -0.1533
23.3400 7.7633 -0.1589
23.3600 7.7699 -0.1423
23.3800 7.7766 -0.1569
23.4000 7.7833 -0.1616
23.4200 7.7900 -0.1462
23.4400 7.7966 -0.1592
23.4600 7.8033 -0.1644
23.4800 7.8100 -0.1468
23.5000 7.8167 -0.1580
23.5200 7.8233 -0.1636
23.5400 7.8299 -0.1490
23.5600 7.8366 -0.1611
23.5800 7.8433 -0.1626
23.6000 7.8501 -0.1518
23.6200 7.8567 -0.1601
23.6400 7.8634 -0.1625
23.6600 7.8701 -0.1503
23.6800 7.8767 -0.1634
23.7000 7.8833 -0.1608
23.7200 7.8899 -0.1516
23.7400 7.8966 -0.1638
23.7600 7.9033 -0.1676
23.7800 7.9100 -0.1495
23.8000 7.9167 -0.1667
23.8200 7.9234 -0.1647
23.8400 7.9301 -0.1497
23.8600 7.9367 -0.1682
23.8800 7.9433 -0.1659
23.9000 7.9499 -0.1484
23.9200 7.9566 -0.1710
23.9400 7.9633 -0.1673
23.9600 7.9700 -0.1545
23.9800 7.9767 -0.1699
24.0000 7.9834 -0.1646
24.0200 7.9901 -0.1562
24.0400 7.9967 -0.1716
24.0600 8.0033 -0.1687
24.0800 8.0099 -0.1549
24.1000 8.0166 -0.1728
24.1200 8.0233 -0.1673
24.1400 8.0300 -0.1562
24.1600 8.0367 -0.1694
24.1800 8.0433 -0.1676
24.2000 8.0500 -0.1577
24.2200 8.0567 -0.1731
24.2400 8.0633 -0.1690
24.2600 8.0699 -0.1610
24.2800 8.0766 -0.1676
24.3000 8.0834 -0.1717
24.3200 8.0901 -0.1631
24.3400 8.0968 -0.1720
24.3600 8.1034 -0.1743
24.3800 8.1101 -0.1611
24.4000 8.1167 -0.1674
24.4200 8.1233 -0.1751
24.4400 8.1299 -0.1645
24.4600 8.1366 -0.1692
24.4800 8.1434 -0.1727
24.5000 8.1501 -0.1677
24.5200 8.1568 -0.1725
24.5400 8.1634 -0.1759
24.5600 8.1701 -0.1647
24.5800 8.1767 -0.1710
24.6000 8.1833 -0.1778
24.6200 8.1899 -0.1614
24.6400 8.1966 -0.1756
24.6600 8.2033 -0.1767
24.6800 8.2100 -0.1654
24.7000 8.2167 -0.1718
24.7200 8.2234 -0.1777
24.7400 8.2301 -0.1682
24.7600 8.2367 -0.1751
24.7800 8.2433 -0.1747
24.8000 8.2499 -0.1714
24.8200 8.2566 -0.1712
24.8400 8.2633 -0.1755
24.8600 8.2700 -0.1722
24.8800 8.2767 -0.1729
24.9000 8.2834 -0.1752
24.9200 8.2900 -0.1744
24.9400 8.2967 -0.1750
24.9600 8.3033 -0.1826
24.9800 8.3099 -0.1707
25.0000 8.3166 -0.1674
25.0200 8.3233 -0.1840
25.0400 8.3300 -0.1741
25.0600 8.3367 -0.1745
25.0800 8.3434 -0.1851
25.1000 8.3501 -0.1738
25.1200 8.3568 -0.1699
25.1400 8.3634 -0.1849
25.1600 8.3700 -0.1742
25.1800 8.3766 -0.1750
25.2000 8.3833 -0.1841
25.2200 8.3900 -0.1731
25.2400 8.3967 -0.1741
25.2600 8.4034 -0.1916
25.2800 8.4101 -0.1706
25.3000 8.4168 -0.1828
25.3200 8.4233 -0.1883
25.3400 8.4299 -0.1682
25.3600 8.4366 -0.1820
25.3800 8.4433 -0.1894
25.4000 8.4500 -0.1742
25.4200 8.4567 -0.1793
25.4400 8.4634 -0.1856
25.4600 8.4701 -0.1724
25.4800 8.4767 -0.1869
25.5000 8.4833 -0.1858
25.5200 8.4899 -0.1729
25.5400 8.4966 -0.1883
25.5600 8.5033 -0.1814
25.5800 8.5100 -0.1773
25.6000 8.5166 -0.1869
25.6200 8.5233 -0.1795
25.6400 8.5300 -0.1815
25.6600 8.5367 -0.1842
25.6800 8.5433 -0.1859
25.7000 8.5499 -0.1792
25.7200 8.5566 -0.1849
25.7400 8.5633 -0.1838
25.7600 8.5700 -0.1828
25.7800 8.5767 -0.1868
25.8000 8.5834 -0.1830
25.8200 8.5901 -0.1839
25.8400 8.5968 -0.1915
25.8600 8.6034 -0.1857
25.8800 8.6100 -0.1816
25.9000 8.6166 -0.1846
25.9200 8.6233 -0.1864
25.9400 8.6301 -0.1875
25.9600 8.6368 -0.1834
25.9800 8.6434 -0.1855
26.0000 8.6501 -0.1881
26.0200 8.6568 -0.1863
26.0400 8.6634 -0.1856
26.0600 8.6700 -0.1910
26.0800 8.6766 -0.1804
26.1000 8.6833 -0.1846
26.1200 8.6900 -0.1936
26.1400 8.6967 -0.1868
26.1600 8.7033 -0.1837
26.1800 8.7100 -0.1920
26.2000 8.7167 -0.1896
26.2200 8.7233 -0.1911
26.2400 8.7299 -0.1933
26.2600 8.7365 -0.1868
26.2800 8.7432 -0.1897
26.3000 8.7500 -0.1972
26.3200 8.7567 -0.1821
26.3400 8.7633 -0.1928
26.3600 8.7700 -0.2034
26.3800 8.7767 -0.1836
26.4000 8.7833 -0.1914
26.4200 8.7899 -0.1928
26.4400 8.7966 -0.1877
26.4600 8.8033 -0.1920
26.4800 8.8100 -0.1982
26.5000 8.8167 -0.1881
26.5200 8.8234 -0.1910
26.5400 8.8301 -0.1996
26.5600 8.8367 -0.1945
26.5800 8.8434 -0.1928
26.6000 8.8500 -0.1956
26.6200 8.8567 -0.1915
26.6400 8.8633 -0.1948
26.6600 8.8700 -0.1953
26.6800 8.8767 -0.1963
26.7000 8.8834 -0.1958
26.7200 8.8901 -0.1934
26.7400 8.8968 -0.1979
26.7600 8.9034 -0.1977
26.7800 8.9099 -0.1987
26.8000 8.9166 -0.1972
26.8200 8.9233 -0.1879
26.8400 8.9300 -0.1971
26.8600 8.9367 -0.2062
26.8800 8.9434 -0.1862
26.9000 8.9501 -0.2030
26.9200 8.9567 -0.2025
26.9400 8.9633 -0.1899
26.9600 8.9699 -0.2019
26.9800 8.9766 -0.2043
27.0000 8.9833 -0.1911
27.0200 8.9900 -0.2054
27.0400 8.9967 -0.2025
27.0600 9.0033 -0.1919
27.0800 9.0100 -0.2065
27.1000 9.0167 -0.2038
27.1200 9.0234 -0.1962
27.1400 9.0300 -0.2073
27.1600 9.0366 -0.1995
27.1800 9.0433 -0.1947
27.2000 9.0500 -0.2076
27.2200 9.0567 -0.2012
27.2400 9.0634 -0.1997
27.2600 9.0701 -0.2102
27.2800 9.0768 -0.2009
27.3000 9.0834 -0.2015
27.3200 9.0900 -0.2102
27.3400 9.0966 -0.1975
27.3600 9.1033 -0.2091
27.3800 9.1100 -0.2084
27.4000 9.1167 -0.2065
27.4200 9.1234 -0.2005
27.4400 9.1301 -0.2107
27.4600 9.1367 -0.2084
27.4800 9.1434 -0.2000
27.5000 9.1500 -0.2074
27.5200 9.1566 -0.2076
27.5400 9.1633 -0.1987
27.5600 9.1700 -0.2117
27.5800 9.1767 -0.2121
27.6000 9.1834 -0.1991
27.6200 9.1900 -0.2114
27.6400 9.1967 -0.2164
27.6600 9.2034 -0.1972
27.6800 9.2099 -0.2114
27.7000 9.2166 -0.2153
27.7200 9.2232 -0.1959
27.7400 9.2300 -0.2171
27.7600 9.2367 -0.2144
27.7800 9.2434 -0.1943
27.8000 9.2500 -0.2174
27.8200 9.2567 -0.2142
27.8400 9.2634 -0.1989
27.8600 9.2700 -0.2218
27.8800 9.2766 -0.2117
27.9000 9.2833 -0.1983
27.9200 9.2900 -0.2180
27.9400 9.2967 -0.2141
27.9600 9.3034 -0.2033
27.9800 9.3101 -0.2206
28.0000 9.3168 -0.2091
28.0200 9.3234 -0.2098
28.0400 9.3300 -0.2154
28.0600 9.3366 -0.2094
28.0800 9.3433 -0.2104
28.1000 9.3500 -0.2181
28.1200 9.3567 -0.2084
28.1400 9.3634 -0.2105
28.1600 9.3701 -0.2195
28.1800 9.3767 -0.2104
28.2000 9.3834 -0.2153
28.2200 9.3900 -0.2155
28.2400 9.3966 -0.2095
28.2600 9.4033 -0.2154
28.2800 9.4100 -0.2168
28.3000 9.4167 -0.2097
28.3200 9.4234 -0.2123
28.3400 9.4300 -0.2158
28.3600 9.4367 -0.2196
28.3800 9.4434 -0.2113
28.4000 9.4500 -0.2147
28.4200 9.4566 -0.2134
28.4400 9.4633 -0.2125
28.4600 9.4700 -0.2170
28.4800 9.4767 -0.2180
28.5000 9.4834 -0.2119
28.5200 9.4900 -0.2146
28.5400 9.4967 -0.2182
28.5600 9.5033 -0.2140
28.5800 9.5100 -0.2181
28.6000 9.5166 -0.2156
28.6200 9.5233 -0.2124
28.6400 9.5300 -0.2185
28.6600 9.5367 -0.2180
28.6800 9.5434 -0.2102
28.7000 9.5501 -0.2190
28.7200 9.5568 -0.2206
28.7400 9.5634 -0.2115
28.7600 9.5700 -0.2178
28.7800 9.5766 -0.2206
28.8000 9.5833 -0.2091
28.8200 9.5900 -0.2205
28.8400 9.5967 -0.2192
28.8600 9.6034 -0.2157
28.8800 9.6101 -0.2201
28.9000 9.6168 -0.2198
28.9200 9.6234 -0.2181
28.9400 9.6300 -0.2213
28.9600 9.6366 -0.2165
28.9800 9.6433 -0.2188
29.0000 9.6500 -0.2166
29.0200 9.6567 -0.2180
29.0400 9.6633 -0.2224
29.0600 9.6700 -0.2190
29.0800 9.6767 -0.2217
29.1000 9.6834 -0.2231
29.1200 9.6900 -0.2251
29.1400 9.6966 -0.2157
29.1600 9.7033 -0.2216
29.1800 9.7100 -0.2230
29.2000 9.7167 -0.2217
29.2200 9.7233 -0.2216
29.2400 9.7300 -0.2232
29.2600 9.7367 -0.2183
29.2800 9.7434 -0.2299
29.3000 9.7500 -0.2223
29.3200 9.7566 -0.2194
29.3400 9.7633 -0.2257
29.3600 9.7700 -0.2226
29.3800 9.7767 -0.2206
29.4000 9.7834 -0.2279
29.4200 9.7901 -0.2224
29.4400 9.7968 -0.2280
29.4600 9.8034 -0.2254
29.4800 9.8100 -0.2210
29.5000 9.8166 -0.2296
29.5200 9.8233 -0.2257
29.5400 9.8300 -0.2207
29.5600 9.8367 -0.2315
29.5800 9.8434 -0.2275
29.6000 9.8501 -0.2257
29.6200 9.8567 -0.2320
29.6400 9.8634 -0.2246
29.6600 9.8700 -0.2304
29.6800 9.8766 -0.2341
29.7000 9.8833 -0.2264
29.7200 9.8900 -0.2262
29.7400 9.8967 -0.2373
29.7600 9.9033 -0.2247
29.7800 9.9100 -0.2306
29.8000 9.9167 -0.2374
29.8200 9.9234 -0.2309
29.8400 9.9300 -0.2296
29.8600 9.9366 -0.2356
29.8800 9.9432 -0.2260
29.9000 9.9499 -0.2348
29.9200 9.9567 -0.2380
29.9400 9.9633 -0.2272
29.9600 9.9700 -0.2352
29.9800 9.9767 -0.2340
30.0000 9.9833 -0.2365
30.0200 9.9899 -0.2350
30.0400 9.9966 -0.2328
30.0600 10.0033 -0.2354
30.0800 10.0100 -0.2370
30.1000 10.0167 -0.2339
30.1200 10.0234 -0.2343
30.1400 10.0301 -0.2295
30.1600 10.0368 -0.2403
30.1800 10.0434 -0.2382
30.2000 10.0500 -0.2349
30.2200 10.0567 -0.2366
30.2400 10.0633 -0.2397
30.2600 10.0700 -0.2350
30.2800 10.0767 -0.2379
30.3000 10.0834 -0.2387
30.3200 10.0901 -0.2332
30.3400 10.0968 -0.2428
30.3600 10.1034 -0.2421
30.3800 10.1100 -0.2353
30.4000 10.1166 -0.2449
30.4200 10.1232 -0.2396
30.4400 10.1299 -0.2338
30.4600 10.1367 -0.2453
30.4800 10.1433 -0.2398
30.5000 10.1500 -0.2353
30.5200 10.1567 -0.2398
30.5400 10.1633 -0.2430
30.5600 10.1700 -0.2377
30.5800 10.1766 -0.2427
30.6000 10.1832 -0.2428
30.6200 10.1900 -0.2369
30.6400 10.1967 -0.2401
30.6600 10.2034 -0.2482
30.6800 10.2100 -0.2361
30.7000 10.2167 -0.2422
30.7200 10.2234 -0.2485
30.7400 10.2300 -0.2338
30.7600 10.2367 -0.2453
30.7800 10.2433 -0.2512
30.8000 10.2500 -0.2316
30.8200 10.2567 -0.2491
30.8400 10.2634 -0.2518
30.8600 10.2701 -0.2332
30.8800 10.2768 -0.2526
30.9000 10.2834 -0.2517
30.9200 10.2900 -0.2363
30.9400 10.2966 -0.2476
30.9600 10.3033 -0.2511
30.9800 10.3100 -0.2383
31.0000 10.3167 -0.2502
31.0200 10.3234 -0.2477
31.0400 10.3301 -0.2432
31.0600 10.3367 -0.2481
31.0800 10.3434 -0.2497
31.1000 10.3500 -0.2380
31.1200 10.3566 -0.2479
31.1400 10.3632 -0.2486
31.1600 10.3700 -0.2409
31.1800 10.3767 -0.2482
31.2000 10.3834 -0.2537
31.2200 10.3900 -0.2392
31.2400 10.3967 -0.2454
31.2600 10.4034 -0.2552
31.2800 10.4100 -0.2435
31.3000 10.4166 -0.2457
31.3200 10.4232 -0.2539
31.3400 10.4299 -0.2380
31.3600 10.4366 -0.2474
31.3800 10.4433 -0.2558
31.4000 10.4500 -0.2424
31.4200 10.4567 -0.2488
31.4400 10.4634 -0.2599
31.4600 10.4700 -0.2446
31.4800 10.4766 -0.2430
31.5000 10.4833 -0.2593
31.5200 10.4900 -0.2422
31.5400 10.4967 -0.2524
31.5600 10.5034 -0.2565
31.5800 10.5101 -0.2462
31.6000 10.5168 -0.2519
31.6200 10.5234 -0.2565
31.6400 10.5300 -0.2425
31.6600 10.5367 -0.2539
31.6800 10.5433 -0.2599
31.7000 10.5500 -0.2411
31.7200 10.5567 -0.2548
31.7400 10.5634 -0.2597
31.7600 10.5701 -0.2446
31.7800 10.5767 -0.2567
31.8000 10.5834 -0.2561
31.8200 10.5900 -0.2491
31.8400 10.5966 -0.2537
31.8600 10.6033 -0.2530
31.8800 10.6100 -0.2497
31.9000 10.6167 -0.2550
31.9200 10.6234 -0.2563
31.9400 10.6301 -0.2477
31.9600 10.6367 -0.2606
31.9800 10.6434 -0.2601
32.0000 10.6500 -0.2519
32.0200 10.6566 -0.2536
32.0400 10.6632 -0.2594
32.0600 10.6699 -0.2533
32.0800 10.6767 -0.2581
32.1000 10.6834 -0.2607
32.1200 10.6900 -0.2550
32.1400 10.6967 -0.2500
32.1600 10.7034 -0.2618
32.1800 10.7100 -0.2589
32.2000 10.7166 -0.2520
32.2200 10.7233 -0.2619
32.2400 10.7300 -0.2559
32.2600 10.7367 -0.2525
32.2800 10.7434 -0.2639
32.3000 10.7501 -0.2570
32.3200 10.7568 -0.2571
32.3400 10.7635 -0.2669
32.3600 10.7701 -0.2554
32.3800 10.7767 -0.2586
32.4000 10.7833 -0.2646
32.4200 10.7900 -0.2582
32.4400 10.7967 -0.2584
32.4600 10.8034 -0.2671
32.4800 10.8101 -0.2536
32.5000 10.8167 -0.2634
32.5200 10.8234 -0.2698
32.5400 10.8300 -0.2539
32.5600 10.8366 -0.2609
32.5800 10.8432 -0.2688
32.6000 10.8499 -0.2514
32.6200 10.8567 -0.2662
32.6400 10.8634 -0.2668
32.6600 10.8700 -0.2552
32.6800 10.8767 -0.2665
32.7000 10.8834 -0.2649
32.7200 10.8900 -0.2614
32.7400 10.8966 -0.2632
32.7600 10.9033 -0.2629
32.7800 10.9100 -0.2630
32.8000 10.9167 -0.2659
32.8200 10.9234 -0.2619
32.8400 10.9300 -0.2659
32.8600 10.9367 -0.2620
32.8800 10.9434 -0.2631
32.9000 10.9501 -0.2705
32.9200 10.9567 -0.2656
32.9400 10.9633 -0.2632
32.9600 10.9699 -0.2705
32.9800 10.9766 -0.2634
33.0000 10.9833 -0.2676
33.0200 10.9900 -0.2706
33.0400 10.9967 -0.2694
33.0600 11.0034 -0.2681
33.0800 11.0100 -0.2715
33.1000 11.0166 -0.2624
33.1200 11.0233 -0.2673
33.1400 11.0300 -0.2725
33.1600 11.0367 -0.2621
33.1800 11.0434 -0.2705
33.2000 11.0501 -0.2683
33.2200 11.0568 -0.2619
33.2400 11.0634 -0.2744
33.2600 11.0701 -0.2736
33.2800 11.0767 -0.2656
33.3000 11.0833 -0.2739
33.3200 11.0899 -0.2745
33.3400 11.0966 -0.2627
33.3600 11.1033 -0.2726
33.3800 11.1100 -0.2722
33.4000 11.1167 -0.2655
33.4200 11.1234 -0.2797
33.4400 11.1300 -0.2637
33.4600 11.1366 -0.2678
33.4800 11.1432 -0.2829
33.5000 11.1499 -0.2697
33.5200 11.1566 -0.2655
33.5400 11.1633 -0.2829
33.5600 11.1700 -0.2694
33.5800 11.1767 -0.2645
33.6000 11.1834 -0.2863
33.6200 11.1900 -0.2721
33.6400 11.1966 -0.2657
33.6600 11.2033 -0.2814
33.6800 11.2100 -0.2694
33.7000 11.2167 -0.2712
33.7200 11.2234 -0.2856
33.7400 11.2301 -0.2685
33.7600 11.2368 -0.2762
33.7800 11.2434 -0.2809
33.8000 11.2501 -0.2750
33.8200 11.2567 -0.2727
33.8400 11.2633 -0.2812
33.8600 11.2699 -0.2727
33.8800 11.2767 -0.2777
33.9000 11.2834 -0.2802
33.9200 11.2900 -0.2736
33.9400 11.2967 -0.2803
33.9600 11.3034 -0.2826
33.9800 11.3101 -0.2695
34.0000 11.3167 -0.2808
34.0200 11.3233 -0.2841
34.0400 11.3299 -0.2703
34.0600 11.3366 -0.2729
34.0800 11.3433 -0.2838
34.1000 11.3500 -0.2757
34.1200 11.3567 -0.2760
34.1400 11.3634 -0.2802
34.1600 11.3701 -0.2760
34.1800 11.3766 -0.2867
34.2000 11.3832 -0.2734
34.2200 11.3899 -0.2771
34.2400 11.3966 -0.2836
34.2600 11.4033 -0.2738
34.2800 11.4100 -0.2763
34.3000 11.4167 -0.2817
34.3200 11.4233 -0.2739
34.3400 11.4300 -0.2825
34.3600 11.4366 -0.2839
34.3800 11.4433 -0.2734
34.4000 11.4500 -0.2814
34.4200 11.4567 -0.2875
34.4400 11.4634 -0.2697
34.4600 11.4701 -0.2841
34.4800 11.4768 -0.2863
34.5000 11.4835 -0.2752
34.5200 11.4901 -0.2845
34.5400 11.4967 -0.2799
34.5600 11.5033 -0.2741
34.5800 11.5100 -0.2847
34.6000 11.5167 -0.2803
34.6200 11.5234 -0.2802
34.6400 11.5301 -0.2884
34.6600 11.5367 -0.2831
34.6800 11.5434 -0.2756
34.7000 11.5501 -0.2862
34.7200 11.5566 -0.2867
34.7400 11.5633 -0.2701
34.7600 11.5699 -0.2894
34.7800 11.5766 -0.2850
34.8000 11.5834 -0.2762
34.8200 11.5900 -0.2893
34.8400 11.5967 -0.2859
34.8600 11.6033 -0.2749
34.8800 11.6100 -0.2941
34.9000 11.6166 -0.2850
34.9200 11.6233 -0.2786
34.9400 11.6299 -0.2896
34.9600 11.6366 -0.2853
34.9800 11.6433 -0.2811
35.0000 11.6500 -0.2923
35.0200 11.6567 -0.2805
35.0400 11.6634 -0.2811
35.0600 11.6701 -0.2983
35.0800 11.6767 -0.2813
35.1000 11.6833 -0.2815
35.1200 11.6899 -0.2923
35.1400 11.6966 -0.2818
35.1600 11.7034 -0.2847
35.1800 11.7101 -0.2966
35.2000 11.7167 -0.2816
35.2200 11.7234 -0.2902
35.2400 11.7301 -0.2921
35.2600 11.7367 -0.2849
35.2800 11.7433 -0.2879
35.3000 11.7499 -0.2934
35.3200 11.7567 -0.2864
35.3400 11.7634 -0.2880
35.3600 11.7701 -0.2889
35.3800 11.7767 -0.2905
35.4000 11.7834 -0.2880
35.4200 11.7901 -0.2883
35.4400 11.7967 -0.2892
35.4600 11.8033 -0.2890
35.4800 11.8100 -0.2901
35.5000 11.8166 -0.2925
35.5200 11.8233 -0.2874
35.5400 11.8300 -0.2884
35.5600 11.8367 -0.2935
35.5800 11.8434 -0.2867
35.6000 11.8501 -0.2939
35.6200 11.8567 -0.2951
35.6400 11.8633 -0.2842
35.6600 11.8699 -0.2878
35.6800 11.8766 -0.3004
35.7000 11.8833 -0.2883
35.7200 11.8900 -0.2916
35.7400 11.8967 -0.2976
35.7600 11.9034 -0.2877
35.7800 11.9100 -0.2946
35.8000 11.9167 -0.3004
35.8200 11.9233 -0.2788
35.8400 11.9299 -0.2965
35.8600 11.9366 -0.3021
35.8800 11.9433 -0.2831
35.9000 11.9500 -0.2946
35.9200 11.9567 -0.3008
35.9400 11.9634 -0.2852
35.9600 11.9701 -0.2975
35.9800 11.9767 -0.3010
36.0000 11.9833 -0.2886
36.0200 11.9900 -0.3037
36.0400 11.9966 -0.2949
36.0600 12.0033 -0.2873
36.0800 12.0100 -0.3020
36.1000 12.0167 -0.2993
36.1200 12.0234 -0.2900
36.1400 12.0301 -0.3016
36.1600 12.0367 -0.2972
36.1800 12.0433 -0.2931
36.2000 12.0499 -0.2973
36.2200 12.0566 -0.2999
36.2400 12.0634 -0.2974
36.2600 12.0701 -0.2994
36.2800 12.0767 -0.2972
36.3000 12.0834 -0.2971
36.3200 12.0900 -0.2983
36.3400 12.0967 -0.3006
36.3600 12.1033 -0.2941
36.3800 12.1099 -0.2984
36.4000 12.1166 -0.2995
36.4200 12.1233 -0.2977
36.4400 12.1300 -0.3006
36.4600 12.1367 -0.3014
36.4800 12.1433 -0.2988
36.5000 12.1500 -0.3000
36.5200 12.1567 -0.3015
36.5400 12.1633 -0.2970
36.5600 12.1700 -0.3021
36.5800 12.1766 -0.3052
36.6000 12.1834 -0.3007
36.6200 12.1901 -0.3015
36.6400 12.1967 -0.3068
36.6600 12.2034 -0.2977
36.6800 12.2101 -0.3064
36.7000 12.2167 -0.3028
36.7200 12.2233 -0.3018
36.7400 12.2300 -0.3003
36.7600 12.2367 -0.3057
36.7800 12.2434 -0.2995
36.8000 12.2501 -0.3079
36.8200 12.2568 -0.3080
36.8400 12.2634 -0.3008
36.8600 12.2701 -0.3054
36.8800 12.2767 -0.3091
36.9000 12.2833 -0.3018
36.9200 12.2899 -0.3066
36.9400 12.2966 -0.3098
36.9600 12.3033 -0.3027
36.9800 12.3100 -0.3086
37.0000 12.3167 -0.3083
37.0200 12.3234 -0.3022
37.0400 12.3301 -0.3134
37.0600 12.3367 -0.3082
37.0800 12.3433 -0.2994
37.1000 12.3499 -0.3146
37.1200 12.3566 -0.3069
37.1400 12.3633 -0.3085
37.1600 12.3700 -0.3108
37.1800 12.3767 -0.3125
37.2000 12.3834 -0.3073
37.2200 12.3901 -0.3104
37.2400 12.3967 -0.3071
37.2600 12.4033 -0.3145
37.2800 12.4099 -0.3115
37.3000 12.4166 -0.3103
37.3200 12.4233 -0.3161
37.3400 12.4300 -0.3094
37.3600 12.4367 -0.3104
37.3800 12.4434 -0.3154
37.4000 12.4501 -0.3126
37.4200 12.4568 -0.3153
37.4400 12.4634 -0.3204
37.4600 12.4700 -0.3055
37.4800 12.4766 -0.3157
37.5000 12.4833 -0.3195
37.5200 12.4900 -0.3097
37.5400 12.4967 -0.3148
37.5600 12.5034 -0.3189
37.5800 12.5101 -0.3105
37.6000 12.5168 -0.3190
37.6200 12.5234 -0.3210
37.6400 12.5299 -0.3132
37.6600 12.5366 -0.3149
37.6800 12.5433 -0.3191
37.7000 12.5500 -0.3115
37.7200 12.5567 -0.3226
37.7400 12.5634 -0.3165
37.7600 12.5701 -0.3115
37.7800 12.5767 -0.3173
37.8000 12.5833 -0.3205
37.8200 12.5899 -0.3129
37.8400 12.5966 -0.3143
37.8600 12.6033 -0.3198
37.8800 12.6100 -0.3184
37.9000 12.6166 -0.3150
37.9200 12.6233 -0.3201
37.9400 12.6300 -0.3119
37.9600 12.6367 -0.3188
37.9800 12.6433 -0.3225
38.0000 12.6499 -0.3130
38.0200 12.6566 -0.3212
38.0400 12.6633 -0.3218
38.0600 12.6701 -0.3181
38.0800 12.6767 -0.3161
38.1000 12.6834 -0.3218
38.1200 12.6901 -0.3139
38.1400 12.6968 -0.3194
38.1600 12.7034 -0.3222
38.1800 12.7099 -0.3150
38.2000 12.7166 -0.3203
38.2200 12.7233 -0.3274
38.2400 12.7300 -0.3161
38.2600 12.7367 -0.3251
38.2800 12.7434 -0.3289
38.3000 12.7501 -0.3166
38.3200 12.7567 -0.3154
38.3400 12.7633 -0.3274
38.3600 12.7699 -0.3198
38.3800 12.7766 -0.3203
38.4000 12.7833 -0.3305
38.4200 12.7900 -0.3154
38.4400 12.7967 -0.3230
38.4600 12.8034 -0.3238
38.4800 12.8101 -0.3208
38.5000 12.8167 -0.3242
38.5200 12.8233 -0.3307
38.5400 12.8299 -0.3194
38.5600 12.8366 -0.3252
38.5800 12.8433 -0.3299
38.6000 12.8500 -0.3222
38.6200 12.8567 -0.3239
38.6400 12.8633 -0.3303
38.6600 12.8700 -0.3194
38.6800 12.8767 -0.3241
38.7000 12.8833 -0.3333
38.7200 12.8899 -0.3225
38.7400 12.8966 -0.3249
38.7600 12.9033 -0.3312
38.7800 12.9100 -0.3209
38.8000 12.9167 -0.3227
38.8200 12.9234 -0.3279
38.8400 12.9301 -0.3246
38.8600 12.9367 -0.3272
38.8800 12.9433 -0.3322
38.9000 12.9499 -0.3246
38.9200 12.9566 -0.3235
38.9400 12.9633 -0.3315
38.9600 12.9701 -0.3187
38.9800 12.9767 -0.3300
39.0000 12.9834 -0.3275
39.0200 12.9901 -0.3239
39.0400 12.9967 -0.3255
39.0600 13.0033 -0.3325
39.0800 13.0100 -0.3235
39.1000 13.0166 -0.3281
39.1200 13.0233 -0.3362
39.1400 13.0300 -0.3222
39.1600 13.0366 -0.3258
39.1800 13.0434 -0.3326
39.2000 13.0501 -0.3235
39.2200 13.0567 -0.3244
39.2400 13.0633 -0.3410
39.2600 13.0699 -0.3214
39.2800 13.0766 -0.3252
39.3000 13.0833 -0.3336
39.3200 13.0900 -0.3277
39.3400 13.0967 -0.3342
39.3600 13.1034 -0.3327
39.3800 13.1101 -0.3209
39.4000 13.1167 -0.3356
39.4200 13.1234 -0.3304
39.4400 13.1300 -0.3261
39.4600 13.1366 -0.3309
39.4800 13.1433 -0.3368
39.5000 13.1500 -0.3269
39.5200 13.1567 -0.3335
39.5400 13.1634 -0.3312
39.5600 13.1700 -0.3273
39.5800 13.1767 -0.3321
39.6000 13.1834 -0.3298
39.6200 13.1900 -0.3266
39.6400 13.1966 -0.3337
39.6600 13.2033 -0.3294
39.6800 13.2100 -0.3291
39.7000 13.2167 -0.3329
39.7200 13.2234 -0.3326
39.7400 13.2301 -0.3343
39.7600 13.2368 -0.3280
39.7800 13.2434 -0.3324
39.8000 13.2500 -0.3312
39.8200 13.2566 -0.3319
39.8400 13.2633 -0.3337
39.8600 13.2700 -0.3314
39.8800 13.2767 -0.3332
39.9000 13.2834 -0.3344
39.9200 13.2901 -0.3283
39.9400 13.2967 -0.3404
39.9600 13.3033 -0.3330
39.9800 13.3099 -0.3301
40.0000 13.3166 -0.3315
40.0200 13.3233 -0.3387
40.0400 13.3300 -0.3331
40.0600 13.3367 -0.3324
40.0800 13.3433 -0.3392
40.1000 13.3500 -0.3340
40.1200 13.3567 -0.3334
40.1400 13.3633 -0.3383
40.1600 13.3699 -0.3310
40.1800 13.3766 -0.3324
40.2000 13.3833 -0.3419
40.2200 13.3900 -0.3315
40.2400 13.3967 -0.3343
40.2600 13.4034 -0.3356
40.2800 13.4101 -0.3346
40.3000 13.4168 -0.3377
40.3200 13.4234 -0.3423
40.3400 13.4300 -0.3325
40.3600 13.4366 -0.3339
40.3800 13.4433 -0.3385
40.4000 13.4500 -0.3384
40.4200 13.4567 -0.3378
40.4400 13.4634 -0.3418
40.4600 13.4701 -0.3353
40.4800 13.4767 -0.3399
40.5000 13.4833 -0.3390
40.5200 13.4899 -0.3394
40.5400 13.4966 -0.3441
40.5600 13.5033 -0.3362
40.5800 13.5100 -0.3356
40.6000 13.5167 -0.3429
40.6200 13.5233 -0.3436
40.6400 13.5300 -0.3348
40.6600 13.5367 -0.3436
40.6800 13.5433 -0.3452
40.7000 13.5499 -0.3377
40.7200 13.5566 -0.3408
40.7400 13.5632 -0.3412
40.7600 13.5700 -0.3448
40.7800 13.5767 -0.3423
40.8000 13.5833 -0.3358
40.8200 13.5900 -0.3452
40.8400 13.5967 -0.3420
40.8600 13.6033 -0.3410
40.8800 13.6099 -0.3431
40.9000 13.6166 -0.3422
40.9200 13.6233 -0.3413
40.9400 13.6300 -0.3443
40.9600 13.6367 -0.3387
40.9800 13.6434 -0.3430
41.0000 13.6501 -0.3447
41.0200 13.6568 -0.3358
41.0400 13.6634 -0.3452
41.0600 13.6700 -0.3490
41.0800 13.6767 -0.3314
41.1000 13.6833 -0.3460
41.1200 13.6900 -0.3468
41.1400 13.6967 -0.3377
41.1600 13.7034 -0.3520
41.1800 13.7101 -0.3412
41.2000 13.7168 -0.3451
41.2200 13.7234 -0.3471
41.2400 13.7300 -0.3447
41.2600 13.7366 -0.3434
41.2800 13.7433 -0.3508
41.3000 13.7500 -0.3403
41.3200 13.7567 -0.3465
41.3400 13.7634 -0.3474
41.3600 13.7700 -0.3427
41.3800 13.7767 -0.3480
41.4000 13.7833 -0.3463
41.4200 13.7899 -0.3449
41.4400 13.7966 -0.3485
41.4600 13.8033 -0.3437
41.4800 13.8100 -0.3472
41.5000 13.8167 -0.3534
41.5200 13.8233 -0.3481
41.5400 13.8300 -0.3475
41.5600 13.8367 -0.3486
41.5800 13.8434 -0.3478
41.6000 13.8500 -0.3465
41.6200 13.8566 -0.3524
41.6400 13.8633 -0.3467
41.6600 13.8700 -0.3469
41.6800 13.8767 -0.3478
41.7000 13.8834 -0.3471
41.7200 13.8901 -0.3471
41.7400 13.8968 -0.3522
41.7600 13.9034 -0.3500
41.7800 13.9099 -0.3493
41.8000 13.9166 -0.3480
41.8200 13.9233 -0.3513
41.8400 13.9300 -0.3520
41.8600 13.9368 -0.3515
41.8800 13.9434 -0.3538
41.9000 13.9501 -0.3537
41.9200 13.9568 -0.3495
41.9400 13.9634 -0.3497
41.9600 13.9700 -0.3503
41.9800 13.9766 -0.3497
42.0000 13.9833 -0.3571
42.0200 13.9900 -0.3479
42.0400 13.9967 -0.3507
42.0600 14.0034 -0.3560
42.0800 14.0100 -0.3494
42.1000 14.0167 -0.3523
42.1200 14.0234 -0.3587
42.1400 14.0300 -0.3519
42.1600 14.0366 -0.3543
42.1800 14.0432 -0.3551
42.2000 14.0499 -0.3500
42.2200 14.0566 -0.3554
42.2400 14.0633 -0.3597
42.2600 14.0700 -0.3505
42.2800 14.0767 -0.3571
42.3000 14.0834 -0.3563
42.3200 14.0900 -0.3531
42.3400 14.0966 -0.3577
42.3600 14.1033 -0.3564
42.3800 14.1100 -0.3559
42.4000 14.1167 -0.3598
42.4200 14.1234 -0.3542
42.4400 14.1301 -0.3569
42.4600 14.1368 -0.3598
42.4800 14.1434 -0.3560
42.5000 14.1500 -0.3555
42.5200 14.1566 -0.3596
42.5400 14.1633 -0.3590
42.5600 14.1700 -0.3531
42.5800 14.1767 -0.3648
42.6000 14.1834 -0.3561
42.6200 14.1901 -0.3586
42.6400 14.1968 -0.3622
42.6600 14.2034 -0.3554
42.6800 14.2100 -0.3589
42.7000 14.2166 -0.3632
42.7200 14.2233 -0.3581
42.7400 14.2300 -0.3628
42.7600 14.2367 -0.3628
42.7800 14.2434 -0.3576
42.8000 14.2501 -0.3607
42.8200 14.2568 -0.3699
42.8400 14.2634 -0.3597
42.8600 14.2700 -0.3639
42.8800 14.2766 -0.3637
42.9000 14.2832 -0.3607
42.9200 14.2900 -0.3634
42.9400 14.2967 -0.3693
42.9600 14.3034 -0.3642
42.9800 14.3100 -0.3612
43.0000 14.3167 -0.3698
43.0200 14.3234 -0.3629
43.0400 14.3300 -0.3668
43.0600 14.3366 -0.3709
43.0800 14.3433 -0.3613
43.1000 14.3500 -0.3660
43.1200 14.3567 -0.3736
43.1400 14.3634 -0.3623
43.1600 14.3701 -0.3686
43.1800 14.3768 -0.3725
43.2000 14.3834 -0.3627
43.2200 14.3900 -0.3665
43.2400 14.3966 -0.3741
43.2600 14.4033 -0.3578
43.2800 14.4100 -0.3699
43.3000 14.4167 -0.3737
43.3200 14.4234 -0.3655
43.3400 14.4301 -0.3734
43.3600 14.4368 -0.3700
43.3800 14.4434 -0.3658
43.4000 14.4500 -0.3687
43.4200 14.4566 -0.3711
43.4400 14.4633 -0.3661
43.4600 14.4700 -0.3748
43.4800 14.4767 -0.3735
43.5000 14.4834 -0.3654
43.5200 14.4900 -0.3732
43.5400 14.4967 -0.3758
43.5600 14.5034 -0.3663
43.5800 14.5100 -0.3732
43.6000 14.5166 -0.3729
43.6200 14.5232 -0.3699
43.6400 14.5299 -0.3718
43.6600 14.5366 -0.3782
43.6800 14.5433 -0.3675
43.7000 14.5500 -0.3753
43.7200 14.5567 -0.3825
43.7400 14.5634 -0.3694
43.7600 14.5700 -0.3778
43.7800 14.5766 -0.3768
43.8000 14.5833 -0.3710
43.8200 14.5900 -0.3755
43.8400 14.5967 -0.3766
43.8600 14.6034 -0.3736
43.8800 14.6101 -0.3773
43.9000 14.6168 -0.3799
43.9200 14.6234 -0.3724
43.9400 14.6300 -0.3784
43.9600 14.6366 -0.3815
43.9800 14.6432 -0.3704
44.0000 14.6500 -0.3764
44.0200 14.6567 -0.3789
44.0400 14.6634 -0.3785
44.0600 14.6701 -0.3725
44.0800 14.6767 -0.3798
44.1000 14.6834 -0.3731
44.1200 14.6900 -0.3771
44.1400 14.6966 -0.3774
44.1600 14.7033 -0.3762
44.1800 14.7099 -0.3785
44.2000 14.7166 -0.3799
44.2200 14.7234 -0.3752
44.2400 14.7301 -0.3781
44.2600 14.7368 -0.3840
44.2800 14.7434 -0.3754
44.3000 14.7500 -0.3777
44.3200 14.7566 -0.3849
44.3400 14.7632 -0.3742
44.3600 14.7699 -0.3764
44.3800 14.7766 -0.3872
44.4000 14.7833 -0.3736
44.4200 14.7900 -0.3802
44.4400 14.7967 -0.3813
44.4600 14.8033 -0.3782
44.4800 14.8100 -0.3757
44.5000 14.8166 -0.3846
44.5200 14.8233 -0.3754
44.5400 14.8300 -0.3871
44.5600 14.8367 -0.3845
44.5800 14.8434 -0.3754
44.6000 14.8501 -0.3853
44.6200 14.8568 -0.3821
44.6400 14.8634 -0.3772
44.6600 14.8701 -0.3897
44.6800 14.8767 -0.3829
44.7000 14.8833 -0.3779
44.7200 14.8900 -0.3858
44.7400 14.8967 -0.3846
44.7600 14.9034 -0.3808
44.7800 14.9101 -0.3857
44.8000 14.9168 -0.3848
44.8200 14.9234 -0.3827
44.8400 14.9300 -0.3873
44.8600 14.9366 -0.3800
44.8800 14.9432 -0.3857
44.9000 14.9499 -0.3837
44.9200 14.9566 -0.3870
44.9400 14.9633 -0.3828
44.9600 14.9700 -0.3854
44.9800 14.9767 -0.3895
45.0000 14.9833 -0.3821
45.0200 14.9900 -0.3867
45.0400 14.9966 -0.3931
45.0600 15.0033 -0.3786
45.0800 15.0100 -0.3866
45.1000 15.0167 -0.3925
45.1200 15.0234 -0.3829
45.1400 15.0300 -0.3875
45.1600 15.0367 -0.3909
45.1800 15.0434 -0.3806
45.2000 15.0500 -0.3946
45.2200 15.0567 -0.3892
45.2400 15.0633 -0.3803
45.2600 15.0700 -0.3926
45.2800 15.0767 -0.3896
45.3000 15.0834 -0.3865
45.3200 15.0901 -0.3914
45.3400 15.0968 -0.3921
45.3600 15.1035 -0.3829
45.3800 15.1101 -0.3943
45.4000 15.1167 -0.3907
45.4200 15.1233 -0.3855
45.4400 15.1300 -0.3939
45.4600 15.1367 -0.3938
45.4800 15.1434 -0.3847
45.5000 15.1501 -0.3950
45.5200 15.1567 -0.3951
45.5400 15.1634 -0.3841
45.5600 15.1700 -0.3952
45.5800 15.1766 -0.3925
45.6000 15.1833 -0.3862
45.6200 15.1900 -0.3986
45.6400 15.1967 -0.3913
45.6600 15.2034 -0.3885
45.6800 15.2100 -0.4000
45.7000 15.2167 -0.3872
45.7200 15.2234 -0.3905
45.7400 15.2300 -0.4029
45.7600 15.2366 -0.3892
45.7800 15.2433 -0.3885
45.8000 15.2499 -0.4032
45.8200 15.2566 -0.3876
45.8400 15.2633 -0.3947
45.8600 15.2700 -0.4011
45.8800 15.2767 -0.3886
45.9000 15.2834 -0.3936
45.9200 15.2901 -0.4023
45.9400 15.2966 -0.3901
45.9600 15.3033 -0.3989
45.9800 15.3100 -0.4016
46.0000 15.3167 -0.3886
46.0200 15.3234 -0.3948
46.0400 15.3301 -0.4022
46.0600 15.3367 -0.3891
46.0800 15.3434 -0.4008
46.1000 15.3500 -0.3990
46.1200 15.3566 -0.3933
46.1400 15.3633 -0.3978
46.1600 15.3700 -0.3968
46.1800 15.3767 -0.4006
46.2000 15.3834 -0.4022
46.2200 15.3901 -0.3994
46.2400 15.3968 -0.3932
46.2600 15.4034 -0.4055
46.2800 15.4101 -0.3999
46.3000 15.4167 -0.4005
46.3200 15.4233 -0.3986
46.3400 15.4299 -0.3962
46.3600 15.4366 -0.3996
46.3800 15.4434 -0.4025
46.4000 15.4500 -0.3949
46.4200 15.4567 -0.4028
46.4400 15.4634 -0.4043
46.4600 15.4700 -0.4042
46.4800 15.4766 -0.3975
46.5000 15.4832 -0.4055
46.5200 15.4899 -0.4020
46.5400 15.4966 -0.3980
46.5600 15.5033 -0.4061
46.5800 15.5100 -0.4044
46.6000 15.5167 -0.3999
46.6200 15.5234 -0.4027
46.6400 15.5300 -0.4052
46.6600 15.5366 -0.3997
46.6800 15.5433 -0.4074
46.7000 15.5500 -0.4026
46.7200 15.5567 -0.4044
46.7400 15.5633 -0.4070
46.7600 15.5700 -0.4050
46.7800 15.5767 -0.4039
46.8000 15.5835 -0.4121
46.8200 15.5901 -0.4084
46.8400 15.5967 -0.4056
46.8600 15.6033 -0.4074
46.8800 15.6100 -0.4045
46.9000 15.6167 -0.4022
46.9200 15.6234 -0.4087
46.9400 15.6301 -0.4089
46.9600 15.6368 -0.4088
46.9800 15.6434 -0.4070
47.0000 15.6500 -0.4099
47.0200 15.6566 -0.4074
47.0400 15.6633 -0.4113
47.0600 15.6699 -0.4114
47.0800 15.6767 -0.4048
47.1000 15.6834 -0.4111
47.1200 15.6900 -0.4111
47.1400 15.6967 -0.4086
47.1600 15.7034 -0.4097
47.1800 15.7100 -0.4116
47.2000 15.7167 -0.4051
47.2200 15.7233 -0.4096
47.2400 15.7300 -0.4065
47.2600 15.7367 -0.4123
47.2800 15.7433 -0.4139
47.3000 15.7500 -0.4073
47.3200 15.7567 -0.4078
47.3400 15.7634 -0.4156
47.3600 15.7701 -0.4073
47.3800 15.7767 -0.4083
47.4000 15.7833 -0.4166
47.4200 15.7899 -0.4064
47.4400 15.7966 -0.4063
47.4600 15.8034 -0.4187
47.4800 15.8101 -0.4054
47.5000 15.8168 -0.4113
47.5200 15.8234 -0.4218
47.5400 15.8301 -0.4100
47.5600 15.8366 -0.4112
47.5800 15.8433 -0.4131
47.6000 15.8499 -0.4093
47.6200 15.8567 -0.4144
47.6400 15.8634 -0.4162
47.6600 15.8701 -0.4095
47.6800 15.8768 -0.4160
47.7000 15.8834 -0.4139
47.7200 15.8901 -0.4160
47.7400 15.8967 -0.4143
47.7600 15.9033 -0.4140
47.7800 15.9100 -0.4136
47.8000 15.9167 -0.4166
47.8200 15.9234 -0.4140
47.8400 15.9300 -0.4210
47.8600 15.9367 -0.4124
47.8800 15.9434 -0.4140
47.9000 15.9501 -0.4183
47.9200 15.9566 -0.4146
47.9400 15.9632 -0.4194
47.9600 15.9699 -0.4172
47.9800 15.9766 -0.4147
48.0000 15.9833 -0.4191
48.0200 15.9900 -0.4185
48.0400 15.9967 -0.4168
48.0600 16.0034 -0.4220
48.0800 16.0101 -0.4149
48.1000 16.0167 -0.4131
48.1200 16.0233 -0.4206
48.1400 16.0300 -0.4189
48.1600 16.0367 -0.4177
48.1800 16.0434 -0.4277
48.2000 16.0501 -0.4159
48.2200 16.0568 -0.4186
48.2400 16.0634 -0.4217
48.2600 16.0701 -0.4215
48.2800 16.0767 -0.4210
48.3000 16.0833 -0.4248
48.3200 16.0900 -0.4170
48.3400 16.0967 -0.4205
48.3600 16.1034 -0.4269
48.3800 16.1101 -0.4251
48.4000 16.1168 -0.4207
48.4200 16.1234 -0.4220
48.4400 16.1301 -0.4261
48.4600 16.1367 -0.4240
48.4800 16.1433 -0.4188
48.5000 16.1499 -0.4260
48.5200 16.1566 -0.4243
48.5400 16.1633 -0.4227
48.5600 16.1700 -0.4264
48.5800 16.1767 -0.4233
48.6000 16.1834 -0.4213
48.6200 16.1901 -0.4272
48.6400 16.1967 -0.4258
48.6600 16.2033 -0.4221
48.6800 16.2099 -0.4325
48.7000 16.2166 -0.4212
48.7200 16.2233 -0.4242
48.7400 16.2300 -0.4266
48.7600 16.2367 -0.4265
48.7800 16.2434 -0.4255
48.8000 16.2500 -0.4285
48.8200 16.2567 -0.4269
48.8400 16.2633 -0.4294
48.8600 16.2699 -0.4276
48.8800 16.2766 -0.4252
48.9000 16.2833 -0.4371
48.9200 16.2900 -0.4249
48.9400 16.2967 -0.4217
48.9600 16.3034 -0.4366
48.9800 16.3101 -0.4269
49.0000 16.3167 -0.4289
49.0200 16.3233 -0.4349
49.0400 16.3299 -0.4235
49.0600 16.3366 -0.4292
49.0800 16.3434 -0.4387
49.1000 16.3501 -0.4311
49.1200 16.3567 -0.4308
49.1400 16.3634 -0.4418
49.1600 16.3701 -0.4271
49.1800 16.3767 -0.4336
49.2000 16.3833 -0.4338
49.2200 16.3899 -0.4295
49.2400 16.3966 -0.4312
49.2600 16.4033 -0.4326
49.2800 16.4100 -0.4344
49.3000 16.4167 -0.4342
49.3200 16.4233 -0.4322
49.3400 16.4300 -0.4353
49.3600 16.4367 -0.4340
49.3800 16.4433 -0.4342
49.4000 16.4499 -0.4331
49.4200 16.4566 -0.4324
49.4400 16.4633 -0.4358
49.4600 16.4700 -0.4406
49.4800 16.4767 -0.4308
49.5000 16.4834 -0.4343
49.5200 16.4901 -0.4410
49.5400 16.4967 -0.4306
49.5600 16.5033 -0.4414
49.5800 16.5099 -0.4366
49.6000 16.5166 -0.4334
49.6200 16.5234 -0.4411
49.6400 16.5301 -0.4366
49.6600 16.5367 -0.4337
49.6800 16.5434 -0.4455
49.7000 16.5501 -0.4381
49.7200 16.5567 -0.4330
49.7400 16.5633 -0.4409
49.7600 16.5699 -0.4381
49.7800 16.5766 -0.4361
49.8000 16.5834 -0.4450
49.8200 16.5900 -0.4364
49.8400 16.5967 -0.4380
49.8600 16.6034 -0.4472
49.8800 16.6101 -0.4381
49.9000 16.6167 -0.4439
49.9200 16.6234 -0.4428
49.9400 16.6300 -0.4329
49.9600 16.6367 -0.4448
49.9800 16.6433 -0.4479
50.0000 16.6500 -0.4347
50.0200 16.6567 -0.4442
50.0400 16.6634 -0.4499
50.0600 16.6701 -0.4440
50.0800 16.6767 -0.4482
50.1000 16.6833 -0.4500
50.1200 16.6899 -0.4382
50.1400 16.6966 -0.4514
50.1600 16.7033 -0.4507
50.1800 16.7100 -0.4407
50.2000 16.7167 -0.4478
50.2200 16.7234 -0.4463
50.2400 16.7300 -0.4445
50.2600 16.7367 -0.4510
50.2800 16.7433 -0.4429
50.3000 16.7499 -0.4441
50.3200 16.7566 -0.4484
50.3400 16.7633 -0.4470
50.3600 16.7700 -0.4504
50.3800 16.7767 -0.4502
50.4000 16.7834 -0.4475
50.4200 16.7901 -0.4489
50.4400 16.7967 -0.4546
50.4600 16.8033 -0.4438
50.4800 16.8100 -0.4501
50.5000 16.8166 -0.4510
50.5200 16.8233 -0.4480
50.5400 16.8300 -0.4514
50.5600 16.8367 -0.4538
50.5800 16.8434 -0.4472
50.6000 16.8501 -0.4539
50.6200 16.8567 -0.4518
50.6400 16.8633 -0.4518
50.6600 16.8699 -0.4519
50.6800 16.8766 -0.4498
50.7000 16.8834 -0.4512
50.7200 16.8901 -0.4522
50.7400 16.8967 -0.4511
50.7600 16.9034 -0.4546
50.7800 16.9101 -0.4540
50.8000 16.9167 -0.4469
50.8200 16.9233 -0.4581
50.8400 16.9299 -0.4552
50.8600 16.9366 -0.4495
50.8800 16.9433 -0.4598
50.9000 16.9500 -0.4579
50.9200 16.9566 -0.4484
50.9400 16.9633 -0.4593
50.9600 16.9700 -0.4537
50.9800 16.9767 -0.4571
51.0000 16.9833 -0.4574
51.0200 16.9899 -0.4561
51.0400 16.9966 -0.4530
51.0600 17.0033 -0.4587
51.0800 17.0100 -0.4547
51.1000 17.0167 -0.4588
51.1200 17.0234 -0.4549
51.1400 17.0301 -0.4570
51.1600 17.0367 -0.4596
51.1800 17.0433 -0.4534
51.2000 17.0499 -0.4590
51.2200 17.0566 -0.4645
51.2400 17.0633 -0.4514
51.2600 17.0701 -0.4596
51.2800 17.0767 -0.4698
51.3000 17.0834 -0.4496
51.3200 17.0901 -0.4570
51.3400 17.0967 -0.4685
51.3600 17.1033 -0.4529
51.3800 17.1099 -0.4531
51.4000 17.1166 -0.4696
51.4200 17.1233 -0.4546
51.4400 17.1300 -0.4593
51.4600 17.1367 -0.4651
51.4800 17.1434 -0.4601
51.5000 17.1501 -0.4634
51.5200 17.1567 -0.4657
51.5400 17.1633 -0.4584
51.5600 17.1699 -0.4633
51.5800 17.1766 -0.4621
51.6000 17.1833 -0.4602
51.6200 17.1900 -0.4631
51.6400 17.1967 -0.4673
51.6600 17.2034 -0.4607
51.6800 17.2101 -0.4698
51.7000 17.2167 -0.4672
51.7200 17.2233 -0.4596
51.7400 17.2299 -0.4684
51.7600 17.2366 -0.4646
51.7800 17.2433 -0.4666
51.8000 17.2500 -0.4694
51.8200 17.2567 -0.4680
51.8400 17.2634 -0.4661
51.8600 17.2701 -0.4714
51.8800 17.2767 -0.4717
51.9000 17.2834 -0.4688
51.9200 17.2900 -0.4681
51.9400 17.2966 -0.4743
51.9600 17.3033 -0.4688
51.9800 17.3100 -0.4716
52.0000 17.3167 -0.4705
52.0200 17.3234 -0.4678
52.0400 17.3301 -0.4689
52.0600 17.3368 -0.4787
52.0800 17.3434 -0.4676
52.1000 17.3499 -0.4666
52.1200 17.3566 -0.4758
52.1400 17.3633 -0.4703
52.1600 17.3700 -0.4685
52.1800 17.3767 -0.4801
52.2000 17.3834 -0.4692
52.2200 17.3901 -0.4683
52.2400 17.3967 -0.4784
52.2600 17.4033 -0.4703
52.2800 17.4099 -0.4739
52.3000 17.4166 -0.4751
52.3200 17.4233 -0.4668
52.3400 17.4300 -0.4759
52.3600 17.4366 -0.4820
52.3800 17.4433 -0.4633
52.4000 17.4500 -0.4774
52.4200 17.4567 -0.4798
52.4400 17.4633 -0.4637
52.4600 17.4699 -0.4745
52.4800 17.4766 -0.4850
52.5000 17.4833 -0.4649
52.5200 17.4900 -0.4760
52.5400 17.4967 -0.4847
52.5600 17.5034 -0.4678
52.5800 17.5101 -0.4750
52.6000 17.5168 -0.4822
52.6200 17.5234 -0.4692
52.6400 17.5300 -0.4784
52.6600 17.5366 -0.4781
52.6800 17.5433 -0.4671
52.7000 17.5500 -0.4834
52.7200 17.5567 -0.4790
52.7400 17.5634 -0.4723
52.7600 17.5701 -0.4780
52.7800 17.5767 -0.4797
52.8000 17.5833 -0.4752
52.8200 17.5899 -0.4793
52.8400 17.5966 -0.4753
52.8600 17.6033 -0.4769
52.8800 17.6100 -0.4798
52.9000 17.6167 -0.4815
52.9200 17.6234 -0.4740
52.9400 17.6301 -0.4768
52.9600 17.6367 -0.4818
52.9800 17.6433 -0.4754
53.0000 17.6500 -0.4758
53.0200 17.6566 -0.4824
53.0400 17.6633 -0.4783
53.0600 17.6700 -0.4784
53.0800 17.6767 -0.4819
53.1000 17.6833 -0.4819
53.1200 17.6900 -0.4787
53.1400 17.6967 -0.4869
53.1600 17.7033 -0.4816
53.1800 17.7099 -0.4740
53.2000 17.7166 -0.4867
53.2200 17.7233 -0.4785
53.2400 17.7300 -0.4830
53.2600 17.7367 -0.4865
53.2800 17.7434 -0.4814
53.3000 17.7501 -0.4787
53.3200 17.7568 -0.4880
53.3400 17.7634 -0.4810
53.3600 17.7700 -0.4849
53.3800 17.7766 -0.4881
53.4000 17.7833 -0.4790
53.4200 17.7901 -0.4859
53.4400 17.7968 -0.4954
53.4600 17.8034 -0.4761
53.4800 17.8101 -0.4913
53.5000 17.8167 -0.4935
53.5200 17.8234 -0.4762
53.5400 17.8300 -0.4856
53.5600 17.8366 -0.4916
53.5800 17.8433 -0.4825
53.6000 17.8500 -0.4850
53.6200 17.8567 -0.4881
53.6400 17.8633 -0.4875
53.6600 17.8700 -0.4884
53.6800 17.8767 -0.4849
53.7000 17.8833 -0.4940
53.7200 17.8899 -0.4873
53.7400 17.8966 -0.4826
53.7600 17.9033 -0.4926
53.7800 17.9100 -0.4894
53.8000 17.9167 -0.4844
53.8200 17.9234 -0.4912
53.8400 17.9300 -0.4895
53.8600 17.9367 -0.4905
53.8800 17.9434 -0.4928
53.9000 17.9500 -0.4874
53.9200 17.9566 -0.4932
53.9400 17.9633 -0.4943
53.9600 17.9700 -0.4859
53.9800 17.9767 -0.4945
54.0000 17.9834 -0.4916
54.0200 17.9901 -0.4914
54.0400 17.9968 -0.4992
54.0600 18.0034 -0.4904
54.0800 18.0100 -0.4979
54.1000 18.0166 -0.4924
54.1200 18.0233 -0.4924
54.1400 18.0300 -0.4972
54.1600 18.0367 -0.4983
54.1800 18.0434 -0.4912
54.2000 18.0501 -0.4954
54.2200 18.0568 -0.4980
54.2400 18.0634 -0.5019
54.2600 18.0700 -0.4978
54.2800 18.0766 -0.4919
54.3000 18.0833 -0.4997
54.3200 18.0900 -0.5055
54.3400 18.0967 -0.4918
54.3600 18.1034 -0.4997
54.3800 18.1101 -0.5011
54.4000 18.1167 -0.5006
54.4200 18.1233 -0.5031
54.4400 18.1299 -0.4953
54.4600 18.1366 -0.5003
54.4800 18.1433 -0.5090
54.5000 18.1500 -0.4951
54.5200 18.1567 -0.4992
54.5400 18.1633 -0.5121
54.5600 18.1700 -0.4985
54.5800 18.1767 -0.4998
54.6000 18.1833 -0.5105
54.6200 18.1899 -0.5022
54.6400 18.1966 -0.5013
54.6600 18.2033 -0.5104
54.6800 18.2100 -0.4973
54.7000 18.2167 -0.5072
54.7200 18.2234 -0.5132
54.7400 18.2301 -0.4977
54.7600 18.2368 -0.5027
54.7800 18.2434 -0.5204
54.8000 18.2500 -0.4958
54.8200 18.2566 -0.5064
54.8400 18.2633 -0.5150
54.8600 18.2700 -0.4983
54.8800 18.2767 -0.5112
54.9000 18.2834 -0.5108
54.9200 18.2901 -0.5049
54.9400 18.2968 -0.5120
54.9600 18.3034 -0.5057
54.9800 18.3100 -0.5130
55.0000 18.3166 -0.5110
55.0200 18.3233 -0.4999
55.0400 18.3300 -0.5173
55.0600 18.3367 -0.5108
55.0800 18.3433 -0.5070
55.1000 18.3500 -0.5134
55.1200 18.3567 -0.5148
55.1400 18.3633 -0.5101
55.1600 18.3699 -0.5154
55.1800 18.3765 -0.5049
55.2000 18.3832 -0.5091
55.2200 18.3899 -0.5188
55.2400 18.3966 -0.5156
55.2600 18.4033 -0.5069
55.2800 18.4100 -0.5123
55.3000 18.4167 -0.5185
55.3200 18.4233 -0.5165
55.3400 18.4299 -0.5134
55.3600 18.4366 -0.5134
55.3800 18.4433 -0.5172
55.4000 18.4500 -0.5142
55.4200 18.4567 -0.5159
55.4400 18.4634 -0.5202
55.4600 18.4701 -0.5127
55.4800 18.4768 -0.5198
55.5000 18.4834 -0.5223
55.5200 18.4900 -0.5099
55.5400 18.4967 -0.5243
55.5600 18.5033 -0.5214
55.5800 18.5100 -0.5173
55.6000 18.5167 -0.5212
55.6200 18.5234 -0.5201
55.6400 18.5301 -0.5144
55.6600 18.5368 -0.5257
55.6800 18.5434 -0.5226
55.7000 18.5500 -0.5205
55.7200 18.5566 -0.5235
55.7400 18.5633 -0.5199
55.7600 18.5700 -0.5174
55.7800 18.5767 -0.5230
55.8000 18.5834 -0.5198
55.8200 18.5901 -0.5245
55.8400 18.5967 -0.5249
55.8600 18.6034 -0.5201
55.8800 18.6100 -0.5215
55.9000 18.6166 -0.5277
55.9200 18.6232 -0.5188
55.9400 18.6300 -0.5253
55.9600 18.6367 -0.5252
55.9800 18.6434 -0.5203
56.0000 18.6500 -0.5292
56.0200 18.6567 -0.5237
56.0400 18.6634 -0.5266
56.0600 18.6700 -0.5299
56.0800 18.6766 -0.5227
56.1000 18.6833 -0.5188
56.1200 18.6900 -0.5348
56.1400 18.6967 -0.5236
56.1600 18.7034 -0.5208
56.1800 18.7101 -0.5320
56.2000 18.7168 -0.5253
56.2200 18.7234 -0.5239
56.2400 18.7300 -0.5351
56.2600 18.7366 -0.5169
56.2800 18.7433 -0.5282
56.3000 18.7500 -0.5353
56.3200 18.7567 -0.5184
56.3400 18.7634 -0.5295
56.3600 18.7701 -0.5356
56.3800 18.7768 -0.5211
56.4000 18.7834 -0.5314
56.4200 18.7900 -0.5342
56.4400 18.7966 -0.5252
56.4600 18.8033 -0.5297
56.4800 18.8100 -0.5284
56.5000 18.8167 -0.5296
56.5200 18.8234 -0.5290
56.5400 18.8300 -0.5290
56.5600 18.8367 -0.5276
56.5800 18.8434 -0.5309
56.6000 18.8500 -0.5287
56.6200 18.8566 -0.5280
56.6400 18.8632 -0.5254
56.6600 18.8699 -0.5286
56.6800 18.8766 -0.5346
56.7000 18.8833 -0.5312
56.7200 18.8900 -0.5309
56.7400 18.8967 -0.5328
56.7600 18.9034 -0.5278
56.7800 18.9100 -0.5326
56.8000 18.9166 -0.5328
56.8200 18.9233 -0.5279
56.8400 18.9300 -0.5366
56.8600 18.9367 -0.5301
56.8800 18.9434 -0.5295
56.9000 18.9501 -0.5389
56.9200 18.9568 -0.5349
56.9400 18.9634 -0.5324
56.9600 18.9700 -0.5372
56.9800 18.9766 -0.5275
57.0000 18.9833 -0.5354
57.0200 18.9900 -0.5366
57.0400 18.9967 -0.5293
57.0600 19.0034 -0.5340
57.0800 19.0101 -0.5376
57.1000 19.0167 -0.5281
57.1200 19.0234 -0.5431
57.1400 19.0300 -0.5377
57.1600 19.0366 -0.5263
57.1800 19.0432 -0.5420
57.2000 19.0499 -0.5426
57.2200 19.0567 -0.5320
57.2400 19.0634 -0.5363
57.2600 19.0700 -0.5441
57.2800 19.0767 -0.5334
57.3000 19.0834 -0.5415
57.3200 19.0900 -0.5505
57.3400 19.0966 -0.5362
57.3600 19.1032 -0.5407
57.3800 19.1099 -0.5467
57.4000 19.1167 -0.5336
57.4200 19.1234 -0.5432
57.4400 19.1300 -0.5463
57.4600 19.1367 -0.5390
57.4800 19.1434 -0.5412
57.5000 19.1500 -0.5526
57.5200 19.1566 -0.5386
57.5400 19.1633 -0.5437
57.5600 19.1700 -0.5499
57.5800 19.1767 -0.5448
57.6000 19.1834 -0.5434
57.6200 19.1900 -0.5558
57.6400 19.1967 -0.5429
57.6600 19.2034 -0.5472
57.6800 19.2100 -0.5547
57.7000 19.2167 -0.5422
57.7200 19.2233 -0.5517
57.7400 19.2300 -0.5515
57.7600 19.2367 -0.5420
57.7800 19.2434 -0.5526
57.8000 19.2501 -0.5560
57.8200 19.2568 -0.5449
57.8400 19.2634 -0.5562
57.8600 19.2700 -0.5537
57.8800 19.2766 -0.5484
57.9000 19.2833 -0.5522
57.9200 19.2899 -0.5579
57.9400 19.2967 -0.5523
57.9600 19.3033 -0.5576
57.9800 19.3100 -0.5544
58.0000 19.3167 -0.5509
58.0200 19.3234 -0.5568
58.0400 19.3300 -0.5591
58.0600 19.3366 -0.5473
58.0800 19.3433 -0.5559
58.1000 19.3500 -0.5585
58.1200 19.3567 -0.5598
58.1400 19.3633 -0.5559
58.1600 19.3700 -0.5581
58.1800 19.3767 -0.5579
58.2000 19.3834 -0.5623
58.2200 19.3900 -0.5599
58.2400 19.3966 -0.5549
58.2600 19.4033 -0.5617
58.2800 19.4100 -0.5641
58.3000 19.4167 -0.5544
58.3200 19.4233 -0.5581
58.3400 19.4300 -0.5667
58.3600 19.4368 -0.5584
58.3800 19.4435 -0.5564
58.4000 19.4501 -0.5662
58.4200 19.4566 -0.5630
58.4400 19.4633 -0.5507
58.4600 19.4700 -0.5646
58.4800 19.4767 -0.5648
58.5000 19.4834 -0.5641
58.5200 19.4901 -0.5605
58.5400 19.4968 -0.5627
58.5600 19.5034 -0.5640
58.5800 19.5100 -0.5675
58.6000 19.5166 -0.5647
58.6200 19.5233 -0.5588
58.6400 19.5300 -0.5693
58.6600 19.5367 -0.5679
58.6800 19.5434 -0.5615
58.7000 19.5500 -0.5759
58.7200 19.5567 -0.5609
58.7400 19.5634 -0.5683
58.7600 19.5700 -0.5825
58.7800 19.5766 -0.5576
58.8000 19.5832 -0.5685
58.8200 19.5899 -0.5768
58.8400 19.5966 -0.5662
58.8600 19.6033 -0.5726
58.8800 19.6100 -0.5848
58.9000 19.6167 -0.5648
58.9200 19.6234 -0.5763
58.9400 19.6300 -0.5800
58.9600 19.6366 -0.5683
58.9800 19.6433 -0.5824
59.0000 19.6500 -0.5766
59.0200 19.6567 -0.5670
59.0400 19.6634 -0.5863
59.0600 19.6701 -0.5805
59.0800 19.6767 -0.5751
59.1000 19.6834 -0.5833
59.1200 19.6901 -0.5794
59.1400 19.6967 -0.5772
59.1600 19.7033 -0.5881
59.1800 19.7100 -0.5801
59.2000 19.7167 -0.5829
59.2200 19.7234 -0.5901
59.2400 19.7301 -0.5756
59.2600 19.7367 -0.5850
59.2800 19.7434 -0.5902
59.3000 19.7500 -0.5932
59.3010 19.7503 -0.5946
