Raw Data
Time Displacement Force
(s) (mm) (N)
0.0000 0.0000 -0.1055
0.0200 0.0000 -0.0872
0.0400 0.0008 -0.0536
0.0600 0.0039 -0.0178
0.0800 0.0092 -0.0456
0.1000 0.0149 -0.0464
0.1200 0.0207 0.0072
0.1400 0.0274 0.0318
0.1600 0.0348 0.0460
0.1800 0.0423 0.0995
0.2000 0.0495 0.1233
0.2200 0.0564 0.1610
0.2400 0.0631 0.2049
0.2600 0.0697 0.2360
0.2800 0.0764 0.2616
0.3000 0.0831 0.2742
0.3200 0.0898 0.2608
0.3400 0.0966 0.2702
0.3600 0.1033 0.2714
0.3800 0.1099 0.2623
0.4000 0.1165 0.2745
0.4200 0.1232 0.2699
0.4400 0.1299 0.2670
0.4600 0.1366 0.2722
0.4800 0.1433 0.2705
0.5000 0.1500 0.2678
0.5200 0.1566 0.2775
0.5400 0.1633 0.2671
0.5600 0.1699 0.2677
0.5800 0.1765 0.2811
0.6000 0.1832 0.2685
0.6200 0.1899 0.2649
0.6400 0.1966 0.2823
0.6600 0.2033 0.2677
0.6800 0.2099 0.2705
0.7000 0.2166 0.2811
0.7200 0.2233 0.2654
0.7400 0.2299 0.2723
0.7600 0.2365 0.2805
0.7800 0.2432 0.2667
0.8000 0.2499 0.2723
0.8200 0.2566 0.2765
0.8400 0.2632 0.2708
0.8600 0.2699 0.2718
0.8800 0.2766 0.2737
0.9000 0.2832 0.2678
0.9200 0.2898 0.2717
0.9400 0.2964 0.2747
0.9600 0.3031 0.2665
0.9800 0.3098 0.2733
1.0000 0.3165 0.2698
1.0200 0.3232 0.2698
1.0400 0.3299 0.2681
1.0600 0.3366 0.2713
1.0800 0.3432 0.2709
1.1000 0.3498 0.2671
1.1200 0.3565 0.2739
1.1400 0.3632 0.2709
1.1600 0.3699 0.2635
1.1800 0.3766 0.2676
1.2000 0.3833 0.2620
1.2200 0.3900 0.2664
1.2400 0.3967 0.2661
1.2600 0.4033 0.2611
1.2800 0.4099 0.2650
1.3000 0.4165 0.2692
1.3200 0.4232 0.2590
1.3400 0.4299 0.2582
1.3600 0.4366 0.2730
1.3800 0.4433 0.2576
1.4000 0.4500 0.2565
1.4200 0.4566 0.2662
1.4400 0.4633 0.2579
1.4600 0.4699 0.2601
1.4800 0.4765 0.2660
1.5000 0.4831 0.2580
1.5200 0.4898 0.2595
1.5400 0.4965 0.2625
1.5600 0.5032 0.2589
1.5800 0.5099 0.2518
1.6000 0.5166 0.2642
1.6200 0.5232 0.2526
1.6400 0.5298 0.2524
1.6600 0.5365 0.2593
1.6800 0.5431 0.2549
1.7000 0.5499 0.2531
1.7200 0.5566 0.2568
1.7400 0.5632 0.2511
1.7600 0.5699 0.2551
1.7800 0.5766 0.2589
1.8000 0.5833 0.2471
1.8200 0.5899 0.2523
1.8400 0.5965 0.2596
1.8600 0.6032 0.2497
1.8800 0.6099 0.2478
1.9000 0.6166 0.2580
1.9200 0.6232 0.2483
1.9400 0.6299 0.2452
1.9600 0.6366 0.2497
1.9800 0.6433 0.2479
2.0000 0.6499 0.2436
2.0200 0.6565 0.2543
2.0400 0.6631 0.2469
2.0600 0.6699 0.2432
2.0800 0.6766 0.2487
2.1000 0.6833 0.2482
2.1200 0.6899 0.2356
2.1400 0.6966 0.2498
2.1600 0.7033 0.2428
2.1800 0.7099 0.2367
2.2000 0.7165 0.2481
2.2200 0.7232 0.2396
2.2400 0.7299 0.2312
2.2600 0.7366 0.2428
2.2800 0.7432 0.2402
2.3000 0.7499 0.2310
2.3200 0.7566 0.2411
2.3400 0.7632 0.2370
2.3600 0.7699 0.2312
2.3800 0.7765 0.2325
2.4000 0.7831 0.2372
2.4200 0.7898 0.2283
2.4400 0.7965 0.2293
2.4600 0.8032 0.2398
2.4800 0.8099 0.2258
2.5000 0.8166 0.2258
2.5200 0.8233 0.2388
2.5400 0.8299 0.2219
2.5600 0.8365 0.2297
2.5800 0.8432 0.2336
2.6000 0.8499 0.2217
2.6200 0.8566 0.2222
2.6400 0.8633 0.2358
2.6600 0.8700 0.2146
2.6800 0.8767 0.2241
2.7000 0.8833 0.2308
2.7200 0.8899 0.2123
2.7400 0.8965 0.2273
2.7600 0.9032 0.2253
2.7800 0.9099 0.2158
2.8000 0.9166 0.2198
2.8200 0.9233 0.2243
2.8400 0.9300 0.2141
2.8600 0.9366 0.2179
2.8800 0.9433 0.2246
2.9000 0.9499 0.2133
2.9200 0.9565 0.2125
2.9400 0.9632 0.2216
2.9600 0.9698 0.2153
2.9800 0.9766 0.2117
3.0000 0.9832 0.2166
3.0200 0.9899 0.2161
3.0400 0.9966 0.2033
3.0600 1.0033 0.2188
3.0800 1.0099 0.2118
3.1000 1.0164 0.2049
3.1200 1.0231 0.2166
3.1400 1.0298 0.2096
3.1600 1.0366 0.2032
3.1800 1.0432 0.2163
3.2000 1.0499 0.2070
3.2200 1.0566 0.1990
3.2400 1.0633 0.2179
3.2600 1.0699 0.2046
3.2800 1.0765 0.1969
3.3000 1.0832 0.2143
3.3200 1.0899 0.2037
3.3400 1.0966 0.1914
3.3600 1.1033 0.2126
3.3800 1.1100 0.2035
3.4000 1.1167 0.1905
3.4200 1.1233 0.2066
3.4400 1.1299 0.2009
3.4600 1.1365 0.1890
3.4800 1.1432 0.2105
3.5000 1.1499 0.1985
3.5200 1.1566 0.1886
3.5400 1.1633 0.2046
3.5600 1.1700 0.1940
3.5800 1.1766 0.1869
3.6000 1.1833 0.2078
3.6200 1.1899 0.1900
3.6400 1.1965 0.1876
3.6600 1.2031 0.2026
3.6800 1.2099 0.1925
3.7000 1.2166 0.1857
3.7200 1.2233 0.2015
3.7400 1.2299 0.1926
3.7600 1.2366 0.1812
3.7800 1.2433 0.2008
3.8000 1.2499 0.1854
3.8200 1.2565 0.1883
3.8400 1.2632 0.2003
3.8600 1.2699 0.1863
3.8800 1.2766 0.1840
3.9000 1.2832 0.1987
3.9200 1.2899 0.1894
3.9400 1.2966 0.1838
3.9600 1.3033 0.1911
3.9800 1.3099 0.1890
4.0000 1.3165 0.1863
4.0200 1.3231 0.1929
4.0400 1.3298 0.1784
4.0600 1.3365 0.1857
4.0800 1.3433 0.1931
4.1000 1.3499 0.1798
4.1200 1.3566 0.1819
4.1400 1.3633 0.1898
4.1600 1.3699 0.1771
4.1800 1.3765 0.1818
4.2000 1.3832 0.1914
4.2200 1.3899 0.1799
4.2400 1.3966 0.1816
4.2600 1.4033 0.1848
4.2800 1.4100 0.1787
4.3000 1.4167 0.1811
4.3200 1.4233 0.1867
4.3400 1.4299 0.1748
4.3600 1.4365 0.1834
4.3800 1.4432 0.1823
4.4000 1.4499 0.1798
4.4200 1.4566 0.1787
4.4400 1.4632 0.1796
4.4600 1.4699 0.1784
4.4800 1.4766 0.1762
4.5000 1.4833 0.1809
4.5200 1.4899 0.1780
4.5400 1.4965 0.1717
4.5600 1.5031 0.1780
4.5800 1.5098 0.1772
4.6000 1.5165 0.1716
4.6200 1.5233 0.1737
4.6400 1.5299 0.1768
4.6600 1.5366 0.1654
4.6800 1.5433 0.1729
4.7000 1.5499 0.1761
4.7200 1.5565 0.1648
4.7400 1.5632 0.1775
4.7600 1.5699 0.1736
4.7800 1.5766 0.1591
4.8000 1.5833 0.1705
4.8200 1.5900 0.1765
4.8400 1.5966 0.1576
4.8600 1.6033 0.1710
4.8800 1.6099 0.1691
4.9000 1.6165 0.1584
4.9200 1.6231 0.1693
4.9400 1.6298 0.1672
4.9600 1.6366 0.1541
4.9800 1.6433 0.1688
5.0000 1.6500 0.1625
5.0200 1.6566 0.1582
5.0400 1.6633 0.1666
5.0600 1.6699 0.1618
5.0800 1.6765 0.1502
5.1000 1.6831 0.1662
5.1200 1.6898 0.1615
5.1400 1.6965 0.1495
5.1600 1.7032 0.1623
5.1800 1.7099 0.1586
5.2000 1.7166 0.1500
5.2200 1.7233 0.1558
5.2400 1.7299 0.1581
5.2600 1.7365 0.1483
5.2800 1.7431 0.1576
5.3000 1.7498 0.1556
5.3200 1.7565 0.1526
5.3400 1.7632 0.1498
5.3600 1.7699 0.1570
5.3800 1.7766 0.1462
5.4000 1.7832 0.1502
5.4200 1.7899 0.1499
5.4400 1.7965 0.1496
5.4600 1.8032 0.1513
5.4800 1.8098 0.1455
5.5000 1.8165 0.1466
5.5200 1.8232 0.1513
5.5400 1.8299 0.1430
5.5600 1.8366 0.1439
5.5800 1.8433 0.1452
5.6000 1.8500 0.1419
5.6200 1.8566 0.1441
5.6400 1.8632 0.1467
5.6600 1.8699 0.1434
5.6800 1.8766 0.1427
5.7000 1.8833 0.1429
5.7200 1.8900 0.1431
5.7400 1.8966 0.1423
5.7600 1.9033 0.1347
5.7800 1.9099 0.1443
5.8000 1.9165 0.1394
5.8200 1.9231 0.1391
5.8400 1.9298 0.1410
5.8600 1.9365 0.1371
5.8800 1.9432 0.1368
5.9000 1.9499 0.1426
5.9200 1.9565 0.1317
5.9400 1.9632 0.1391
5.9600 1.9699 0.1379
5.9800 1.9765 0.1330
6.0000 1.9831 0.1379
6.0200 1.9898 0.1373
6.0400 1.9965 0.1356
6.0600 2.0032 0.1325
6.0800 2.0099 0.1312
6.1000 2.0166 0.1377
6.1200 2.0233 0.1291
6.1400 2.0300 0.1316
6.1600 2.0366 0.1359
6.1800 2.0432 0.1253
6.2000 2.0498 0.1344
6.2200 2.0566 0.1377
6.2400 2.0633 0.1269
6.2600 2.0699 0.1231
6.2800 2.0766 0.1364
6.3000 2.0833 0.1245
6.3200 2.0899 0.1323
6.3400 2.0965 0.1324
6.3600 2.1032 0.1194
6.3800 2.1099 0.1281
6.4000 2.1166 0.1343
6.4200 2.1233 0.1170
6.4400 2.1299 0.1306
6.4600 2.1366 0.1288
6.4800 2.1433 0.1212
6.5000 2.1500 0.1256
6.5200 2.1566 0.1328
6.5400 2.1632 0.1215
6.5600 2.1699 0.1250
6.5800 2.1765 0.1270
6.6000 2.1832 0.1192
6.6200 2.1899 0.1222
6.6400 2.1966 0.1267
6.6600 2.2033 0.1165
6.6800 2.2100 0.1160
6.7000 2.2165 0.1272
6.7200 2.2231 0.1145
6.7400 2.2298 0.1223
6.7600 2.2365 0.1244
6.7800 2.2432 0.1118
6.8000 2.2499 0.1160
6.8200 2.2566 0.1223
6.8400 2.2633 0.1109
6.8600 2.2699 0.1214
6.8800 2.2765 0.1205
6.9000 2.2832 0.1074
6.9200 2.2898 0.1195
6.9400 2.2965 0.1173
6.9600 2.3032 0.1061
6.9800 2.3099 0.1238
7.0000 2.3166 0.1161
7.0200 2.3233 0.1002
7.0400 2.3300 0.1148
7.0600 2.3366 0.1178
7.0800 2.3432 0.1084
7.1000 2.3498 0.1155
7.1200 2.3565 0.1054
7.1400 2.3632 0.1018
7.1600 2.3699 0.1211
7.1800 2.3766 0.1062
7.2000 2.3833 0.1023
7.2200 2.3900 0.1075
7.2400 2.3966 0.1099
7.2600 2.4032 0.1020
7.2800 2.4098 0.1130
7.3000 2.4165 0.1072
7.3200 2.4233 0.0970
7.3400 2.4299 0.1076
7.3600 2.4366 0.1066
7.3800 2.4433 0.1041
7.4000 2.4499 0.1071
7.4200 2.4565 0.1013
7.4400 2.4631 0.1008
7.4600 2.4698 0.1050
7.4800 2.4765 0.1044
7.5000 2.4832 0.0977
7.5200 2.4899 0.1035
7.5400 2.4965 0.1041
7.5600 2.5032 0.0956
7.5800 2.5099 0.0986
7.6000 2.5166 0.1072
7.6200 2.5232 0.0964
7.6400 2.5299 0.0943
7.6600 2.5365 0.1092
7.6800 2.5432 0.0901
7.7000 2.5499 0.0899
7.7200 2.5566 0.1067
7.7400 2.5633 0.0932
7.7600 2.5700 0.0881
7.7800 2.5766 0.1060
7.8000 2.5832 0.0860
7.8200 2.5899 0.0851
7.8400 2.5966 0.1055
7.8600 2.6033 0.0891
7.8800 2.6100 0.0822
7.9000 2.6166 0.1071
7.9200 2.6232 0.0856
7.9400 2.6299 0.0825
7.9600 2.6365 0.1023
7.9800 2.6432 0.0857
8.0000 2.6499 0.0822
8.0200 2.6566 0.0934
8.0400 2.6633 0.0792
8.0600 2.6699 0.0868
8.0800 2.6766 0.0950
8.1000 2.6833 0.0778
8.1200 2.6900 0.0864
8.1400 2.6966 0.0869
8.1600 2.7032 0.0804
8.1800 2.7098 0.0847
8.2000 2.7165 0.0904
8.2200 2.7232 0.0771
8.2400 2.7299 0.0795
8.2600 2.7366 0.0857
8.2800 2.7433 0.0758
8.3000 2.7500 0.0841
8.3200 2.7566 0.0860
8.3400 2.7632 0.0736
8.3600 2.7698 0.0840
8.3800 2.7765 0.0783
8.4000 2.7832 0.0760
8.4200 2.7899 0.0795
8.4400 2.7966 0.0819
8.4600 2.8033 0.0747
8.4800 2.8099 0.0755
8.5000 2.8166 0.0827
8.5200 2.8232 0.0742
8.5400 2.8299 0.0776
8.5600 2.8366 0.0760
8.5800 2.8433 0.0745
8.6000 2.8499 0.0688
8.6200 2.8566 0.0756
8.6400 2.8633 0.0745
8.6600 2.8700 0.0685
8.6800 2.8766 0.0735
8.7000 2.8832 0.0753
8.7200 2.8898 0.0673
8.7400 2.8965 0.0738
8.7600 2.9032 0.0711
8.7800 2.9099 0.0666
8.8000 2.9166 0.0710
8.8200 2.9233 0.0724
8.8400 2.9300 0.0654
8.8600 2.9366 0.0748
8.8800 2.9431 0.0685
8.9000 2.9498 0.0653
8.9200 2.9565 0.0717
8.9400 2.9632 0.0627
8.9600 2.9699 0.0672
8.9800 2.9765 0.0676
9.0000 2.9832 0.0624
9.0200 2.9899 0.0665
9.0400 2.9966 0.0656
9.0600 3.0032 0.0639
9.0800 3.0099 0.0707
9.1000 3.0165 0.0606
9.1200 3.0232 0.0654
9.1400 3.0299 0.0696
9.1600 3.0366 0.0632
9.1800 3.0433 0.0605
9.2000 3.0500 0.0685
9.2200 3.0566 0.0545
9.2400 3.0632 0.0664
9.2600 3.0698 0.0629
9.2800 3.0765 0.0624
9.3000 3.0832 0.0640
9.3200 3.0899 0.0558
9.3400 3.0966 0.0627
9.3600 3.1033 0.0684
9.3800 3.1100 0.0556
9.4000 3.1166 0.0597
9.4200 3.1232 0.0651
9.4400 3.1298 0.0532
9.4600 3.1365 0.0653
9.4800 3.1432 0.0629
9.5000 3.1499 0.0522
9.5200 3.1566 0.0610
9.5400 3.1633 0.0640
9.5600 3.1699 0.0528
9.5800 3.1766 0.0649
9.6000 3.1832 0.0568
9.6200 3.1898 0.0566
9.6400 3.1965 0.0626
9.6600 3.2032 0.0555
9.6800 3.2099 0.0545
9.7000 3.2166 0.0617
9.7200 3.2232 0.0526
9.7400 3.2299 0.0514
9.7600 3.2365 0.0577
9.7800 3.2431 0.0566
9.8000 3.2498 0.0504
9.8200 3.2565 0.0560
9.8400 3.2632 0.0549
9.8600 3.2699 0.0495
9.8800 3.2766 0.0481
9.9000 3.2833 0.0535
9.9200 3.2900 0.0549
9.9400 3.2966 0.0477
9.9600 3.3032 0.0538
9.9800 3.3098 0.0535
10.0000 3.3165 0.0488
10.0200 3.3233 0.0507
10.0400 3.3300 0.0482
10.0600 3.3366 0.0452
10.0800 3.3433 0.0537
10.1000 3.3500 0.0393
10.1200 3.3566 0.0436
10.1400 3.3632 0.0549
10.1600 3.3698 0.0424
10.1800 3.3765 0.0400
10.2000 3.3832 0.0565
10.2200 3.3899 0.0362
10.2400 3.3966 0.0361
10.2600 3.4032 0.0536
10.2800 3.4099 0.0368
10.3000 3.4166 0.0342
10.3200 3.4232 0.0516
10.3400 3.4298 0.0341
10.3600 3.4364 0.0380
10.3800 3.4432 0.0497
10.4000 3.4499 0.0334
10.4200 3.4566 0.0348
10.4400 3.4633 0.0439
10.4600 3.4699 0.0320
10.4800 3.4766 0.0345
10.5000 3.4832 0.0460
10.5200 3.4899 0.0323
10.5400 3.4965 0.0382
10.5600 3.5032 0.0376
10.5800 3.5099 0.0335
10.6000 3.5166 0.0337
10.6200 3.5233 0.0382
10.6400 3.5300 0.0312
10.6600 3.5366 0.0301
10.6800 3.5432 0.0345
10.7000 3.5499 0.0377
10.7200 3.5565 0.0264
10.7400 3.5632 0.0317
10.7600 3.5699 0.0323
10.7800 3.5766 0.0270
10.8000 3.5833 0.0315
10.8200 3.5900 0.0268
10.8400 3.5966 0.0206
10.8600 3.6032 0.0358
10.8800 3.6098 0.0327
10.9000 3.6165 0.0185
10.9200 3.6232 0.0362
10.9400 3.6299 0.0281
10.9600 3.6366 0.0148
10.9800 3.6433 0.0337
11.0000 3.6499 0.0291
11.0200 3.6566 0.0180
11.0400 3.6632 0.0383
11.0600 3.6698 0.0239
11.0800 3.6765 0.0179
11.1000 3.6832 0.0347
11.1200 3.6899 0.0236
11.1400 3.6965 0.0100
11.1600 3.7032 0.0363
11.1800 3.7099 0.0223
11.2000 3.7165 0.0111
11.2200 3.7232 0.0305
11.2400 3.7298 0.0248
11.2600 3.7365 0.0136
11.2800 3.7432 0.0249
11.3000 3.7499 0.0246
11.3200 3.7566 0.0154
11.3400 3.7633 0.0276
11.3600 3.7700 0.0213
11.3800 3.7767 0.0151
11.4000 3.7832 0.0232
11.4200 3.7899 0.0220
11.4400 3.7965 0.0126
11.4600 3.8032 0.0215
11.4800 3.8100 0.0146
11.5000 3.8166 0.0169
11.5200 3.8233 0.0206
11.5400 3.8300 0.0189
11.5600 3.8366 0.0107
11.5800 3.8432 0.0204
11.6000 3.8498 0.0152
11.6200 3.8565 0.0144
11.6400 3.8632 0.0195
11.6600 3.8699 0.0207
11.6800 3.8765 0.0072
11.7000 3.8832 0.0183
11.7200 3.8899 0.0163
11.7400 3.8966 0.0091
11.7600 3.9032 0.0173
11.7800 3.9098 0.0188
11.8000 3.9164 0.0104
11.8200 3.9231 0.0176
11.8400 3.9299 0.0131
11.8600 3.9365 0.0052
11.8800 3.9432 0.0195
11.9000 3.9499 0.0118
11.9200 3.9566 0.0019
11.9400 3.9632 0.0134
11.9600 3.9698 0.0182
11.9800 3.9765 0.0008
12.0000 3.9832 0.0154
12.0200 3.9899 0.0127
12.0400 3.9966 -0.0005
12.0600 4.0033 0.0071
12.0800 4.0100 0.0124
12.1000 4.0167 -0.0057
12.1200 4.0233 0.0157
12.1400 4.0299 0.0050
12.1600 4.0365 -0.0025
12.1800 4.0432 0.0150
12.2000 4.0499 0.0054
12.2200 4.0566 -0.0023
12.2400 4.0633 0.0089
12.2600 4.0700 0.0034
12.2800 4.0767 -0.0004
12.3000 4.0833 0.0066
12.3200 4.0898 0.0028
12.3400 4.0965 -0.0008
12.3600 4.1032 0.0091
12.3800 4.1099 0.0006
12.4000 4.1166 -0.0019
12.4200 4.1233 0.0084
12.4400 4.1299 0.0000
12.4600 4.1366 0.0005
12.4800 4.1432 0.0008
12.5000 4.1498 0.0033
12.5200 4.1565 -0.0003
12.5400 4.1632 -0.0047
12.5600 4.1699 0.0006
12.5800 4.1766 -0.0013
12.6000 4.1832 -0.0059
12.6200 4.1899 0.0024
12.6400 4.1966 -0.0012
12.6600 4.2033 -0.0031
12.6800 4.2099 0.0013
12.7000 4.2165 -0.0058
12.7200 4.2232 -0.0049
12.7400 4.2299 0.0031
12.7600 4.2366 -0.0085
12.7800 4.2432 -0.0066
12.8000 4.2499 -0.0023
12.8200 4.2566 -0.0052
12.8400 4.2633 -0.0040
12.8600 4.2699 -0.0051
12.8800 4.2765 -0.0064
12.9000 4.2832 -0.0088
12.9200 4.2899 0.0019
12.9400 4.2966 -0.0105
12.9600 4.3033 -0.0066
12.9800 4.3100 -0.0033
13.0000 4.3166 -0.0127
13.0200 4.3232 -0.0115
13.0400 4.3299 -0.0009
13.0600 4.3365 -0.0063
13.0800 4.3432 -0.0082
13.1000 4.3499 -0.0065
13.1200 4.3566 -0.0146
13.1400 4.3633 -0.0093
13.1600 4.3699 0.0000
13.1800 4.3766 -0.0182
13.2000 4.3832 -0.0118
13.2200 4.3898 -0.0070
13.2400 4.3965 -0.0163
13.2600 4.4031 -0.0092
13.2800 4.4098 -0.0076
13.3000 4.4166 -0.0123
13.3200 4.4233 -0.0092
13.3400 4.4300 -0.0142
13.3600 4.4366 -0.0150
13.3800 4.4432 -0.0068
13.4000 4.4498 -0.0160
13.4200 4.4565 -0.0141
13.4400 4.4632 -0.0120
13.4600 4.4699 -0.0142
13.4800 4.4766 -0.0133
13.5000 4.4833 -0.0156
13.5200 4.4900 -0.0186
13.5400 4.4966 -0.0087
13.5600 4.5032 -0.0164
13.5800 4.5098 -0.0208
13.6000 4.5165 -0.0069
13.6200 4.5232 -0.0152
13.6400 4.5299 -0.0251
13.6600 4.5366 -0.0061
13.6800 4.5433 -0.0166
13.7000 4.5500 -0.0203
13.7200 4.5566 -0.0140
13.7400 4.5632 -0.0248
13.7600 4.5698 -0.0188
13.7800 4.5765 -0.0117
13.8000 4.5832 -0.0231
13.8200 4.5899 -0.0197
13.8400 4.5966 -0.0144
13.8600 4.6033 -0.0284
13.8800 4.6099 -0.0181
13.9000 4.6166 -0.0176
13.9200 4.6233 -0.0271
13.9400 4.6298 -0.0146
13.9600 4.6365 -0.0179
13.9800 4.6432 -0.0309
14.0000 4.6499 -0.0134
14.0200 4.6566 -0.0219
14.0400 4.6633 -0.0317
14.0600 4.6699 -0.0184
14.0800 4.6766 -0.0163
14.1000 4.6832 -0.0361
14.1200 4.6898 -0.0218
14.1400 4.6965 -0.0177
14.1600 4.7032 -0.0298
14.1800 4.7099 -0.0225
14.2000 4.7166 -0.0194
14.2200 4.7233 -0.0348
14.2400 4.7300 -0.0208
14.2600 4.7367 -0.0214
14.2800 4.7433 -0.0413
14.3000 4.7499 -0.0249
14.3200 4.7565 -0.0176
14.3400 4.7632 -0.0343
14.3600 4.7698 -0.0268
14.3800 4.7765 -0.0183
14.4000 4.7832 -0.0403
14.4200 4.7899 -0.0262
14.4400 4.7966 -0.0278
14.4600 4.8033 -0.0351
14.4800 4.8099 -0.0300
14.5000 4.8165 -0.0268
14.5200 4.8232 -0.0339
14.5400 4.8299 -0.0244
14.5600 4.8366 -0.0297
14.5800 4.8432 -0.0355
14.6000 4.8499 -0.0262
14.6200 4.8566 -0.0281
14.6400 4.8632 -0.0400
14.6600 4.8698 -0.0272
14.6800 4.8765 -0.0328
14.7000 4.8832 -0.0358
14.7200 4.8899 -0.0283
14.7400 4.8966 -0.0328
14.7600 4.9032 -0.0372
14.7800 4.9099 -0.0320
14.8000 4.9166 -0.0330
14.8200 4.9233 -0.0428
14.8400 4.9299 -0.0293
14.8600 4.9365 -0.0350
14.8800 4.9432 -0.0383
14.9000 4.9499 -0.0365
14.9200 4.9566 -0.0331
14.9400 4.9633 -0.0389
14.9600 4.9700 -0.0360
14.9800 4.9767 -0.0415
15.0000 4.9833 -0.0392
15.0200 4.9899 -0.0351
15.0400 4.9965 -0.0349
15.0600 5.0032 -0.0426
15.0800 5.0099 -0.0376
15.1000 5.0166 -0.0359
15.1200 5.0233 -0.0382
15.1400 5.0300 -0.0469
15.1600 5.0366 -0.0367
15.1800 5.0432 -0.0384
15.2000 5.0498 -0.0499
15.2200 5.0564 -0.0334
15.2400 5.0631 -0.0360
15.2600 5.0699 -0.0479
15.2800 5.0766 -0.0339
15.3000 5.0833 -0.0467
15.3200 5.0900 -0.0475
15.3400 5.0967 -0.0358
15.3600 5.1033 -0.0513
15.3800 5.1099 -0.0479
15.4000 5.1165 -0.0371
15.4200 5.1231 -0.0454
15.4400 5.1298 -0.0479
15.4600 5.1365 -0.0372
15.4800 5.1432 -0.0510
15.5000 5.1499 -0.0484
15.5200 5.1566 -0.0435
15.5400 5.1632 -0.0510
15.5600 5.1698 -0.0512
15.5800 5.1765 -0.0375
15.6000 5.1832 -0.0546
15.6200 5.1899 -0.0562
15.6400 5.1966 -0.0413
15.6600 5.2033 -0.0493
15.6800 5.2100 -0.0557
15.7000 5.2167 -0.0389
15.7200 5.2233 -0.0565
15.7400 5.2299 -0.0569
15.7600 5.2366 -0.0398
15.7800 5.2432 -0.0579
15.8000 5.2499 -0.0570
15.8200 5.2566 -0.0445
15.8400 5.2633 -0.0579
15.8600 5.2700 -0.0563
15.8800 5.2767 -0.0433
15.9000 5.2833 -0.0630
15.9200 5.2899 -0.0514
15.9400 5.2965 -0.0449
15.9600 5.3031 -0.0584
15.9800 5.3098 -0.0544
16.0000 5.3165 -0.0478
16.0200 5.3232 -0.0640
16.0400 5.3299 -0.0531
16.0600 5.3366 -0.0501
16.0800 5.3433 -0.0620
16.1000 5.3499 -0.0572
16.1200 5.3565 -0.0529
16.1400 5.3632 -0.0645
16.1600 5.3699 -0.0542
16.1800 5.3766 -0.0578
16.2000 5.3833 -0.0613
16.2200 5.3899 -0.0584
16.2400 5.3966 -0.0603
16.2600 5.4033 -0.0580
16.2800 5.4099 -0.0611
16.3000 5.4165 -0.0612
16.3200 5.4232 -0.0600
16.3400 5.4299 -0.0644
16.3600 5.4366 -0.0614
16.3800 5.4433 -0.0576
16.4000 5.4500 -0.0695
16.4200 5.4567 -0.0590
16.4400 5.4633 -0.0590
16.4600 5.4699 -0.0719
16.4800 5.4765 -0.0589
16.5000 5.4831 -0.0551
16.5200 5.4899 -0.0745
16.5400 5.4966 -0.0600
16.5600 5.5033 -0.0612
16.5800 5.5100 -0.0731
16.6000 5.5166 -0.0610
16.6200 5.5233 -0.0597
16.6400 5.5299 -0.0756
16.6600 5.5365 -0.0591
16.6800 5.5431 -0.0670
16.7000 5.5499 -0.0746
16.7200 5.5566 -0.0607
16.7400 5.5632 -0.0666
16.7600 5.5699 -0.0692
16.7800 5.5766 -0.0592
16.8000 5.5832 -0.0676
16.8200 5.5898 -0.0741
16.8400 5.5964 -0.0605
16.8600 5.6031 -0.0665
16.8800 5.6098 -0.0690
16.9000 5.6166 -0.0669
16.9200 5.6233 -0.0711
16.9400 5.6299 -0.0705
16.9600 5.6366 -0.0689
16.9800 5.6433 -0.0715
17.0000 5.6499 -0.0676
17.0200 5.6565 -0.0696
17.0400 5.6632 -0.0670
17.0600 5.6699 -0.0692
17.0800 5.6766 -0.0719
17.1000 5.6833 -0.0696
17.1200 5.6900 -0.0677
17.1400 5.6966 -0.0780
17.1600 5.7033 -0.0685
17.1800 5.7099 -0.0655
17.2000 5.7165 -0.0814
17.2200 5.7232 -0.0667
17.2400 5.7299 -0.0641
17.2600 5.7366 -0.0828
17.2800 5.7433 -0.0685
17.3000 5.7499 -0.0708
17.3200 5.7566 -0.0796
17.3400 5.7633 -0.0650
17.3600 5.7699 -0.0804
17.3800 5.7765 -0.0796
17.4000 5.7831 -0.0645
17.4200 5.7898 -0.0759
17.4400 5.7965 -0.0849
17.4600 5.8032 -0.0648
17.4800 5.8099 -0.0832
17.5000 5.8166 -0.0770
17.5200 5.8233 -0.0717
17.5400 5.8299 -0.0825
17.5600 5.8364 -0.0797
17.5800 5.8431 -0.0711
17.6000 5.8498 -0.0834
17.6200 5.8565 -0.0785
17.6400 5.8632 -0.0731
17.6600 5.8699 -0.0835
17.6800 5.8766 -0.0775
17.7000 5.8833 -0.0757
17.7200 5.8899 -0.0851
17.7400 5.8965 -0.0757
17.7600 5.9032 -0.0806
17.7800 5.9099 -0.0801
17.8000 5.9166 -0.0796
17.8200 5.9233 -0.0842
17.8400 5.9300 -0.0777
17.8600 5.9367 -0.0788
17.8800 5.9433 -0.0855
17.9000 5.9500 -0.0784
17.9200 5.9566 -0.0794
17.9400 5.9632 -0.0888
17.9600 5.9699 -0.0732
17.9800 5.9766 -0.0931
18.0000 5.9833 -0.0847
18.0200 5.9900 -0.0719
18.0400 5.9967 -0.0919
18.0600 6.0033 -0.0844
18.0800 6.0099 -0.0716
18.1000 6.0165 -0.1005
18.1200 6.0231 -0.0791
18.1400 6.0298 -0.0695
18.1600 6.0366 -0.1025
18.1800 6.0433 -0.0819
18.2000 6.0499 -0.0732
18.2200 6.0566 -0.0992
18.2400 6.0633 -0.0791
18.2600 6.0699 -0.0775
18.2800 6.0765 -0.0984
18.3000 6.0832 -0.0831
18.3200 6.0898 -0.0874
18.3400 6.0965 -0.0942
18.3600 6.1032 -0.0791
18.3800 6.1099 -0.0851
18.4000 6.1165 -0.0973
18.4200 6.1232 -0.0860
18.4400 6.1299 -0.0919
18.4600 6.1365 -0.0887
18.4800 6.1432 -0.0893
18.5000 6.1499 -0.0941
18.5200 6.1566 -0.0928
18.5400 6.1633 -0.0896
18.5600 6.1700 -0.0911
18.5800 6.1767 -0.0885
18.6000 6.1833 -0.0944
18.6200 6.1899 -0.0959
18.6400 6.1965 -0.0923
18.6600 6.2032 -0.0928
18.6800 6.2099 -0.0887
18.7000 6.2166 -0.0935
18.7200 6.2233 -0.1006
18.7400 6.2299 -0.0908
18.7600 6.2366 -0.0941
18.7800 6.2433 -0.0984
18.8000 6.2499 -0.0928
18.8200 6.2565 -0.0995
18.8400 6.2632 -0.0927
18.8600 6.2699 -0.0946
18.8800 6.2766 -0.1000
18.9000 6.2832 -0.0971
18.9200 6.2899 -0.0915
18.9400 6.2966 -0.1091
18.9600 6.3033 -0.0927
18.9800 6.3099 -0.0972
19.0000 6.3165 -0.1073
19.0200 6.3231 -0.0897
19.0400 6.3298 -0.0989
19.0600 6.3365 -0.1118
19.0800 6.3432 -0.0884
19.1000 6.3499 -0.0975
19.1200 6.3566 -0.1129
19.1400 6.3633 -0.0880
19.1600 6.3699 -0.1018
19.1800 6.3765 -0.1178
19.2000 6.3831 -0.0868
19.2200 6.3898 -0.0958
19.2400 6.3966 -0.1119
19.2600 6.4033 -0.0942
19.2800 6.4100 -0.1008
19.3000 6.4166 -0.1112
19.3200 6.4233 -0.0993
19.3400 6.4300 -0.1051
19.3600 6.4366 -0.1070
19.3800 6.4432 -0.0948
19.4000 6.4498 -0.1113
19.4200 6.4565 -0.1120
19.4400 6.4632 -0.0974
19.4600 6.4699 -0.1074
19.4800 6.4766 -0.1123
19.5000 6.4833 -0.1017
19.5200 6.4900 -0.1065
19.5400 6.4966 -0.1092
19.5600 6.5031 -0.1086
19.5800 6.5098 -0.1019
19.6000 6.5165 -0.1116
19.6200 6.5232 -0.1109
19.6400 6.5299 -0.1026
19.6600 6.5366 -0.1167
19.6800 6.5433 -0.1105
19.7000 6.5499 -0.1008
19.7200 6.5565 -0.1192
19.7400 6.5631 -0.1166
19.7600 6.5698 -0.0965
19.7800 6.5765 -0.1182
19.8000 6.5832 -0.1166
19.8200 6.5899 -0.1030
19.8400 6.5965 -0.1145
19.8600 6.6032 -0.1162
19.8800 6.6099 -0.1079
19.9000 6.6165 -0.1170
19.9200 6.6232 -0.1129
19.9400 6.6298 -0.1123
19.9600 6.6365 -0.1203
19.9800 6.6432 -0.1148
20.0000 6.6499 -0.1039
20.0200 6.6566 -0.1222
20.0400 6.6633 -0.1187
20.0600 6.6700 -0.1154
20.0800 6.6766 -0.1226
20.1000 6.6832 -0.1141
20.1200 6.6899 -0.1122
20.1400 6.6966 -0.1191
20.1600 6.7033 -0.1220
20.1800 6.7100 -0.1139
20.2000 6.7166 -0.1167
20.2200 6.7233 -0.1213
20.2400 6.7299 -0.1178
20.2600 6.7365 -0.1172
20.2800 6.7431 -0.1213
20.3000 6.7498 -0.1124
20.3200 6.7565 -0.1122
20.3400 6.7632 -0.1233
20.3600 6.7699 -0.1239
20.3800 6.7766 -0.1129
20.4000 6.7832 -0.1240
20.4200 6.7899 -0.1202
20.4400 6.7965 -0.1193
20.4600 6.8031 -0.1271
20.4800 6.8098 -0.1179
20.5000 6.8165 -0.1158
20.5200 6.8232 -0.1292
20.5400 6.8299 -0.1157
20.5600 6.8366 -0.1182
20.5800 6.8433 -0.1298
20.6000 6.8500 -0.1184
20.6200 6.8566 -0.1146
20.6400 6.8632 -0.1277
20.6600 6.8698 -0.1216
20.6800 6.8766 -0.1181
20.7000 6.8833 -0.1259
20.7200 6.8900 -0.1208
20.7400 6.8967 -0.1225
20.7600 6.9033 -0.1292
20.7800 6.9099 -0.1271
20.8000 6.9165 -0.1207
20.8200 6.9231 -0.1238
20.8400 6.9298 -0.1256
20.8600 6.9366 -0.1267
20.8800 6.9433 -0.1252
20.9000 6.9499 -0.1273
20.9200 6.9566 -0.1238
20.9400 6.9633 -0.1249
20.9600 6.9700 -0.1281
20.9800 6.9766 -0.1249
21.0000 6.9832 -0.1220
21.0200 6.9899 -0.1272
21.0400 6.9965 -0.1200
21.0600 7.0032 -0.1260
21.0800 7.0099 -0.1290
21.1000 7.0166 -0.1215
21.1200 7.0233 -0.1292
21.1400 7.0299 -0.1258
21.1600 7.0365 -0.1316
21.1800 7.0431 -0.1257
21.2000 7.0498 -0.1238
21.2200 7.0565 -0.1254
21.2400 7.0632 -0.1335
21.2600 7.0699 -0.1261
21.2800 7.0766 -0.1228
21.3000 7.0832 -0.1281
21.3200 7.0899 -0.1327
21.3400 7.0965 -0.1270
21.3600 7.1031 -0.1270
21.3800 7.1098 -0.1310
21.4000 7.1165 -0.1278
21.4200 7.1232 -0.1236
21.4400 7.1299 -0.1383
21.4600 7.1366 -0.1234
21.4800 7.1433 -0.1256
21.5000 7.1500 -0.1389
21.5200 7.1566 -0.1273
21.5400 7.1632 -0.1207
21.5600 7.1698 -0.1381
21.5800 7.1765 -0.1306
21.6000 7.1832 -0.1251
21.6200 7.1899 -0.1336
21.6400 7.1966 -0.1327
21.6600 7.2033 -0.1300
21.6800 7.2100 -0.1338
21.7000 7.2166 -0.1346
21.7200 7.2232 -0.1246
21.7400 7.2298 -0.1385
21.7600 7.2365 -0.1306
21.7800 7.2433 -0.1334
21.8000 7.2499 -0.1360
21.8200 7.2566 -0.1303
21.8400 7.2633 -0.1352
21.8600 7.2699 -0.1389
21.8800 7.2766 -0.1294
21.9000 7.2832 -0.1372
21.9200 7.2898 -0.1374
21.9400 7.2965 -0.1295
21.9600 7.3032 -0.1402
21.9800 7.3099 -0.1421
22.0000 7.3165 -0.1232
22.0200 7.3232 -0.1399
22.0400 7.3299 -0.1460
22.0600 7.3366 -0.1247
22.0800 7.3432 -0.1436
22.1000 7.3498 -0.1423
22.1200 7.3565 -0.1282
22.1400 7.3632 -0.1435
22.1600 7.3699 -0.1416
22.1800 7.3766 -0.1306
22.2000 7.3833 -0.1517
22.2200 7.3900 -0.1405
22.2400 7.3966 -0.1308
22.2600 7.4032 -0.1530
22.2800 7.4098 -0.1408
22.3000 7.4165 -0.1320
22.3200 7.4233 -0.1520
22.3400 7.4300 -0.1355
22.3600 7.4366 -0.1388
22.3800 7.4433 -0.1492
22.4000 7.4499 -0.1401
22.4200 7.4566 -0.1444
22.4400 7.4632 -0.1470
22.4600 7.4698 -0.1368
22.4800 7.4765 -0.1438
22.5000 7.4832 -0.1509
22.5200 7.4899 -0.1337
22.5400 7.4966 -0.1453
22.5600 7.5033 -0.1458
22.5800 7.5100 -0.1445
22.6000 7.5166 -0.1456
22.6200 7.5232 -0.1464
22.6400 7.5298 -0.1461
22.6600 7.5365 -0.1434
22.6800 7.5432 -0.1431
22.7000 7.5499 -0.1569
22.7200 7.5566 -0.1450
22.7400 7.5633 -0.1415
22.7600 7.5700 -0.1590
22.7800 7.5766 -0.1414
22.8000 7.5832 -0.1414
22.8200 7.5898 -0.1595
22.8400 7.5965 -0.1377
22.8600 7.6032 -0.1489
22.8800 7.6099 -0.1571
22.9000 7.6166 -0.1343
22.9200 7.6233 -0.1492
22.9400 7.6300 -0.1619
22.9600 7.6366 -0.1369
22.9800 7.6432 -0.1522
23.0000 7.6499 -0.1592
23.0200 7.6565 -0.1391
23.0400 7.6632 -0.1514
23.0600 7.6699 -0.1531
23.0800 7.6766 -0.1452
23.1000 7.6833 -0.1520
23.1200 7.6900 -0.1572
23.1400 7.6966 -0.1456
23.1600 7.7032 -0.1544
23.1800 7.7098 -0.1531
23.2000 7.7165 -0.1492
23.2200 7.7232 -0.1527
23.2400 7.7299 -0.1546
23.2600 7.7366 -0.1519
23.2800 7.7433 -0.1454
23.3000 7.7499 -0.1529
23.3200 7.7566 -0.1589
23.3400 7.7632 -0.1456
23.3600 7.7698 -0.1558
23.3800 7.7765 -0.1580
23.4000 7.7832 -0.1524
23.4200 7.7899 -0.1579
23.4400 7.7965 -0.1565
23.4600 7.8032 -0.1511
23.4800 7.8099 -0.1614
23.5000 7.8166 -0.1530
23.5200 7.8232 -0.1490
23.5400 7.8298 -0.1698
23.5600 7.8365 -0.1508
23.5800 7.8432 -0.1489
23.6000 7.8499 -0.1678
23.6200 7.8566 -0.1516
23.6400 7.8633 -0.1516
23.6600 7.8700 -0.1733
23.6800 7.8766 -0.1478
23.7000 7.8832 -0.1523
23.7200 7.8898 -0.1662
23.7400 7.8965 -0.1541
23.7600 7.9032 -0.1546
23.7800 7.9100 -0.1641
23.8000 7.9166 -0.1573
23.8200 7.9233 -0.1570
23.8400 7.9300 -0.1597
23.8600 7.9366 -0.1596
23.8800 7.9432 -0.1551
23.9000 7.9498 -0.1568
23.9200 7.9565 -0.1616
23.9400 7.9632 -0.1596
23.9600 7.9699 -0.1620
23.9800 7.9766 -0.1666
24.0000 7.9832 -0.1578
24.0200 7.9899 -0.1619
24.0400 7.9966 -0.1671
24.0600 8.0032 -0.1598
24.0800 8.0098 -0.1641
24.1000 8.0165 -0.1585
24.1200 8.0232 -0.1644
24.1400 8.0299 -0.1623
24.1600 8.0366 -0.1637
24.1800 8.0432 -0.1624
24.2000 8.0499 -0.1698
24.2200 8.0566 -0.1628
24.2400 8.0632 -0.1625
24.2600 8.0698 -0.1682
24.2800 8.0765 -0.1625
24.3000 8.0832 -0.1638
24.3200 8.0899 -0.1700
24.3400 8.0966 -0.1638
24.3600 8.1033 -0.1628
24.3800 8.1100 -0.1683
24.4000 8.1166 -0.1657
24.4200 8.1232 -0.1629
24.4400 8.1298 -0.1713
24.4600 8.1365 -0.1617
24.4800 8.1433 -0.1675
24.5000 8.1500 -0.1746
24.5200 8.1567 -0.1629
24.5400 8.1633 -0.1692
24.5600 8.1700 -0.1688
24.5800 8.1766 -0.1661
24.6000 8.1832 -0.1684
24.6200 8.1898 -0.1687
24.6400 8.1965 -0.1618
24.6600 8.2032 -0.1701
24.6800 8.2099 -0.1700
24.7000 8.2166 -0.1612
24.7200 8.2232 -0.1733
24.7400 8.2299 -0.1732
24.7600 8.2366 -0.1590
24.7800 8.2432 -0.1832
24.8000 8.2498 -0.1632
24.8200 8.2565 -0.1584
24.8400 8.2632 -0.1829
24.8600 8.2699 -0.1636
24.8800 8.2766 -0.1641
24.9000 8.2833 -0.1813
24.9200 8.2899 -0.1667
24.9400 8.2966 -0.1700
24.9600 8.3032 -0.1759
24.9800 8.3098 -0.1635
25.0000 8.3165 -0.1754
25.0200 8.3232 -0.1774
25.0400 8.3299 -0.1647
25.0600 8.3366 -0.1732
25.0800 8.3433 -0.1747
25.1000 8.3500 -0.1594
25.1200 8.3566 -0.1823
25.1400 8.3632 -0.1761
25.1600 8.3698 -0.1633
25.1800 8.3765 -0.1796
25.2000 8.3832 -0.1729
25.2200 8.3899 -0.1702
25.2400 8.3966 -0.1801
25.2600 8.4033 -0.1746
25.2800 8.4100 -0.1751
25.3000 8.4166 -0.1754
25.3200 8.4232 -0.1719
25.3400 8.4298 -0.1819
25.3600 8.4365 -0.1739
25.3800 8.4432 -0.1642
25.4000 8.4499 -0.1841
25.4200 8.4566 -0.1779
25.4400 8.4633 -0.1641
25.4600 8.4699 -0.1855
25.4800 8.4766 -0.1786
25.5000 8.4832 -0.1673
25.5200 8.4898 -0.1801
25.5400 8.4964 -0.1782
25.5600 8.5031 -0.1698
25.5800 8.5098 -0.1875
25.6000 8.5165 -0.1735
25.6200 8.5232 -0.1735
25.6400 8.5299 -0.1843
25.6600 8.5366 -0.1758
25.6800 8.5432 -0.1784
25.7000 8.5498 -0.1847
25.7200 8.5565 -0.1717
25.7400 8.5632 -0.1805
25.7600 8.5699 -0.1829
25.7800 8.5766 -0.1765
25.8000 8.5833 -0.1801
25.8200 8.5900 -0.1787
25.8400 8.5967 -0.1813
25.8600 8.6033 -0.1840
25.8800 8.6099 -0.1769
25.9000 8.6165 -0.1821
25.9200 8.6232 -0.1849
25.9400 8.6300 -0.1741
25.9600 8.6366 -0.1886
25.9800 8.6433 -0.1791
26.0000 8.6500 -0.1794
26.0200 8.6566 -0.1926
26.0400 8.6632 -0.1825
26.0600 8.6698 -0.1761
26.0800 8.6765 -0.1963
26.1000 8.6832 -0.1809
26.1200 8.6899 -0.1819
26.1400 8.6966 -0.1915
26.1600 8.7032 -0.1786
26.1800 8.7099 -0.1818
26.2000 8.7166 -0.1965
26.2200 8.7232 -0.1821
26.2400 8.7298 -0.1836
26.2600 8.7364 -0.1920
26.2800 8.7431 -0.1781
26.3000 8.7499 -0.1881
26.3200 8.7565 -0.1948
26.3400 8.7632 -0.1799
26.3600 8.7699 -0.1884
26.3800 8.7766 -0.1909
26.4000 8.7832 -0.1866
26.4200 8.7898 -0.1906
26.4400 8.7965 -0.1889
26.4600 8.8032 -0.1930
26.4800 8.8099 -0.1862
26.5000 8.8166 -0.1930
26.5200 8.8233 -0.1851
26.5400 8.8300 -0.1994
26.5600 8.8367 -0.1927
26.5800 8.8433 -0.1875
26.6000 8.8499 -0.1956
26.6200 8.8565 -0.1870
26.6400 8.8632 -0.1894
26.6600 8.8699 -0.1967
26.6800 8.8766 -0.1878
26.7000 8.8833 -0.1935
26.7200 8.8900 -0.1962
26.7400 8.8967 -0.1921
26.7600 8.9033 -0.1900
26.7800 8.9098 -0.1977
26.8000 8.9165 -0.1886
26.8200 8.9232 -0.1913
26.8400 8.9299 -0.2013
26.8600 8.9366 -0.1902
26.8800 8.9433 -0.1975
26.9000 8.9499 -0.1946
26.9200 8.9566 -0.1922
26.9400 8.9632 -0.1962
26.9600 8.9698 -0.1992
26.9800 8.9765 -0.1885
27.0000 8.9832 -0.1966
27.0200 8.9899 -0.2014
27.0400 8.9966 -0.1902
27.0600 9.0032 -0.1957
27.0800 9.0099 -0.1999
27.1000 9.0166 -0.1926
27.1200 9.0233 -0.2059
27.1400 9.0299 -0.1924
27.1600 9.0365 -0.1937
27.1800 9.0432 -0.2045
27.2000 9.0499 -0.1880
27.2200 9.0566 -0.1964
27.2400 9.0633 -0.2064
27.2600 9.0700 -0.1878
27.2800 9.0767 -0.1993
27.3000 9.0833 -0.2085
27.3200 9.0899 -0.1836
27.3400 9.0965 -0.2010
27.3600 9.1032 -0.2049
27.3800 9.1099 -0.1860
27.4000 9.1166 -0.2028
27.4200 9.1233 -0.2031
27.4400 9.1300 -0.1886
27.4600 9.1366 -0.2068
27.4800 9.1432 -0.1940
27.5000 9.1498 -0.1913
27.5200 9.1565 -0.2063
27.5400 9.1632 -0.1968
27.5600 9.1699 -0.1875
27.5800 9.1766 -0.2136
27.6000 9.1833 -0.1902
27.6200 9.1899 -0.1921
27.6400 9.1966 -0.2158
27.6600 9.2033 -0.1922
27.6800 9.2098 -0.1952
27.7000 9.2164 -0.2096
27.7200 9.2231 -0.1920
27.7400 9.2298 -0.1976
27.7600 9.2366 -0.2074
27.7800 9.2432 -0.1971
27.8000 9.2499 -0.1997
27.8200 9.2566 -0.2058
27.8400 9.2633 -0.2008
27.8600 9.2698 -0.1946
27.8800 9.2765 -0.2110
27.9000 9.2832 -0.2006
27.9200 9.2899 -0.1958
27.9400 9.2966 -0.2096
27.9600 9.3033 -0.2026
27.9800 9.3100 -0.1984
28.0000 9.3167 -0.2118
28.0200 9.3233 -0.2011
28.0400 9.3299 -0.1958
28.0600 9.3365 -0.2068
28.0800 9.3432 -0.2055
28.1000 9.3499 -0.2008
28.1200 9.3566 -0.2073
28.1400 9.3633 -0.1966
28.1600 9.3699 -0.2013
28.1800 9.3766 -0.2131
28.2000 9.3833 -0.1989
28.2200 9.3899 -0.2028
28.2400 9.3965 -0.2092
28.2600 9.4031 -0.1974
28.2800 9.4099 -0.2095
28.3000 9.4166 -0.2064
28.3200 9.4232 -0.1984
28.3400 9.4299 -0.2120
28.3600 9.4366 -0.2078
28.3800 9.4433 -0.1962
28.4000 9.4499 -0.2114
28.4200 9.4565 -0.2102
28.4400 9.4632 -0.1920
28.4600 9.4699 -0.2135
28.4800 9.4766 -0.2104
28.5000 9.4833 -0.1990
28.5200 9.4899 -0.2093
28.5400 9.4966 -0.2055
28.5600 9.5032 -0.2035
28.5800 9.5099 -0.2139
28.6000 9.5165 -0.2054
28.6200 9.5232 -0.2056
28.6400 9.5299 -0.2135
28.6600 9.5366 -0.2069
28.6800 9.5433 -0.2089
28.7000 9.5500 -0.2105
28.7200 9.5567 -0.2040
28.7400 9.5633 -0.2163
28.7600 9.5699 -0.2132
28.7800 9.5765 -0.2010
28.8000 9.5832 -0.2196
28.8200 9.5899 -0.2104
28.8400 9.5966 -0.2079
28.8600 9.6033 -0.2160
28.8800 9.6100 -0.2119
28.9000 9.6167 -0.2093
28.9200 9.6233 -0.2160
28.9400 9.6299 -0.2118
28.9600 9.6365 -0.2131
28.9800 9.6432 -0.2148
29.0000 9.6499 -0.2099
29.0200 9.6565 -0.2150
29.0400 9.6632 -0.2181
29.0600 9.6699 -0.2099
29.0800 9.6766 -0.2200
29.1000 9.6832 -0.2130
29.1200 9.6899 -0.2121
29.1400 9.6965 -0.2222
29.1600 9.7031 -0.2134
29.1800 9.7098 -0.2145
29.2000 9.7165 -0.2212
29.2200 9.7232 -0.2152
29.2400 9.7299 -0.2117
29.2600 9.7366 -0.2224
29.2800 9.7433 -0.2223
29.3000 9.7499 -0.2145
29.3200 9.7565 -0.2140
29.3400 9.7632 -0.2215
29.3600 9.7699 -0.2209
29.3800 9.7766 -0.2196
29.4000 9.7833 -0.2202
29.4200 9.7900 -0.2248
29.4400 9.7967 -0.2177
29.4600 9.8033 -0.2221
29.4800 9.8099 -0.2213
29.5000 9.8165 -0.2218
29.5200 9.8232 -0.2190
29.5400 9.8299 -0.2200
29.5600 9.8366 -0.2173
29.5800 9.8433 -0.2260
29.6000 9.8500 -0.2252
29.6200 9.8566 -0.2112
29.6400 9.8633 -0.2266
29.6600 9.8699 -0.2262
29.6800 9.8765 -0.2127
29.7000 9.8832 -0.2302
29.7200 9.8899 -0.2274
29.7400 9.8966 -0.2139
29.7600 9.9032 -0.2341
29.7800 9.9099 -0.2228
29.8000 9.9166 -0.2203
29.8200 9.9232 -0.2339
29.8400 9.9298 -0.2192
29.8600 9.9364 -0.2171
29.8800 9.9431 -0.2427
29.9000 9.9498 -0.2157
29.9200 9.9565 -0.2210
29.9400 9.9632 -0.2373
29.9600 9.9699 -0.2199
29.9800 9.9766 -0.2232
30.0000 9.9832 -0.2336
30.0200 9.9898 -0.2226
30.0400 9.9965 -0.2247
30.0600 10.0032 -0.2296
30.0800 10.0099 -0.2248
30.1000 10.0166 -0.2292
30.1200 10.0233 -0.2286
30.1400 10.0300 -0.2248
30.1600 10.0366 -0.2311
30.1800 10.0433 -0.2284
30.2000 10.0499 -0.2279
30.2200 10.0566 -0.2306
30.2400 10.0632 -0.2267
30.2600 10.0699 -0.2302
30.2800 10.0766 -0.2255
30.3000 10.0833 -0.2258
30.3200 10.0900 -0.2298
30.3400 10.0967 -0.2298
30.3600 10.1033 -0.2244
30.3800 10.1099 -0.2364
30.4000 10.1165 -0.2204
30.4200 10.1231 -0.2260
30.4400 10.1298 -0.2386
30.4600 10.1365 -0.2240
30.4800 10.1432 -0.2276
30.5000 10.1499 -0.2373
30.5200 10.1566 -0.2243
30.5400 10.1632 -0.2326
30.5600 10.1699 -0.2399
30.5800 10.1765 -0.2257
30.6000 10.1831 -0.2297
30.6200 10.1899 -0.2373
30.6400 10.1966 -0.2292
30.6600 10.2033 -0.2321
30.6800 10.2099 -0.2368
30.7000 10.2166 -0.2273
30.7200 10.2233 -0.2380
30.7400 10.2299 -0.2337
30.7600 10.2365 -0.2278
30.7800 10.2432 -0.2361
30.8000 10.2499 -0.2373
30.8200 10.2566 -0.2267
30.8400 10.2633 -0.2352
30.8600 10.2699 -0.2347
30.8800 10.2766 -0.2314
30.9000 10.2833 -0.2298
30.9200 10.2899 -0.2403
30.9400 10.2965 -0.2313
30.9600 10.3032 -0.2326
30.9800 10.3099 -0.2344
31.0000 10.3166 -0.2303
31.0200 10.3233 -0.2368
31.0400 10.3300 -0.2345
31.0600 10.3366 -0.2322
31.0800 10.3433 -0.2378
31.1000 10.3499 -0.2345
31.1200 10.3565 -0.2314
31.1400 10.3631 -0.2353
31.1600 10.3699 -0.2345
31.1800 10.3766 -0.2349
31.2000 10.3833 -0.2376
31.2200 10.3899 -0.2333
31.2400 10.3966 -0.2313
31.2600 10.4033 -0.2364
31.2800 10.4099 -0.2350
31.3000 10.4165 -0.2352
31.3200 10.4231 -0.2305
31.3400 10.4298 -0.2392
31.3600 10.4365 -0.2377
31.3800 10.4432 -0.2339
31.4000 10.4499 -0.2354
31.4200 10.4566 -0.2341
31.4400 10.4633 -0.2376
31.4600 10.4699 -0.2362
31.4800 10.4765 -0.2384
31.5000 10.4832 -0.2355
31.5200 10.4899 -0.2366
31.5400 10.4966 -0.2361
31.5600 10.5033 -0.2372
31.5800 10.5100 -0.2412
31.6000 10.5167 -0.2347
31.6200 10.5233 -0.2361
31.6400 10.5299 -0.2402
31.6600 10.5365 -0.2360
31.6800 10.5432 -0.2405
31.7000 10.5499 -0.2363
31.7200 10.5566 -0.2369
31.7400 10.5633 -0.2388
31.7600 10.5700 -0.2442
31.7800 10.5767 -0.2324
31.8000 10.5833 -0.2437
31.8200 10.5899 -0.2425
31.8400 10.5965 -0.2330
31.8600 10.6032 -0.2418
31.8800 10.6098 -0.2442
31.9000 10.6166 -0.2416
31.9200 10.6233 -0.2448
31.9400 10.6299 -0.2393
31.9600 10.6366 -0.2413
31.9800 10.6433 -0.2490
32.0000 10.6499 -0.2421
32.0200 10.6565 -0.2407
32.0400 10.6631 -0.2452
32.0600 10.6698 -0.2456
32.0800 10.6765 -0.2465
32.1000 10.6833 -0.2458
32.1200 10.6899 -0.2427
32.1400 10.6966 -0.2473
32.1600 10.7033 -0.2433
32.1800 10.7099 -0.2489
32.2000 10.7165 -0.2494
32.2200 10.7232 -0.2421
32.2400 10.7299 -0.2499
32.2600 10.7366 -0.2501
32.2800 10.7433 -0.2414
32.3000 10.7500 -0.2585
32.3200 10.7567 -0.2486
32.3400 10.7634 -0.2428
32.3600 10.7700 -0.2579
32.3800 10.7766 -0.2465
32.4000 10.7832 -0.2456
32.4200 10.7899 -0.2576
32.4400 10.7966 -0.2462
32.4600 10.8033 -0.2484
32.4800 10.8099 -0.2599
32.5000 10.8166 -0.2471
32.5200 10.8233 -0.2503
32.5400 10.8299 -0.2554
32.5600 10.8365 -0.2461
32.5800 10.8431 -0.2498
32.6000 10.8498 -0.2585
32.6200 10.8566 -0.2476
32.6400 10.8633 -0.2546
32.6600 10.8699 -0.2550
32.6800 10.8766 -0.2485
32.7000 10.8833 -0.2578
32.7200 10.8899 -0.2556
32.7400 10.8965 -0.2522
32.7600 10.9032 -0.2596
32.7800 10.9098 -0.2516
32.8000 10.9165 -0.2558
32.8200 10.9232 -0.2565
32.8400 10.9299 -0.2537
32.8600 10.9366 -0.2534
32.8800 10.9433 -0.2559
32.9000 10.9499 -0.2573
32.9200 10.9565 -0.2587
32.9400 10.9632 -0.2549
32.9600 10.9698 -0.2557
32.9800 10.9765 -0.2611
33.0000 10.9832 -0.2605
33.0200 10.9899 -0.2567
33.0400 10.9966 -0.2592
33.0600 11.0033 -0.2600
33.0800 11.0099 -0.2558
33.1000 11.0165 -0.2609
33.1200 11.0232 -0.2600
33.1400 11.0298 -0.2571
33.1600 11.0366 -0.2614
33.1800 11.0433 -0.2657
33.2000 11.0500 -0.2538
33.2200 11.0567 -0.2641
33.2400 11.0633 -0.2646
33.2600 11.0699 -0.2593
33.2800 11.0765 -0.2625
33.3000 11.0832 -0.2631
33.3200 11.0898 -0.2577
33.3400 11.0965 -0.2657
33.3600 11.1032 -0.2621
33.3800 11.1099 -0.2611
33.4000 11.1166 -0.2659
33.4200 11.1233 -0.2625
33.4400 11.1299 -0.2610
33.4600 11.1365 -0.2665
33.4800 11.1431 -0.2682
33.5000 11.1498 -0.2613
33.5200 11.1565 -0.2621
33.5400 11.1632 -0.2679
33.5600 11.1699 -0.2657
33.5800 11.1766 -0.2630
33.6000 11.1833 -0.2692
33.6200 11.1899 -0.2688
33.6400 11.1965 -0.2642
33.6600 11.2032 -0.2650
33.6800 11.2099 -0.2690
33.7000 11.2166 -0.2640
33.7200 11.2233 -0.2799
33.7400 11.2300 -0.2609
33.7600 11.2367 -0.2617
33.7800 11.2433 -0.2800
33.8000 11.2500 -0.2687
33.8200 11.2566 -0.2672
33.8400 11.2632 -0.2737
33.8600 11.2698 -0.2620
33.8800 11.2765 -0.2710
33.9000 11.2832 -0.2789
33.9200 11.2899 -0.2647
33.9400 11.2966 -0.2749
33.9600 11.3033 -0.2759
33.9800 11.3100 -0.2636
34.0000 11.3166 -0.2789
34.0200 11.3232 -0.2736
34.0400 11.3298 -0.2587
34.0600 11.3365 -0.2846
34.0800 11.3432 -0.2709
34.1000 11.3499 -0.2624
34.1200 11.3566 -0.2851
34.1400 11.3633 -0.2721
34.1600 11.3700 -0.2652
34.1800 11.3765 -0.2885
34.2000 11.3831 -0.2707
34.2200 11.3898 -0.2647
34.2400 11.3965 -0.2831
34.2600 11.4032 -0.2721
34.2800 11.4099 -0.2721
34.3000 11.4166 -0.2833
34.3200 11.4232 -0.2689
34.3400 11.4299 -0.2773
34.3600 11.4365 -0.2794
34.3800 11.4432 -0.2695
34.4000 11.4498 -0.2775
34.4200 11.4565 -0.2792
34.4400 11.4632 -0.2720
34.4600 11.4699 -0.2737
34.4800 11.4766 -0.2837
34.5000 11.4833 -0.2752
34.5200 11.4900 -0.2796
34.5400 11.4966 -0.2782
34.5600 11.5032 -0.2786
34.5800 11.5098 -0.2745
34.6000 11.5166 -0.2770
34.6200 11.5233 -0.2791
34.6400 11.5300 -0.2751
34.6600 11.5366 -0.2753
34.6800 11.5433 -0.2833
34.7000 11.5499 -0.2753
34.7200 11.5565 -0.2806
34.7400 11.5631 -0.2863
34.7600 11.5698 -0.2734
34.7800 11.5765 -0.2766
34.8000 11.5832 -0.2887
34.8200 11.5899 -0.2743
34.8400 11.5966 -0.2802
34.8600 11.6032 -0.2868
34.8800 11.6099 -0.2706
34.9000 11.6165 -0.2834
34.9200 11.6231 -0.2846
34.9400 11.6298 -0.2731
34.9600 11.6365 -0.2821
34.9800 11.6432 -0.2867
35.0000 11.6499 -0.2744
35.0200 11.6566 -0.2835
35.0400 11.6633 -0.2857
35.0600 11.6700 -0.2808
35.0800 11.6766 -0.2833
35.1000 11.6832 -0.2821
35.1200 11.6898 -0.2747
35.1400 11.6965 -0.2916
35.1600 11.7032 -0.2790
35.1800 11.7099 -0.2826
35.2000 11.7166 -0.2863
35.2200 11.7233 -0.2788
35.2400 11.7300 -0.2847
35.2600 11.7366 -0.2863
35.2800 11.7432 -0.2831
35.3000 11.7498 -0.2823
35.3200 11.7565 -0.2834
35.3400 11.7633 -0.2831
35.3600 11.7700 -0.2845
35.3800 11.7766 -0.2816
35.4000 11.7833 -0.2839
35.4200 11.7900 -0.2854
35.4400 11.7966 -0.2812
35.4600 11.8032 -0.2825
35.4800 11.8099 -0.2859
35.5000 11.8165 -0.2815
35.5200 11.8232 -0.2839
35.5400 11.8299 -0.2857
35.5600 11.8366 -0.2842
35.5800 11.8433 -0.2792
35.6000 11.8500 -0.2925
35.6200 11.8566 -0.2814
35.6400 11.8631 -0.2804
35.6600 11.8698 -0.2887
35.6800 11.8765 -0.2839
35.7000 11.8832 -0.2865
35.7200 11.8899 -0.2848
35.7400 11.8966 -0.2858
35.7600 11.9032 -0.2893
35.7800 11.9099 -0.2864
35.8000 11.9166 -0.2866
35.8200 11.9232 -0.2854
35.8400 11.9298 -0.2851
35.8600 11.9365 -0.2876
35.8800 11.9432 -0.2860
35.9000 11.9499 -0.2894
35.9200 11.9566 -0.2852
35.9400 11.9633 -0.2872
35.9600 11.9700 -0.2871
35.9800 11.9766 -0.2907
36.0000 11.9832 -0.2840
36.0200 11.9898 -0.2909
36.0400 11.9965 -0.2878
36.0600 12.0032 -0.2878
36.0800 12.0099 -0.2857
36.1000 12.0166 -0.2920
36.1200 12.0233 -0.2897
36.1400 12.0300 -0.2913
36.1600 12.0366 -0.2909
36.1800 12.0432 -0.2946
36.2000 12.0498 -0.2866
36.2200 12.0565 -0.2924
36.2400 12.0632 -0.2940
36.2600 12.0700 -0.2888
36.2800 12.0766 -0.2947
36.3000 12.0833 -0.2917
36.3200 12.0899 -0.2869
36.3400 12.0965 -0.2967
36.3600 12.1031 -0.2955
36.3800 12.1098 -0.2877
36.4000 12.1165 -0.2970
36.4200 12.1232 -0.2911
36.4400 12.1299 -0.2922
36.4600 12.1366 -0.2912
36.4800 12.1432 -0.2950
36.5000 12.1499 -0.2938
36.5200 12.1566 -0.2985
36.5400 12.1632 -0.2938
36.5600 12.1698 -0.2984
36.5800 12.1765 -0.2949
36.6000 12.1832 -0.2956
36.6200 12.1899 -0.2990
36.6400 12.1966 -0.2941
36.6600 12.2033 -0.2968
36.6800 12.2100 -0.3022
36.7000 12.2166 -0.2939
36.7200 12.2232 -0.2960
36.7400 12.2298 -0.2984
36.7600 12.2366 -0.2956
36.7800 12.2433 -0.3037
36.8000 12.2500 -0.3041
36.8200 12.2566 -0.2928
36.8400 12.2633 -0.3010
36.8600 12.2699 -0.3045
36.8800 12.2766 -0.2953
36.9000 12.2832 -0.3051
36.9200 12.2898 -0.2987
36.9400 12.2965 -0.2954
36.9600 12.3032 -0.3059
36.9800 12.3099 -0.3017
37.0000 12.3166 -0.2972
37.0200 12.3233 -0.3064
37.0400 12.3299 -0.3003
37.0600 12.3366 -0.3024
37.0800 12.3432 -0.3006
37.1000 12.3498 -0.3000
37.1200 12.3565 -0.3011
37.1400 12.3632 -0.3025
37.1600 12.3699 -0.3012
37.1800 12.3766 -0.3047
37.2000 12.3833 -0.3041
37.2200 12.3900 -0.3009
37.2400 12.3966 -0.3079
37.2600 12.4032 -0.3022
37.2800 12.4098 -0.3013
37.3000 12.4165 -0.3021
37.3200 12.4232 -0.3030
37.3400 12.4299 -0.3041
37.3600 12.4366 -0.3099
37.3800 12.4433 -0.2997
37.4000 12.4500 -0.3069
37.4200 12.4566 -0.3118
37.4400 12.4633 -0.2966
37.4600 12.4699 -0.3042
37.4800 12.4765 -0.3146
37.5000 12.4832 -0.2971
37.5200 12.4899 -0.3090
37.5400 12.4966 -0.3107
37.5600 12.5033 -0.2983
37.5800 12.5100 -0.3098
37.6000 12.5166 -0.3109
37.6200 12.5232 -0.2952
37.6400 12.5298 -0.3077
37.6600 12.5365 -0.3070
37.6800 12.5432 -0.2973
37.7000 12.5499 -0.3116
37.7200 12.5566 -0.3063
37.7400 12.5633 -0.3037
37.7600 12.5699 -0.3125
37.7800 12.5766 -0.3076
37.8000 12.5831 -0.3022
37.8200 12.5898 -0.3090
37.8400 12.5964 -0.3062
37.8600 12.6032 -0.3092
37.8800 12.6099 -0.3117
37.9000 12.6165 -0.3097
37.9200 12.6232 -0.3077
37.9400 12.6299 -0.3100
37.9600 12.6365 -0.3124
37.9800 12.6432 -0.3120
38.0000 12.6498 -0.3054
38.0200 12.6565 -0.3111
38.0400 12.6632 -0.3121
38.0600 12.6700 -0.3094
38.0800 12.6766 -0.3095
38.1000 12.6833 -0.3132
38.1200 12.6900 -0.3098
38.1400 12.6966 -0.3147
38.1600 12.7032 -0.3129
38.1800 12.7098 -0.3099
38.2000 12.7165 -0.3175
38.2200 12.7232 -0.3127
38.2400 12.7299 -0.3125
38.2600 12.7366 -0.3170
38.2800 12.7433 -0.3161
38.3000 12.7500 -0.3156
38.3200 12.7566 -0.3185
38.3400 12.7632 -0.3149
38.3600 12.7698 -0.3185
38.3800 12.7765 -0.3123
38.4000 12.7832 -0.3196
38.4200 12.7899 -0.3185
38.4400 12.7966 -0.3174
38.4600 12.8033 -0.3168
38.4800 12.8100 -0.3209
38.5000 12.8166 -0.3168
38.5200 12.8232 -0.3206
38.5400 12.8298 -0.3245
38.5600 12.8365 -0.3173
38.5800 12.8432 -0.3152
38.6000 12.8499 -0.3230
38.6200 12.8565 -0.3221
38.6400 12.8632 -0.3171
38.6600 12.8699 -0.3252
38.6800 12.8766 -0.3212
38.7000 12.8832 -0.3206
38.7200 12.8898 -0.3265
38.7400 12.8965 -0.3205
38.7600 12.9032 -0.3119
38.7800 12.9099 -0.3339
38.8000 12.9166 -0.3222
38.8200 12.9233 -0.3137
38.8400 12.9300 -0.3297
38.8600 12.9366 -0.3258
38.8800 12.9432 -0.3162
38.9000 12.9498 -0.3322
38.9200 12.9565 -0.3221
38.9400 12.9632 -0.3195
38.9600 12.9700 -0.3333
38.9800 12.9766 -0.3275
39.0000 12.9833 -0.3185
39.0200 12.9900 -0.3371
39.0400 12.9966 -0.3207
39.0600 13.0032 -0.3197
39.0800 13.0099 -0.3376
39.1000 13.0165 -0.3259
39.1200 13.0232 -0.3217
39.1400 13.0299 -0.3345
39.1600 13.0365 -0.3301
39.1800 13.0432 -0.3227
39.2000 13.0499 -0.3299
39.2200 13.0566 -0.3279
39.2400 13.0632 -0.3308
39.2600 13.0698 -0.3280
39.2800 13.0764 -0.3234
39.3000 13.0832 -0.3289
39.3200 13.0899 -0.3296
39.3400 13.0966 -0.3277
39.3600 13.1033 -0.3290
39.3800 13.1099 -0.3256
39.4000 13.1166 -0.3384
39.4200 13.1232 -0.3215
39.4400 13.1299 -0.3249
39.4600 13.1365 -0.3364
39.4800 13.1432 -0.3281
39.5000 13.1499 -0.3251
39.5200 13.1566 -0.3408
39.5400 13.1632 -0.3235
39.5600 13.1699 -0.3276
39.5800 13.1766 -0.3427
39.6000 13.1833 -0.3222
39.6200 13.1899 -0.3316
39.6400 13.1965 -0.3338
39.6600 13.2032 -0.3204
39.6800 13.2099 -0.3352
39.7000 13.2166 -0.3313
39.7200 13.2233 -0.3237
39.7400 13.2300 -0.3350
39.7600 13.2366 -0.3302
39.7800 13.2433 -0.3272
39.8000 13.2499 -0.3359
39.8200 13.2565 -0.3319
39.8400 13.2632 -0.3205
39.8600 13.2699 -0.3429
39.8800 13.2766 -0.3293
39.9000 13.2833 -0.3254
39.9200 13.2900 -0.3398
39.9400 13.2966 -0.3280
39.9600 13.3032 -0.3275
39.9800 13.3098 -0.3380
40.0000 13.3165 -0.3269
40.0200 13.3232 -0.3367
40.0400 13.3299 -0.3349
40.0600 13.3365 -0.3291
40.0800 13.3432 -0.3328
40.1000 13.3499 -0.3416
40.1200 13.3566 -0.3299
40.1400 13.3632 -0.3327
40.1600 13.3698 -0.3387
40.1800 13.3765 -0.3288
40.2000 13.3832 -0.3402
40.2200 13.3899 -0.3319
40.2400 13.3966 -0.3322
40.2600 13.4033 -0.3379
40.2800 13.4100 -0.3317
40.3000 13.4167 -0.3370
40.3200 13.4233 -0.3428
40.3400 13.4298 -0.3304
40.3600 13.4365 -0.3327
40.3800 13.4432 -0.3395
40.4000 13.4499 -0.3361
40.4200 13.4566 -0.3402
40.4400 13.4633 -0.3406
40.4600 13.4700 -0.3334
40.4800 13.4766 -0.3398
40.5000 13.4833 -0.3374
40.5200 13.4898 -0.3423
40.5400 13.4965 -0.3368
40.5600 13.5032 -0.3331
40.5800 13.5099 -0.3476
40.6000 13.5166 -0.3357
40.6200 13.5232 -0.3372
40.6400 13.5299 -0.3437
40.6600 13.5366 -0.3417
40.6800 13.5432 -0.3362
40.7000 13.5498 -0.3418
40.7200 13.5564 -0.3386
40.7400 13.5631 -0.3420
40.7600 13.5698 -0.3402
40.7800 13.5765 -0.3403
40.8000 13.5832 -0.3382
40.8200 13.5899 -0.3438
40.8400 13.5966 -0.3388
40.8600 13.6032 -0.3401
40.8800 13.6098 -0.3421
40.9000 13.6165 -0.3397
40.9200 13.6232 -0.3387
40.9400 13.6299 -0.3394
40.9600 13.6366 -0.3446
40.9800 13.6433 -0.3426
41.0000 13.6500 -0.3389
41.0200 13.6566 -0.3482
41.0400 13.6633 -0.3451
41.0600 13.6699 -0.3370
41.0800 13.6765 -0.3443
41.1000 13.6832 -0.3456
41.1200 13.6899 -0.3409
41.1400 13.6966 -0.3443
41.1600 13.7033 -0.3462
41.1800 13.7099 -0.3365
41.2000 13.7166 -0.3504
41.2200 13.7232 -0.3459
41.2400 13.7299 -0.3399
41.2600 13.7365 -0.3456
41.2800 13.7432 -0.3467
41.3000 13.7499 -0.3414
41.3200 13.7566 -0.3485
41.3400 13.7633 -0.3474
41.3600 13.7700 -0.3431
41.3800 13.7766 -0.3483
41.4000 13.7832 -0.3501
41.4200 13.7898 -0.3437
41.4400 13.7965 -0.3533
41.4600 13.8031 -0.3480
41.4800 13.8099 -0.3476
41.5000 13.8166 -0.3507
41.5200 13.8232 -0.3498
41.5400 13.8299 -0.3472
41.5600 13.8366 -0.3480
41.5800 13.8433 -0.3524
41.6000 13.8499 -0.3474
41.6200 13.8565 -0.3527
41.6400 13.8632 -0.3513
41.6600 13.8699 -0.3508
41.6800 13.8766 -0.3535
41.7000 13.8833 -0.3550
41.7200 13.8900 -0.3447
41.7400 13.8967 -0.3526
41.7600 13.9033 -0.3576
41.7800 13.9099 -0.3484
41.8000 13.9165 -0.3460
41.8200 13.9232 -0.3597
41.8400 13.9299 -0.3469
41.8600 13.9366 -0.3521
41.8800 13.9433 -0.3558
41.9000 13.9500 -0.3483
41.9200 13.9566 -0.3560
41.9400 13.9633 -0.3601
41.9600 13.9699 -0.3456
41.9800 13.9765 -0.3514
42.0000 13.9832 -0.3587
42.0200 13.9899 -0.3505
42.0400 13.9966 -0.3562
42.0600 14.0033 -0.3592
42.0800 14.0100 -0.3511
42.1000 14.0167 -0.3542
42.1200 14.0233 -0.3616
42.1400 14.0299 -0.3502
42.1600 14.0365 -0.3615
42.1800 14.0431 -0.3552
42.2000 14.0498 -0.3516
42.2200 14.0565 -0.3589
42.2400 14.0632 -0.3555
42.2600 14.0699 -0.3530
42.2800 14.0766 -0.3611
42.3000 14.0833 -0.3561
42.3200 14.0899 -0.3588
42.3400 14.0965 -0.3614
42.3600 14.1032 -0.3497
42.3800 14.1099 -0.3582
42.4000 14.1166 -0.3638
42.4200 14.1233 -0.3554
42.4400 14.1300 -0.3578
42.4600 14.1367 -0.3656
42.4800 14.1433 -0.3592
42.5000 14.1499 -0.3581
42.5200 14.1565 -0.3560
42.5400 14.1632 -0.3610
42.5600 14.1699 -0.3608
42.5800 14.1766 -0.3618
42.6000 14.1833 -0.3662
42.6200 14.1899 -0.3613
42.6400 14.1966 -0.3586
42.6600 14.2033 -0.3693
42.6800 14.2099 -0.3562
42.7000 14.2165 -0.3596
42.7200 14.2231 -0.3702
42.7400 14.2299 -0.3602
42.7600 14.2366 -0.3579
42.7800 14.2432 -0.3748
42.8000 14.2499 -0.3577
42.8200 14.2566 -0.3603
42.8400 14.2632 -0.3734
42.8600 14.2699 -0.3627
42.8800 14.2765 -0.3609
42.9000 14.2832 -0.3701
42.9200 14.2899 -0.3680
42.9400 14.2966 -0.3643
42.9600 14.3033 -0.3698
42.9800 14.3099 -0.3601
43.0000 14.3166 -0.3671
43.0200 14.3233 -0.3749
43.0400 14.3299 -0.3608
43.0600 14.3365 -0.3639
43.0800 14.3432 -0.3775
43.1000 14.3499 -0.3594
43.1200 14.3566 -0.3686
43.1400 14.3633 -0.3733
43.1600 14.3699 -0.3619
43.1800 14.3766 -0.3712
43.2000 14.3833 -0.3801
43.2200 14.3899 -0.3539
43.2400 14.3965 -0.3712
43.2600 14.4032 -0.3823
43.2800 14.4099 -0.3632
43.3000 14.4166 -0.3648
43.3200 14.4233 -0.3794
43.3400 14.4300 -0.3719
43.3600 14.4367 -0.3684
43.3800 14.4433 -0.3747
43.4000 14.4499 -0.3725
43.4200 14.4565 -0.3688
43.4400 14.4631 -0.3764
43.4600 14.4699 -0.3686
43.4800 14.4766 -0.3690
43.5000 14.4832 -0.3851
43.5200 14.4899 -0.3701
43.5400 14.4966 -0.3653
43.5600 14.5033 -0.3788
43.5800 14.5099 -0.3791
43.6000 14.5164 -0.3628
43.6200 14.5231 -0.3757
43.6400 14.5298 -0.3748
43.6600 14.5365 -0.3714
43.6800 14.5432 -0.3784
43.7000 14.5499 -0.3712
43.7200 14.5566 -0.3690
43.7400 14.5633 -0.3826
43.7600 14.5699 -0.3731
43.7800 14.5765 -0.3713
43.8000 14.5832 -0.3794
43.8200 14.5899 -0.3723
43.8400 14.5966 -0.3719
43.8600 14.6033 -0.3787
43.8800 14.6099 -0.3774
43.9000 14.6167 -0.3741
43.9200 14.6233 -0.3784
43.9400 14.6299 -0.3785
43.9600 14.6365 -0.3714
43.9800 14.6432 -0.3792
44.0000 14.6499 -0.3805
44.0200 14.6566 -0.3671
44.0400 14.6633 -0.3789
44.0600 14.6700 -0.3842
44.0800 14.6766 -0.3743
44.1000 14.6833 -0.3826
44.1200 14.6899 -0.3829
44.1400 14.6965 -0.3715
44.1600 14.7031 -0.3841
44.1800 14.7098 -0.3766
44.2000 14.7166 -0.3808
44.2200 14.7232 -0.3876
44.2400 14.7299 -0.3730
44.2600 14.7366 -0.3732
44.2800 14.7433 -0.3915
44.3000 14.7499 -0.3735
44.3200 14.7565 -0.3789
44.3400 14.7631 -0.3911
44.3600 14.7698 -0.3708
44.3800 14.7765 -0.3822
44.4000 14.7832 -0.3891
44.4200 14.7898 -0.3714
44.4400 14.7965 -0.3869
44.4600 14.8032 -0.3919
44.4800 14.8099 -0.3705
44.5000 14.8165 -0.3879
44.5200 14.8232 -0.3872
44.5400 14.8299 -0.3763
44.5600 14.8366 -0.3848
44.5800 14.8433 -0.3848
44.6000 14.8500 -0.3749
44.6200 14.8566 -0.3888
44.6400 14.8633 -0.3848
44.6600 14.8700 -0.3786
44.6800 14.8766 -0.3868
44.7000 14.8832 -0.3845
44.7200 14.8899 -0.3839
44.7400 14.8966 -0.3874
44.7600 14.9033 -0.3789
44.7800 14.9100 -0.3896
44.8000 14.9167 -0.3866
44.8200 14.9233 -0.3795
44.8400 14.9299 -0.3893
44.8600 14.9365 -0.3848
44.8800 14.9431 -0.3795
44.9000 14.9498 -0.3883
44.9200 14.9565 -0.3864
44.9400 14.9632 -0.3791
44.9600 14.9699 -0.3986
44.9800 14.9766 -0.3811
45.0000 14.9833 -0.3839
45.0200 14.9899 -0.3968
45.0400 14.9965 -0.3816
45.0600 15.0032 -0.3782
45.0800 15.0099 -0.3940
45.1000 15.0166 -0.3821
45.1200 15.0232 -0.3876
45.1400 15.0299 -0.3929
45.1600 15.0366 -0.3822
45.1800 15.0433 -0.3870
45.2000 15.0499 -0.3986
45.2200 15.0565 -0.3817
45.2400 15.0632 -0.3850
45.2600 15.0699 -0.3975
45.2800 15.0766 -0.3825
45.3000 15.0833 -0.3879
45.3200 15.0900 -0.3931
45.3400 15.0967 -0.3856
45.3600 15.1034 -0.3889
45.3800 15.1100 -0.3910
45.4000 15.1166 -0.3827
45.4200 15.1232 -0.3912
45.4400 15.1299 -0.3882
45.4600 15.1366 -0.3853
45.4800 15.1433 -0.3944
45.5000 15.1500 -0.3968
45.5200 15.1566 -0.3854
45.5400 15.1633 -0.3939
45.5600 15.1699 -0.3958
45.5800 15.1765 -0.3859
45.6000 15.1831 -0.3852
45.6200 15.1899 -0.3987
45.6400 15.1966 -0.3894
45.6600 15.2033 -0.3910
45.6800 15.2099 -0.3940
45.7000 15.2166 -0.3872
45.7200 15.2233 -0.3972
45.7400 15.2299 -0.3971
45.7600 15.2365 -0.3920
45.7800 15.2431 -0.3993
45.8000 15.2498 -0.3957
45.8200 15.2565 -0.3858
45.8400 15.2632 -0.4003
45.8600 15.2699 -0.3950
45.8800 15.2766 -0.3937
45.9000 15.2833 -0.3971
45.9200 15.2899 -0.4001
45.9400 15.2965 -0.3925
45.9600 15.3031 -0.3995
45.9800 15.3098 -0.3951
46.0000 15.3166 -0.3986
46.0200 15.3233 -0.4022
46.0400 15.3299 -0.3931
46.0600 15.3366 -0.4006
46.0800 15.3433 -0.4050
46.1000 15.3500 -0.3937
46.1200 15.3566 -0.4049
46.1400 15.3632 -0.4002
46.1600 15.3699 -0.3926
46.1800 15.3766 -0.4055
46.2000 15.3833 -0.4007
46.2200 15.3900 -0.3941
46.2400 15.3966 -0.4044
46.2600 15.4033 -0.4033
46.2800 15.4099 -0.3939
46.3000 15.4165 -0.4139
46.3200 15.4231 -0.4027
46.3400 15.4298 -0.3935
46.3600 15.4365 -0.4050
46.3800 15.4432 -0.4074
46.4000 15.4499 -0.4027
46.4200 15.4566 -0.4039
46.4400 15.4633 -0.4041
46.4600 15.4699 -0.4072
46.4800 15.4765 -0.4075
46.5000 15.4831 -0.4050
46.5200 15.4898 -0.4017
46.5400 15.4965 -0.4128
46.5600 15.5032 -0.4025
46.5800 15.5099 -0.4022
46.6000 15.5166 -0.4085
46.6200 15.5232 -0.4053
46.6400 15.5299 -0.4111
46.6600 15.5365 -0.4040
46.6800 15.5432 -0.4063
46.7000 15.5498 -0.4098
46.7200 15.5565 -0.4060
46.7400 15.5632 -0.4060
46.7600 15.5699 -0.4121
46.7800 15.5766 -0.4071
46.8000 15.5833 -0.4083
46.8200 15.5900 -0.4125
46.8400 15.5966 -0.4051
46.8600 15.6032 -0.4059
46.8800 15.6098 -0.4176
46.9000 15.6166 -0.4063
46.9200 15.6233 -0.4068
46.9400 15.6300 -0.4145
46.9600 15.6367 -0.4105
46.9800 15.6433 -0.4108
47.0000 15.6499 -0.4147
47.0200 15.6565 -0.4112
47.0400 15.6631 -0.4128
47.0600 15.6698 -0.4139
47.0800 15.6766 -0.4076
47.1000 15.6833 -0.4104
47.1200 15.6899 -0.4160
47.1400 15.6966 -0.4099
47.1600 15.7033 -0.4116
47.1800 15.7099 -0.4128
47.2000 15.7165 -0.4112
47.2200 15.7232 -0.4076
47.2400 15.7298 -0.4137
47.2600 15.7366 -0.4156
47.2800 15.7432 -0.4096
47.3000 15.7499 -0.4156
47.3200 15.7566 -0.4139
47.3400 15.7633 -0.4123
47.3600 15.7699 -0.4148
47.3800 15.7766 -0.4176
47.4000 15.7832 -0.4071
47.4200 15.7898 -0.4159
47.4400 15.7965 -0.4174
47.4600 15.8032 -0.4091
47.4800 15.8099 -0.4175
47.5000 15.8166 -0.4174
47.5200 15.8233 -0.4111
47.5400 15.8299 -0.4244
47.5600 15.8365 -0.4116
47.5800 15.8431 -0.4074
47.6000 15.8498 -0.4264
47.6200 15.8565 -0.4140
47.6400 15.8633 -0.4064
47.6600 15.8699 -0.4260
47.6800 15.8766 -0.4178
47.7000 15.8833 -0.4073
47.7200 15.8900 -0.4211
47.7400 15.8966 -0.4172
47.7600 15.9032 -0.4144
47.7800 15.9099 -0.4161
47.8000 15.9166 -0.4171
47.8200 15.9233 -0.4160
47.8400 15.9299 -0.4162
47.8600 15.9366 -0.4190
47.8800 15.9433 -0.4215
47.9000 15.9499 -0.4126
47.9200 15.9565 -0.4209
47.9400 15.9631 -0.4194
47.9600 15.9698 -0.4107
47.9800 15.9765 -0.4183
48.0000 15.9832 -0.4261
48.0200 15.9899 -0.4112
48.0400 15.9966 -0.4189
48.0600 16.0033 -0.4199
48.0800 16.0099 -0.4157
48.1000 16.0166 -0.4219
48.1200 16.0232 -0.4157
48.1400 16.0299 -0.4172
48.1600 16.0366 -0.4246
48.1800 16.0433 -0.4137
48.2000 16.0500 -0.4129
48.2200 16.0566 -0.4269
48.2400 16.0633 -0.4170
48.2600 16.0700 -0.4233
48.2800 16.0766 -0.4219
48.3000 16.0832 -0.4152
48.3200 16.0898 -0.4213
48.3400 16.0965 -0.4246
48.3600 16.1032 -0.4186
48.3800 16.1099 -0.4256
48.4000 16.1166 -0.4180
48.4200 16.1233 -0.4177
48.4400 16.1300 -0.4257
48.4600 16.1366 -0.4250
48.4800 16.1432 -0.4179
48.5000 16.1498 -0.4244
48.5200 16.1565 -0.4246
48.5400 16.1632 -0.4177
48.5600 16.1699 -0.4271
48.5800 16.1766 -0.4233
48.6000 16.1833 -0.4199
48.6200 16.1900 -0.4300
48.6400 16.1965 -0.4224
48.6600 16.2031 -0.4130
48.6800 16.2098 -0.4327
48.7000 16.2165 -0.4272
48.7200 16.2232 -0.4191
48.7400 16.2299 -0.4292
48.7600 16.2366 -0.4289
48.7800 16.2432 -0.4219
48.8000 16.2499 -0.4310
48.8200 16.2565 -0.4250
48.8400 16.2632 -0.4284
48.8600 16.2698 -0.4300
48.8800 16.2765 -0.4248
48.9000 16.2832 -0.4264
48.9200 16.2899 -0.4311
48.9400 16.2966 -0.4257
48.9600 16.3033 -0.4234
48.9800 16.3100 -0.4298
49.0000 16.3166 -0.4293
49.0200 16.3232 -0.4287
49.0400 16.3298 -0.4301
49.0600 16.3365 -0.4262
49.0800 16.3433 -0.4314
49.1000 16.3500 -0.4361
49.1200 16.3566 -0.4326
49.1400 16.3633 -0.4327
49.1600 16.3699 -0.4306
49.1800 16.3765 -0.4358
49.2000 16.3832 -0.4289
49.2200 16.3898 -0.4325
49.2400 16.3965 -0.4377
49.2600 16.4032 -0.4335
49.2800 16.4099 -0.4304
49.3000 16.4166 -0.4374
49.3200 16.4232 -0.4328
49.3400 16.4299 -0.4372
49.3600 16.4365 -0.4426
49.3800 16.4431 -0.4306
49.4000 16.4498 -0.4300
49.4200 16.4565 -0.4448
49.4400 16.4632 -0.4308
49.4600 16.4699 -0.4336
49.4800 16.4766 -0.4415
49.5000 16.4833 -0.4368
49.5200 16.4900 -0.4369
49.5400 16.4966 -0.4409
49.5600 16.5032 -0.4389
49.5800 16.5098 -0.4344
49.6000 16.5165 -0.4438
49.6200 16.5233 -0.4395
49.6400 16.5299 -0.4374
49.6600 16.5366 -0.4410
49.6800 16.5433 -0.4404
49.7000 16.5500 -0.4405
49.7200 16.5566 -0.4410
49.7400 16.5632 -0.4408
49.7600 16.5698 -0.4403
49.7800 16.5765 -0.4403
49.8000 16.5832 -0.4445
49.8200 16.5899 -0.4390
49.8400 16.5966 -0.4438
49.8600 16.6033 -0.4433
49.8800 16.6100 -0.4432
49.9000 16.6166 -0.4394
49.9200 16.6232 -0.4449
49.9400 16.6299 -0.4410
49.9600 16.6365 -0.4420
49.9800 16.6432 -0.4481
50.0000 16.6499 -0.4407
50.0200 16.6566 -0.4437
50.0400 16.6633 -0.4450
50.0600 16.6700 -0.4397
50.0800 16.6766 -0.4511
50.1000 16.6832 -0.4487
50.1200 16.6898 -0.4362
50.1400 16.6965 -0.4529
50.1600 16.7032 -0.4479
50.1800 16.7099 -0.4410
50.2000 16.7166 -0.4516
50.2200 16.7233 -0.4439
50.2400 16.7299 -0.4451
50.2600 16.7366 -0.4545
50.2800 16.7432 -0.4419
50.3000 16.7498 -0.4509
50.3200 16.7565 -0.4546
50.3400 16.7632 -0.4419
50.3600 16.7699 -0.4500
50.3800 16.7766 -0.4558
50.4000 16.7833 -0.4372
50.4200 16.7900 -0.4567
50.4400 16.7966 -0.4585
50.4600 16.8032 -0.4360
50.4800 16.8098 -0.4588
50.5000 16.8165 -0.4575
50.5200 16.8232 -0.4386
50.5400 16.8299 -0.4546
50.5600 16.8366 -0.4573
50.5800 16.8433 -0.4425
50.6000 16.8500 -0.4610
50.6200 16.8566 -0.4500
50.6400 16.8632 -0.4468
50.6600 16.8698 -0.4637
50.6800 16.8765 -0.4478
50.7000 16.8832 -0.4507
50.7200 16.8899 -0.4662
50.7400 16.8966 -0.4446
50.7600 16.9033 -0.4508
50.7800 16.9100 -0.4633
50.8000 16.9166 -0.4497
50.8200 16.9232 -0.4561
50.8400 16.9298 -0.4640
50.8600 16.9365 -0.4491
50.8800 16.9432 -0.4589
50.9000 16.9499 -0.4631
50.9200 16.9565 -0.4545
50.9400 16.9632 -0.4596
50.9600 16.9699 -0.4576
50.9800 16.9766 -0.4590
51.0000 16.9832 -0.4625
51.0200 16.9898 -0.4531
51.0400 16.9965 -0.4537
51.0600 17.0032 -0.4695
51.0800 17.0099 -0.4606
51.1000 17.0166 -0.4590
51.1200 17.0233 -0.4649
51.1400 17.0300 -0.4648
51.1600 17.0366 -0.4615
51.1800 17.0432 -0.4668
51.2000 17.0498 -0.4658
51.2200 17.0565 -0.4614
51.2400 17.0632 -0.4605
51.2600 17.0699 -0.4683
51.2800 17.0766 -0.4651
51.3000 17.0833 -0.4651
51.3200 17.0899 -0.4679
51.3400 17.0966 -0.4656
51.3600 17.1032 -0.4641
51.3800 17.1098 -0.4625
51.4000 17.1165 -0.4681
51.4200 17.1232 -0.4728
51.4400 17.1299 -0.4585
51.4600 17.1366 -0.4631
51.4800 17.1433 -0.4769
51.5000 17.1500 -0.4662
51.5200 17.1566 -0.4639
51.5400 17.1632 -0.4719
51.5600 17.1698 -0.4753
51.5800 17.1765 -0.4600
51.6000 17.1832 -0.4720
51.6200 17.1899 -0.4802
51.6400 17.1966 -0.4676
51.6600 17.2033 -0.4677
51.6800 17.2100 -0.4769
51.7000 17.2166 -0.4691
51.7200 17.2232 -0.4778
51.7400 17.2298 -0.4713
51.7600 17.2365 -0.4656
51.7800 17.2432 -0.4751
51.8000 17.2499 -0.4825
51.8200 17.2566 -0.4634
51.8400 17.2633 -0.4728
51.8600 17.2700 -0.4819
51.8800 17.2766 -0.4692
51.9000 17.2832 -0.4750
51.9200 17.2899 -0.4760
51.9400 17.2965 -0.4699
51.9600 17.3032 -0.4784
51.9800 17.3099 -0.4759
52.0000 17.3166 -0.4716
52.0200 17.3233 -0.4822
52.0400 17.3300 -0.4757
52.0600 17.3366 -0.4756
52.0800 17.3432 -0.4790
52.1000 17.3498 -0.4788
52.1200 17.3565 -0.4727
52.1400 17.3632 -0.4818
52.1600 17.3699 -0.4724
52.1800 17.3766 -0.4781
52.2000 17.3833 -0.4781
52.2200 17.3899 -0.4753
52.2400 17.3966 -0.4789
52.2600 17.4032 -0.4783
52.2800 17.4098 -0.4766
52.3000 17.4164 -0.4754
52.3200 17.4231 -0.4758
52.3400 17.4298 -0.4843
52.3600 17.4365 -0.4745
52.3800 17.4432 -0.4748
52.4000 17.4499 -0.4870
52.4200 17.4566 -0.4742
52.4400 17.4632 -0.4772
52.4600 17.4698 -0.4866
52.4800 17.4765 -0.4764
52.5000 17.4832 -0.4739
52.5200 17.4899 -0.4876
52.5400 17.4966 -0.4732
52.5600 17.5033 -0.4778
52.5800 17.5100 -0.4870
52.6000 17.5166 -0.4766
52.6200 17.5232 -0.4765
52.6400 17.5298 -0.4893
52.6600 17.5365 -0.4771
52.6800 17.5432 -0.4829
52.7000 17.5499 -0.4880
52.7200 17.5566 -0.4763
52.7400 17.5633 -0.4813
52.7600 17.5700 -0.4889
52.7800 17.5766 -0.4770
52.8000 17.5832 -0.4895
52.8200 17.5898 -0.4837
52.8400 17.5965 -0.4752
52.8600 17.6032 -0.4883
52.8800 17.6099 -0.4852
52.9000 17.6166 -0.4831
52.9200 17.6233 -0.4848
52.9400 17.6299 -0.4877
52.9600 17.6366 -0.4781
52.9800 17.6432 -0.4893
53.0000 17.6498 -0.4821
53.0200 17.6565 -0.4784
53.0400 17.6632 -0.4942
53.0600 17.6699 -0.4876
53.0800 17.6766 -0.4782
53.1000 17.6832 -0.4923
53.1200 17.6899 -0.4875
53.1400 17.6966 -0.4846
53.1600 17.7032 -0.4939
53.1800 17.7098 -0.4820
53.2000 17.7165 -0.4827
53.2200 17.7232 -0.5005
53.2400 17.7299 -0.4790
53.2600 17.7366 -0.4883
53.2800 17.7433 -0.5054
53.3000 17.7500 -0.4819
53.3200 17.7566 -0.4846
53.3400 17.7632 -0.5019
53.3600 17.7698 -0.4907
53.3800 17.7765 -0.4816
53.4000 17.7832 -0.4992
53.4200 17.7900 -0.4965
53.4400 17.7966 -0.4931
53.4600 17.8033 -0.4942
53.4800 17.8100 -0.4981
53.5000 17.8166 -0.4979
53.5200 17.8232 -0.4949
53.5400 17.8298 -0.4967
53.5600 17.8365 -0.5003
53.5800 17.8432 -0.4977
53.6000 17.8499 -0.5003
53.6200 17.8566 -0.4964
53.6400 17.8632 -0.4975
53.6600 17.8699 -0.5055
53.6800 17.8766 -0.5007
53.7000 17.8832 -0.4941
53.7200 17.8898 -0.4981
53.7400 17.8965 -0.5046
53.7600 17.9031 -0.5005
53.7800 17.9099 -0.4991
53.8000 17.9166 -0.5037
53.8200 17.9233 -0.5027
53.8400 17.9299 -0.4966
53.8600 17.9366 -0.5067
53.8800 17.9432 -0.5031
53.9000 17.9498 -0.5018
53.9200 17.9565 -0.5010
53.9400 17.9632 -0.5008
53.9600 17.9699 -0.5069
53.9800 17.9766 -0.5114
54.0000 17.9833 -0.4983
54.0200 17.9900 -0.5019
54.0400 17.9966 -0.5134
54.0600 18.0033 -0.5020
54.0800 18.0099 -0.5007
54.1000 18.0165 -0.5169
54.1200 18.0232 -0.4995
54.1400 18.0299 -0.5050
54.1600 18.0366 -0.5161
54.1800 18.0433 -0.5002
54.2000 18.0500 -0.5072
54.2200 18.0567 -0.5157
54.2400 18.0633 -0.5055
54.2600 18.0699 -0.5041
54.2800 18.0765 -0.5096
54.3000 18.0832 -0.5082
54.3200 18.0899 -0.5077
54.3400 18.0966 -0.5076
54.3600 18.1033 -0.5135
54.3800 18.1100 -0.5040
54.4000 18.1166 -0.5114
54.4200 18.1232 -0.5102
54.4400 18.1298 -0.5070
54.4600 18.1364 -0.5126
54.4800 18.1431 -0.5104
54.5000 18.1499 -0.5022
54.5200 18.1565 -0.5159
54.5400 18.1632 -0.5115
54.5600 18.1699 -0.5087
54.5800 18.1766 -0.5114
54.6000 18.1832 -0.5149
54.6200 18.1898 -0.5112
54.6400 18.1965 -0.5101
54.6600 18.2032 -0.5173
54.6800 18.2099 -0.5058
54.7000 18.2166 -0.5118
54.7200 18.2233 -0.5209
54.7400 18.2300 -0.5049
54.7600 18.2367 -0.5129
54.7800 18.2433 -0.5206
54.8000 18.2499 -0.5043
54.8200 18.2565 -0.5106
54.8400 18.2632 -0.5184
54.8600 18.2699 -0.5135
54.8800 18.2766 -0.5110
54.9000 18.2833 -0.5201
54.9200 18.2900 -0.5078
54.9400 18.2966 -0.5161
54.9600 18.3033 -0.5190
54.9800 18.3099 -0.5118
55.0000 18.3165 -0.5131
55.0200 18.3232 -0.5224
55.0400 18.3299 -0.5132
55.0600 18.3366 -0.5115
55.0800 18.3432 -0.5223
55.1000 18.3499 -0.5176
55.1200 18.3566 -0.5126
55.1400 18.3632 -0.5206
55.1600 18.3698 -0.5103
55.1800 18.3764 -0.5174
55.2000 18.3831 -0.5216
55.2200 18.3898 -0.5103
55.2400 18.3965 -0.5208
55.2600 18.4032 -0.5196
55.2800 18.4099 -0.5153
55.3000 18.4166 -0.5229
55.3200 18.4232 -0.5280
55.3400 18.4298 -0.5133
55.3600 18.4365 -0.5261
55.3800 18.4432 -0.5183
55.4000 18.4499 -0.5152
55.4200 18.4566 -0.5314
55.4400 18.4633 -0.5237
55.4600 18.4700 -0.5150
55.4800 18.4767 -0.5320
55.5000 18.4833 -0.5195
55.5200 18.4899 -0.5249
55.5400 18.4966 -0.5310
55.5600 18.5032 -0.5199
55.5800 18.5099 -0.5232
55.6000 18.5166 -0.5344
55.6200 18.5232 -0.5220
55.6400 18.5299 -0.5250
55.6600 18.5366 -0.5325
55.6800 18.5433 -0.5209
55.7000 18.5499 -0.5303
55.7200 18.5565 -0.5338
55.7400 18.5632 -0.5258
55.7600 18.5699 -0.5260
55.7800 18.5766 -0.5314
55.8000 18.5833 -0.5248
55.8200 18.5899 -0.5305
55.8400 18.5966 -0.5332
55.8600 18.6033 -0.5293
55.8800 18.6099 -0.5247
55.9000 18.6165 -0.5333
55.9200 18.6231 -0.5322
55.9400 18.6299 -0.5232
55.9600 18.6366 -0.5355
55.9800 18.6432 -0.5368
56.0000 18.6499 -0.5260
56.0200 18.6566 -0.5387
56.0400 18.6633 -0.5360
56.0600 18.6699 -0.5310
56.0800 18.6765 -0.5410
56.1000 18.6832 -0.5330
56.1200 18.6899 -0.5301
56.1400 18.6966 -0.5444
56.1600 18.7033 -0.5308
56.1800 18.7100 -0.5282
56.2000 18.7167 -0.5484
56.2200 18.7233 -0.5337
56.2400 18.7299 -0.5274
56.2600 18.7365 -0.5456
56.2800 18.7432 -0.5380
56.3000 18.7499 -0.5297
56.3200 18.7566 -0.5467
56.3400 18.7633 -0.5331
56.3600 18.7700 -0.5340
56.3800 18.7766 -0.5474
56.4000 18.7833 -0.5353
56.4200 18.7899 -0.5322
56.4400 18.7965 -0.5499
56.4600 18.8032 -0.5322
56.4800 18.8099 -0.5358
56.5000 18.8166 -0.5457
56.5200 18.8232 -0.5331
56.5400 18.8299 -0.5389
56.5600 18.8366 -0.5470
56.5800 18.8433 -0.5377
56.6000 18.8498 -0.5390
56.6200 18.8564 -0.5471
56.6400 18.8631 -0.5355
56.6600 18.8698 -0.5387
56.6800 18.8765 -0.5502
56.7000 18.8832 -0.5434
56.7200 18.8899 -0.5424
56.7400 18.8966 -0.5460
56.7600 18.9033 -0.5420
56.7800 18.9099 -0.5440
56.8000 18.9165 -0.5450
56.8200 18.9231 -0.5454
56.8400 18.9299 -0.5433
56.8600 18.9366 -0.5527
56.8800 18.9433 -0.5458
56.9000 18.9500 -0.5438
56.9200 18.9567 -0.5489
56.9400 18.9633 -0.5472
56.9600 18.9699 -0.5452
56.9800 18.9765 -0.5477
57.0000 18.9832 -0.5473
57.0200 18.9899 -0.5451
57.0400 18.9966 -0.5546
57.0600 19.0033 -0.5514
57.0800 19.0099 -0.5441
57.1000 19.0166 -0.5569
57.1200 19.0233 -0.5502
57.1400 19.0299 -0.5470
57.1600 19.0365 -0.5563
57.1800 19.0431 -0.5500
57.2000 19.0498 -0.5515
57.2200 19.0565 -0.5533
57.2400 19.0632 -0.5492
57.2600 19.0699 -0.5537
57.2800 19.0766 -0.5590
57.3000 19.0833 -0.5515
57.3200 19.0899 -0.5573
57.3400 19.0965 -0.5516
57.3600 19.1031 -0.5520
57.3800 19.1098 -0.5588
57.4000 19.1166 -0.5562
57.4200 19.1232 -0.5580
57.4400 19.1299 -0.5538
57.4600 19.1366 -0.5544
57.4800 19.1432 -0.5676
57.5000 19.1499 -0.5573
57.5200 19.1565 -0.5567
57.5400 19.1632 -0.5682
57.5600 19.1699 -0.5561
57.5800 19.1766 -0.5564
57.6000 19.1833 -0.5659
57.6200 19.1899 -0.5584
57.6400 19.1966 -0.5594
57.6600 19.2033 -0.5690
57.6800 19.2099 -0.5544
57.7000 19.2165 -0.5648
57.7200 19.2232 -0.5651
57.7400 19.2299 -0.5606
57.7600 19.2366 -0.5618
57.7800 19.2433 -0.5658
57.8000 19.2500 -0.5584
57.8200 19.2567 -0.5671
57.8400 19.2633 -0.5662
57.8600 19.2699 -0.5593
57.8800 19.2765 -0.5663
57.9000 19.2831 -0.5692
57.9200 19.2898 -0.5598
57.9400 19.2965 -0.5665
57.9600 19.3032 -0.5735
57.9800 19.3099 -0.5584
58.0000 19.3166 -0.5673
58.0200 19.3233 -0.5711
58.0400 19.3299 -0.5689
58.0600 19.3365 -0.5684
58.0800 19.3431 -0.5709
58.1000 19.3498 -0.5697
58.1200 19.3565 -0.5719
58.1400 19.3632 -0.5730
58.1600 19.3699 -0.5699
58.1800 19.3766 -0.5664
58.2000 19.3833 -0.5748
58.2200 19.3899 -0.5704
58.2400 19.3965 -0.5749
58.2600 19.4032 -0.5731
58.2800 19.4099 -0.5699
58.3000 19.4166 -0.5704
58.3200 19.4232 -0.5767
58.3400 19.4299 -0.5726
58.3600 19.4366 -0.5738
58.3800 19.4433 -0.5779
58.4000 19.4499 -0.5699
58.4200 19.4565 -0.5735
58.4400 19.4631 -0.5776
58.4600 19.4698 -0.5760
58.4800 19.4766 -0.5734
58.5000 19.4833 -0.5781
58.5200 19.4900 -0.5760
58.5400 19.4966 -0.5722
58.5600 19.5033 -0.5793
58.5800 19.5099 -0.5851
58.6000 19.5165 -0.5643
58.6200 19.5232 -0.5773
58.6400 19.5299 -0.5863
58.6600 19.5366 -0.5729
58.6800 19.5432 -0.5761
58.7000 19.5499 -0.5856
58.7200 19.5566 -0.5732
58.7400 19.5633 -0.5829
58.7600 19.5699 -0.5820
58.7800 19.5765 -0.5757
58.8000 19.5831 -0.5818
58.8200 19.5898 -0.5853
58.8400 19.5965 -0.5771
58.8600 19.6032 -0.5860
58.8800 19.6099 -0.5872
58.9000 19.6166 -0.5759
58.9200 19.6232 -0.5907
58.9400 19.6299 -0.5836
58.9600 19.6365 -0.5791
58.9800 19.6431 -0.5933
59.0000 19.6498 -0.5874
59.0200 19.6566 -0.5757
59.0400 19.6633 -0.5949
59.0600 19.6700 -0.5855
59.0800 19.6766 -0.5859
59.1000 19.6833 -0.5962
59.1200 19.6900 -0.5890
59.1400 19.6966 -0.5847
59.1600 19.7032 -0.5929
59.1800 19.7099 -0.5874
59.2000 19.7166 -0.5942
59.2200 19.7233 -0.5967
59.2400 19.7300 -0.5866
59.2600 19.7366 -0.5869
59.2800 19.7433 -0.5996
59.3000 19.7499 -0.6027
59.3010 19.7502 -0.6037
