Raw Data
Time Displacement Force
(s) (mm) (N)
0.0000 0.0000 0.0124
0.0200 0.0000 0.0210
0.0400 0.0008 0.0620
0.0600 0.0040 0.1042
0.0800 0.0094 0.0934
0.1000 0.0152 0.1169
0.1200 0.0211 0.1837
0.1400 0.0277 0.1945
0.1600 0.0350 0.2343
0.1800 0.0425 0.2584
0.2000 0.0496 0.2491
0.2200 0.0565 0.2570
0.2400 0.0632 0.2687
0.2600 0.0699 0.2461
0.2800 0.0765 0.2652
0.3000 0.0832 0.2694
0.3200 0.0900 0.2432
0.3400 0.0967 0.2729
0.3600 0.1034 0.2647
0.3800 0.1100 0.2472
0.4000 0.1166 0.2731
0.4200 0.1233 0.2614
0.4400 0.1300 0.2542
0.4600 0.1367 0.2770
0.4800 0.1434 0.2578
0.5000 0.1501 0.2616
0.5200 0.1568 0.2771
0.5400 0.1634 0.2582
0.5600 0.1700 0.2669
0.5800 0.1766 0.2828
0.6000 0.1833 0.2628
0.6200 0.1900 0.2724
0.6400 0.1967 0.2742
0.6600 0.2034 0.2662
0.6800 0.2101 0.2795
0.7000 0.2168 0.2766
0.7200 0.2234 0.2664
0.7400 0.2300 0.2835
0.7600 0.2366 0.2828
0.7800 0.2433 0.2757
0.8000 0.2500 0.2822
0.8200 0.2567 0.2844
0.8400 0.2634 0.2831
0.8600 0.2700 0.2800
0.8800 0.2767 0.2875
0.9000 0.2833 0.2867
0.9200 0.2899 0.2854
0.9400 0.2965 0.2885
0.9600 0.3032 0.2891
0.9800 0.3100 0.2832
1.0000 0.3167 0.2943
1.0200 0.3234 0.2898
1.0400 0.3300 0.2859
1.0600 0.3367 0.2963
1.0800 0.3433 0.2915
1.1000 0.3499 0.2815
1.1200 0.3566 0.3048
1.1400 0.3633 0.2914
1.1600 0.3700 0.2832
1.1800 0.3767 0.2967
1.2000 0.3834 0.2887
1.2200 0.3901 0.2827
1.2400 0.3968 0.3002
1.2600 0.4034 0.2861
1.2800 0.4100 0.2831
1.3000 0.4167 0.2986
1.3200 0.4234 0.2793
1.3400 0.4301 0.2837
1.3600 0.4367 0.2948
1.3800 0.4434 0.2806
1.4000 0.4501 0.2830
1.4200 0.4568 0.2883
1.4400 0.4634 0.2756
1.4600 0.4700 0.2841
1.4800 0.4766 0.2836
1.5000 0.4832 0.2769
1.5200 0.4900 0.2749
1.5400 0.4967 0.2793
1.5600 0.5034 0.2728
1.5800 0.5100 0.2805
1.6000 0.5167 0.2665
1.6200 0.5233 0.2704
1.6400 0.5299 0.2759
1.6600 0.5366 0.2625
1.6800 0.5433 0.2689
1.7000 0.5500 0.2683
1.7200 0.5567 0.2542
1.7400 0.5634 0.2735
1.7600 0.5700 0.2680
1.7800 0.5767 0.2520
1.8000 0.5834 0.2672
1.8200 0.5900 0.2585
1.8400 0.5967 0.2518
1.8600 0.6033 0.2640
1.8800 0.6100 0.2543
1.9000 0.6167 0.2478
1.9200 0.6234 0.2667
1.9400 0.6301 0.2477
1.9600 0.6368 0.2552
1.9800 0.6434 0.2586
2.0000 0.6500 0.2432
2.0200 0.6566 0.2556
2.0400 0.6633 0.2574
2.0600 0.6700 0.2395
2.0800 0.6767 0.2592
2.1000 0.6834 0.2563
2.1200 0.6901 0.2341
2.1400 0.6967 0.2526
2.1600 0.7034 0.2522
2.1800 0.7100 0.2351
2.2000 0.7166 0.2522
2.2200 0.7233 0.2451
2.2400 0.7300 0.2355
2.2600 0.7367 0.2473
2.2800 0.7434 0.2385
2.3000 0.7500 0.2403
2.3200 0.7567 0.2450
2.3400 0.7634 0.2383
2.3600 0.7700 0.2319
2.3800 0.7766 0.2469
2.4000 0.7833 0.2377
2.4200 0.7900 0.2329
2.4400 0.7967 0.2408
2.4600 0.8033 0.2334
2.4800 0.8100 0.2361
2.5000 0.8167 0.2375
2.5200 0.8234 0.2273
2.5400 0.8300 0.2365
2.5600 0.8366 0.2360
2.5800 0.8433 0.2272
2.6000 0.8500 0.2347
2.6200 0.8567 0.2326
2.6400 0.8635 0.2259
2.6600 0.8701 0.2327
2.6800 0.8768 0.2334
2.7000 0.8834 0.2229
2.7200 0.8900 0.2329
2.7400 0.8966 0.2269
2.7600 0.9033 0.2223
2.7800 0.9100 0.2314
2.8000 0.9167 0.2205
2.8200 0.9234 0.2202
2.8400 0.9301 0.2319
2.8600 0.9368 0.2181
2.8800 0.9434 0.2198
2.9000 0.9500 0.2275
2.9200 0.9566 0.2199
2.9400 0.9633 0.2146
2.9600 0.9700 0.2302
2.9800 0.9767 0.2157
3.0000 0.9834 0.2168
3.0200 0.9901 0.2256
3.0400 0.9968 0.2115
3.0600 1.0034 0.2159
3.0800 1.0100 0.2203
3.1000 1.0166 0.2116
3.1200 1.0232 0.2225
3.1400 1.0299 0.2190
3.1600 1.0367 0.2075
3.1800 1.0434 0.2149
3.2000 1.0500 0.2163
3.2200 1.0567 0.2068
3.2400 1.0634 0.2138
3.2600 1.0700 0.2163
3.2800 1.0766 0.2043
3.3000 1.0833 0.2167
3.3200 1.0900 0.2145
3.3400 1.0967 0.2017
3.3600 1.1034 0.2109
3.3800 1.1101 0.2173
3.4000 1.1168 0.1985
3.4200 1.1234 0.2094
3.4400 1.1301 0.2108
3.4600 1.1367 0.2006
3.4800 1.1433 0.2110
3.5000 1.1500 0.2078
3.5200 1.1567 0.1952
3.5400 1.1634 0.2102
3.5600 1.1701 0.2077
3.5800 1.1768 0.1934
3.6000 1.1834 0.2087
3.6200 1.1900 0.2070
3.6400 1.1966 0.1930
3.6600 1.2033 0.2052
3.6800 1.2100 0.2069
3.7000 1.2167 0.1886
3.7200 1.2234 0.2044
3.7400 1.2300 0.2039
3.7600 1.2367 0.1887
3.7800 1.2434 0.1976
3.8000 1.2500 0.2046
3.8200 1.2566 0.1854
3.8400 1.2633 0.2071
3.8600 1.2700 0.2007
3.8800 1.2767 0.1867
3.9000 1.2834 0.2043
3.9200 1.2900 0.2029
3.9400 1.2967 0.1835
3.9600 1.3034 0.1957
3.9800 1.3100 0.1989
4.0000 1.3166 0.1857
4.0200 1.3233 0.2004
4.0400 1.3300 0.1974
4.0600 1.3367 0.1887
4.0800 1.3434 0.1935
4.1000 1.3501 0.1931
4.1200 1.3568 0.1868
4.1400 1.3634 0.1940
4.1600 1.3700 0.1936
4.1800 1.3766 0.1910
4.2000 1.3833 0.1879
4.2200 1.3900 0.1957
4.2400 1.3967 0.1856
4.2600 1.4034 0.1883
4.2800 1.4101 0.1936
4.3000 1.4168 0.1907
4.3200 1.4235 0.1852
4.3400 1.4301 0.1970
4.3600 1.4367 0.1872
4.3800 1.4433 0.1893
4.4000 1.4500 0.1987
4.4200 1.4567 0.1782
4.4400 1.4634 0.1840
4.4600 1.4700 0.1965
4.4800 1.4767 0.1781
4.5000 1.4834 0.1842
4.5200 1.4900 0.1927
4.5400 1.4966 0.1766
4.5600 1.5033 0.1832
4.5800 1.5099 0.1926
4.6000 1.5167 0.1758
4.6200 1.5234 0.1851
4.6400 1.5300 0.1891
4.6600 1.5367 0.1650
4.6800 1.5434 0.1832
4.7000 1.5500 0.1841
4.7200 1.5566 0.1687
4.7400 1.5633 0.1812
4.7600 1.5700 0.1856
4.7800 1.5767 0.1644
4.8000 1.5834 0.1782
4.8200 1.5901 0.1808
4.8400 1.5968 0.1657
4.8600 1.6034 0.1779
4.8800 1.6101 0.1807
4.9000 1.6166 0.1606
4.9200 1.6233 0.1745
4.9400 1.6300 0.1784
4.9600 1.6367 0.1572
4.9800 1.6434 0.1761
5.0000 1.6501 0.1757
5.0200 1.6568 0.1597
5.0400 1.6634 0.1695
5.0600 1.6701 0.1681
5.0800 1.6767 0.1539
5.1000 1.6833 0.1741
5.1200 1.6899 0.1680
5.1400 1.6967 0.1632
5.1600 1.7034 0.1630
5.1800 1.7101 0.1653
5.2000 1.7168 0.1579
5.2200 1.7234 0.1662
5.2400 1.7301 0.1626
5.2600 1.7366 0.1575
5.2800 1.7432 0.1642
5.3000 1.7499 0.1630
5.3200 1.7567 0.1522
5.3400 1.7634 0.1634
5.3600 1.7700 0.1552
5.3800 1.7767 0.1548
5.4000 1.7834 0.1586
5.4200 1.7900 0.1544
5.4400 1.7966 0.1546
5.4600 1.8033 0.1603
5.4800 1.8100 0.1573
5.5000 1.8167 0.1481
5.5200 1.8234 0.1605
5.5400 1.8301 0.1521
5.5600 1.8368 0.1505
5.5800 1.8435 0.1505
5.6000 1.8501 0.1510
5.6200 1.8567 0.1498
5.6400 1.8633 0.1514
5.6600 1.8700 0.1506
5.6800 1.8767 0.1507
5.7000 1.8834 0.1488
5.7200 1.8901 0.1517
5.7400 1.8967 0.1517
5.7600 1.9034 0.1427
5.7800 1.9100 0.1448
5.8000 1.9166 0.1538
5.8200 1.9233 0.1425
5.8400 1.9299 0.1466
5.8600 1.9366 0.1535
5.8800 1.9433 0.1387
5.9000 1.9500 0.1481
5.9200 1.9567 0.1450
5.9400 1.9634 0.1355
5.9600 1.9701 0.1506
5.9800 1.9767 0.1483
6.0000 1.9833 0.1351
6.0200 1.9899 0.1499
6.0400 1.9966 0.1417
6.0600 2.0033 0.1374
6.0800 2.0100 0.1456
6.1000 2.0167 0.1413
6.1200 2.0234 0.1335
6.1400 2.0301 0.1503
6.1600 2.0367 0.1374
6.1800 2.0433 0.1373
6.2000 2.0500 0.1468
6.2200 2.0567 0.1375
6.2400 2.0634 0.1325
6.2600 2.0701 0.1450
6.2800 2.0768 0.1343
6.3000 2.0834 0.1318
6.3200 2.0901 0.1396
6.3400 2.0966 0.1333
6.3600 2.1033 0.1323
6.3800 2.1100 0.1381
6.4000 2.1167 0.1306
6.4200 2.1234 0.1251
6.4400 2.1301 0.1390
6.4600 2.1367 0.1330
6.4800 2.1434 0.1244
6.5000 2.1501 0.1319
6.5200 2.1567 0.1353
6.5400 2.1633 0.1216
6.5600 2.1700 0.1299
6.5800 2.1767 0.1321
6.6000 2.1834 0.1222
6.6200 2.1900 0.1295
6.6400 2.1967 0.1297
6.6600 2.2034 0.1178
6.6800 2.2101 0.1316
6.7000 2.2167 0.1211
6.7200 2.2233 0.1205
6.7400 2.2299 0.1313
6.7600 2.2366 0.1206
6.7800 2.2434 0.1183
6.8000 2.2500 0.1234
6.8200 2.2567 0.1221
6.8400 2.2634 0.1181
6.8600 2.2701 0.1221
6.8800 2.2767 0.1180
6.9000 2.2833 0.1213
6.9200 2.2900 0.1226
6.9400 2.2967 0.1161
6.9600 2.3034 0.1172
6.9800 2.3101 0.1209
7.0000 2.3167 0.1188
7.0200 2.3234 0.1191
7.0400 2.3301 0.1089
7.0600 2.3367 0.1173
7.0800 2.3433 0.1189
7.1000 2.3500 0.1102
7.1200 2.3567 0.1183
7.1400 2.3634 0.1183
7.1600 2.3700 0.1066
7.1800 2.3767 0.1173
7.2000 2.3834 0.1144
7.2200 2.3901 0.1031
7.2400 2.3967 0.1184
7.2600 2.4033 0.1122
7.2800 2.4100 0.1050
7.3000 2.4167 0.1175
7.3200 2.4234 0.1083
7.3400 2.4301 0.1025
7.3600 2.4367 0.1197
7.3800 2.4434 0.1085
7.4000 2.4501 0.1013
7.4200 2.4567 0.1118
7.4400 2.4633 0.1082
7.4600 2.4699 0.1035
7.4800 2.4766 0.1191
7.5000 2.4833 0.1024
7.5200 2.4900 0.1009
7.5400 2.4967 0.1158
7.5600 2.5034 0.1010
7.5800 2.5101 0.0996
7.6000 2.5167 0.1113
7.6200 2.5233 0.1005
7.6400 2.5300 0.1019
7.6600 2.5367 0.1093
7.6800 2.5434 0.0997
7.7000 2.5501 0.0973
7.7200 2.5568 0.1055
7.7400 2.5635 0.1024
7.7600 2.5701 0.0959
7.7800 2.5767 0.1028
7.8000 2.5833 0.0981
7.8200 2.5900 0.0998
7.8400 2.5967 0.0988
7.8600 2.6034 0.1030
7.8800 2.6101 0.0928
7.9000 2.6167 0.0997
7.9200 2.6234 0.0993
7.9400 2.6301 0.0913
7.9600 2.6367 0.1024
7.9800 2.6433 0.0994
8.0000 2.6500 0.0906
8.0200 2.6567 0.1034
8.0400 2.6634 0.0931
8.0600 2.6700 0.0883
8.0800 2.6767 0.1007
8.1000 2.6834 0.0928
8.1200 2.6901 0.0872
8.1400 2.6967 0.0979
8.1600 2.7033 0.0932
8.1800 2.7099 0.0882
8.2000 2.7166 0.0979
8.2200 2.7233 0.0910
8.2400 2.7300 0.0882
8.2600 2.7367 0.0906
8.2800 2.7434 0.0912
8.3000 2.7500 0.0843
8.3200 2.7567 0.0943
8.3400 2.7633 0.0893
8.3600 2.7700 0.0816
8.3800 2.7767 0.0905
8.4000 2.7834 0.0882
8.4200 2.7901 0.0810
8.4400 2.7967 0.0890
8.4600 2.8034 0.0821
8.4800 2.8101 0.0783
8.5000 2.8167 0.0855
8.5200 2.8233 0.0865
8.5400 2.8300 0.0767
8.5600 2.8367 0.0881
8.5800 2.8434 0.0869
8.6000 2.8501 0.0727
8.6200 2.8567 0.0824
8.6400 2.8634 0.0855
8.6600 2.8701 0.0757
8.6800 2.8767 0.0775
8.7000 2.8833 0.0863
8.7200 2.8900 0.0760
8.7400 2.8966 0.0773
8.7600 2.9033 0.0844
8.7800 2.9100 0.0762
8.8000 2.9167 0.0764
8.8200 2.9234 0.0895
8.8400 2.9301 0.0695
8.8600 2.9367 0.0742
8.8800 2.9433 0.0855
8.9000 2.9499 0.0692
8.9200 2.9566 0.0701
8.9400 2.9633 0.0822
8.9600 2.9700 0.0694
8.9800 2.9767 0.0697
9.0000 2.9834 0.0791
9.0200 2.9900 0.0650
9.0400 2.9967 0.0680
9.0600 3.0033 0.0784
9.0800 3.0099 0.0670
9.1000 3.0166 0.0711
9.1200 3.0234 0.0819
9.1400 3.0301 0.0597
9.1600 3.0368 0.0678
9.1800 3.0435 0.0825
9.2000 3.0501 0.0598
9.2200 3.0568 0.0639
9.2400 3.0633 0.0835
9.2600 3.0700 0.0574
9.2800 3.0767 0.0647
9.3000 3.0834 0.0791
9.3200 3.0901 0.0540
9.3400 3.0968 0.0680
9.3600 3.1034 0.0773
9.3800 3.1101 0.0485
9.4000 3.1167 0.0683
9.4200 3.1233 0.0717
9.4400 3.1299 0.0518
9.4600 3.1366 0.0712
9.4800 3.1434 0.0661
9.5000 3.1500 0.0514
9.5200 3.1567 0.0715
9.5400 3.1634 0.0639
9.5600 3.1701 0.0509
9.5800 3.1767 0.0704
9.6000 3.1833 0.0595
9.6200 3.1900 0.0533
9.6400 3.1966 0.0661
9.6600 3.2033 0.0596
9.6800 3.2100 0.0540
9.7000 3.2167 0.0614
9.7200 3.2234 0.0546
9.7400 3.2300 0.0583
9.7600 3.2367 0.0550
9.7800 3.2433 0.0557
9.8000 3.2499 0.0543
9.8200 3.2566 0.0562
9.8400 3.2634 0.0517
9.8600 3.2701 0.0557
9.8800 3.2767 0.0532
9.9000 3.2834 0.0585
9.9200 3.2901 0.0535
9.9400 3.2967 0.0479
9.9600 3.3033 0.0621
9.9800 3.3100 0.0531
10.0000 3.3167 0.0464
10.0200 3.3234 0.0591
10.0400 3.3301 0.0507
10.0600 3.3368 0.0453
10.0800 3.3434 0.0597
10.1000 3.3501 0.0442
10.1200 3.3567 0.0435
10.1400 3.3633 0.0582
10.1600 3.3700 0.0480
10.1800 3.3766 0.0400
10.2000 3.3833 0.0568
10.2200 3.3900 0.0451
10.2400 3.3967 0.0422
10.2600 3.4034 0.0524
10.2800 3.4101 0.0447
10.3000 3.4167 0.0432
10.3200 3.4233 0.0516
10.3400 3.4299 0.0442
10.3600 3.4366 0.0423
10.3800 3.4433 0.0502
10.4000 3.4500 0.0421
10.4200 3.4567 0.0440
10.4400 3.4634 0.0468
10.4600 3.4700 0.0434
10.4800 3.4767 0.0407
10.5000 3.4833 0.0421
10.5200 3.4900 0.0397
10.5400 3.4967 0.0445
10.5600 3.5034 0.0386
10.5800 3.5100 0.0435
10.6000 3.5167 0.0392
10.6200 3.5234 0.0362
10.6400 3.5301 0.0441
10.6600 3.5367 0.0391
10.6800 3.5433 0.0358
10.7000 3.5499 0.0472
10.7200 3.5566 0.0348
10.7400 3.5633 0.0400
10.7600 3.5701 0.0403
10.7800 3.5768 0.0381
10.8000 3.5834 0.0364
10.8200 3.5901 0.0400
10.8400 3.5968 0.0295
10.8600 3.6033 0.0376
10.8800 3.6100 0.0440
10.9000 3.6166 0.0266
10.9200 3.6234 0.0392
10.9400 3.6301 0.0342
10.9600 3.6367 0.0275
10.9800 3.6434 0.0396
11.0000 3.6501 0.0323
11.0200 3.6567 0.0303
11.0400 3.6633 0.0402
11.0600 3.6699 0.0273
11.0800 3.6766 0.0338
11.1000 3.6833 0.0356
11.1200 3.6900 0.0301
11.1400 3.6967 0.0271
11.1600 3.7033 0.0368
11.1800 3.7100 0.0259
11.2000 3.7167 0.0273
11.2200 3.7233 0.0351
11.2400 3.7299 0.0296
11.2600 3.7366 0.0284
11.2800 3.7433 0.0308
11.3000 3.7501 0.0292
11.3200 3.7568 0.0270
11.3400 3.7635 0.0271
11.3600 3.7702 0.0311
11.3800 3.7768 0.0239
11.4000 3.7834 0.0232
11.4200 3.7900 0.0317
11.4400 3.7966 0.0213
11.4600 3.8034 0.0223
11.4800 3.8101 0.0261
11.5000 3.8167 0.0258
11.5200 3.8234 0.0231
11.5400 3.8300 0.0326
11.5600 3.8367 0.0168
11.5800 3.8434 0.0222
11.6000 3.8500 0.0318
11.6200 3.8567 0.0205
11.6400 3.8634 0.0205
11.6600 3.8700 0.0320
11.6800 3.8767 0.0128
11.7000 3.8834 0.0209
11.7200 3.8901 0.0288
11.7400 3.8967 0.0153
11.7600 3.9033 0.0191
11.7800 3.9099 0.0293
11.8000 3.9165 0.0136
11.8200 3.9232 0.0185
11.8400 3.9300 0.0323
11.8600 3.9367 0.0046
11.8800 3.9434 0.0162
11.9000 3.9501 0.0292
11.9200 3.9567 0.0094
11.9400 3.9633 0.0163
11.9600 3.9699 0.0268
11.9800 3.9766 0.0092
12.0000 3.9834 0.0145
12.0200 3.9901 0.0217
12.0400 3.9968 0.0127
12.0600 4.0034 0.0159
12.0800 4.0101 0.0205
12.1000 4.0167 0.0067
12.1200 4.0234 0.0120
12.1400 4.0300 0.0228
12.1600 4.0367 0.0066
12.1800 4.0434 0.0108
12.2000 4.0500 0.0214
12.2200 4.0567 0.0041
12.2400 4.0634 0.0107
12.2600 4.0701 0.0189
12.2800 4.0768 0.0028
12.3000 4.0833 0.0091
12.3200 4.0899 0.0202
12.3400 4.0965 0.0071
12.3600 4.1033 0.0059
12.3800 4.1100 0.0182
12.4000 4.1167 0.0007
12.4200 4.1234 0.0095
12.4400 4.1301 0.0176
12.4600 4.1367 0.0028
12.4800 4.1434 0.0029
12.5000 4.1500 0.0144
12.5200 4.1566 0.0004
12.5400 4.1633 0.0070
12.5600 4.1700 0.0139
12.5800 4.1767 0.0002
12.6000 4.1834 0.0043
12.6200 4.1901 0.0152
12.6400 4.1967 -0.0009
12.6600 4.2034 0.0017
12.6800 4.2100 0.0116
12.7000 4.2167 -0.0027
12.7200 4.2233 -0.0027
12.7400 4.2300 0.0100
12.7600 4.2367 -0.0040
12.7800 4.2434 -0.0018
12.8000 4.2501 0.0132
12.8200 4.2568 -0.0054
12.8400 4.2634 0.0003
12.8600 4.2700 0.0090
12.8800 4.2766 -0.0041
12.9000 4.2833 -0.0001
12.9200 4.2900 0.0061
12.9400 4.2967 -0.0068
12.9600 4.3034 0.0028
12.9800 4.3101 0.0010
13.0000 4.3168 -0.0035
13.0200 4.3234 -0.0044
13.0400 4.3300 -0.0003
13.0600 4.3366 -0.0022
13.0800 4.3433 -0.0034
13.1000 4.3500 -0.0018
13.1200 4.3567 -0.0046
13.1400 4.3633 -0.0027
13.1600 4.3701 -0.0028
13.1800 4.3768 -0.0048
13.2000 4.3834 -0.0093
13.2200 4.3900 -0.0014
13.2400 4.3966 -0.0040
13.2600 4.4033 -0.0098
13.2800 4.4100 -0.0005
13.3000 4.4167 -0.0061
13.3200 4.4234 -0.0139
13.3400 4.4301 0.0015
13.3600 4.4368 -0.0103
13.3800 4.4434 -0.0125
13.4000 4.4500 0.0024
13.4200 4.4566 -0.0053
13.4400 4.4633 -0.0144
13.4600 4.4700 0.0041
13.4800 4.4767 -0.0147
13.5000 4.4834 -0.0170
13.5200 4.4901 0.0003
13.5400 4.4968 -0.0127
13.5600 4.5034 -0.0100
13.5800 4.5100 -0.0011
13.6000 4.5167 -0.0187
13.6200 4.5233 -0.0070
13.6400 4.5301 -0.0001
13.6600 4.5367 -0.0220
13.6800 4.5434 -0.0070
13.7000 4.5501 -0.0020
13.7200 4.5567 -0.0265
13.7400 4.5634 -0.0106
13.7600 4.5700 -0.0030
13.7800 4.5766 -0.0239
13.8000 4.5833 -0.0047
13.8200 4.5900 -0.0097
13.8400 4.5967 -0.0234
13.8600 4.6034 -0.0045
13.8800 4.6100 -0.0158
13.9000 4.6167 -0.0286
13.9200 4.6233 -0.0003
13.9400 4.6299 -0.0167
13.9600 4.6366 -0.0197
13.9800 4.6433 -0.0079
14.0000 4.6500 -0.0196
14.0200 4.6567 -0.0171
14.0400 4.6634 -0.0097
14.0600 4.6701 -0.0247
14.0800 4.6767 -0.0137
14.1000 4.6834 -0.0115
14.1200 4.6900 -0.0271
14.1400 4.6966 -0.0104
14.1600 4.7033 -0.0169
14.1800 4.7100 -0.0263
14.2000 4.7167 -0.0124
14.2200 4.7234 -0.0178
14.2400 4.7301 -0.0260
14.2600 4.7368 -0.0100
14.2800 4.7434 -0.0296
14.3000 4.7500 -0.0253
14.3200 4.7566 -0.0131
14.3400 4.7633 -0.0273
14.3600 4.7700 -0.0240
14.3800 4.7767 -0.0121
14.4000 4.7834 -0.0346
14.4200 4.7901 -0.0241
14.4400 4.7968 -0.0194
14.4600 4.8034 -0.0284
14.4800 4.8100 -0.0144
14.5000 4.8166 -0.0177
14.5200 4.8233 -0.0337
14.5400 4.8300 -0.0243
14.5600 4.8367 -0.0240
14.5800 4.8434 -0.0280
14.6000 4.8500 -0.0256
14.6200 4.8567 -0.0292
14.6400 4.8634 -0.0287
14.6600 4.8699 -0.0275
14.6800 4.8766 -0.0287
14.7000 4.8832 -0.0296
14.7200 4.8899 -0.0265
14.7400 4.8966 -0.0335
14.7600 4.9033 -0.0252
14.7800 4.9100 -0.0297
14.8000 4.9168 -0.0297
14.8200 4.9234 -0.0282
14.8400 4.9301 -0.0365
14.8600 4.9367 -0.0341
14.8800 4.9433 -0.0197
14.9000 4.9500 -0.0369
14.9200 4.9567 -0.0362
14.9400 4.9634 -0.0220
14.9600 4.9701 -0.0375
14.9800 4.9768 -0.0407
15.0000 4.9834 -0.0271
15.0200 4.9900 -0.0398
15.0400 4.9966 -0.0364
15.0600 5.0033 -0.0282
15.0800 5.0100 -0.0472
15.1000 5.0167 -0.0302
15.1200 5.0234 -0.0340
15.1400 5.0301 -0.0493
15.1600 5.0368 -0.0286
15.1800 5.0434 -0.0325
15.2000 5.0500 -0.0487
15.2200 5.0566 -0.0318
15.2400 5.0633 -0.0382
15.2600 5.0700 -0.0497
15.2800 5.0767 -0.0344
15.3000 5.0834 -0.0369
15.3200 5.0901 -0.0513
15.3400 5.0968 -0.0328
15.3600 5.1034 -0.0414
15.3800 5.1100 -0.0467
15.4000 5.1166 -0.0357
15.4200 5.1232 -0.0415
15.4400 5.1300 -0.0493
15.4600 5.1367 -0.0441
15.4800 5.1433 -0.0415
15.5000 5.1500 -0.0492
15.5200 5.1566 -0.0440
15.5400 5.1633 -0.0396
15.5600 5.1699 -0.0504
15.5800 5.1766 -0.0481
15.6000 5.1833 -0.0391
15.6200 5.1901 -0.0505
15.6400 5.1968 -0.0491
15.6600 5.2034 -0.0362
15.6800 5.2101 -0.0504
15.7000 5.2168 -0.0565
15.7200 5.2235 -0.0424
15.7400 5.2301 -0.0520
15.7600 5.2367 -0.0498
15.7800 5.2434 -0.0468
15.8000 5.2501 -0.0555
15.8200 5.2568 -0.0510
15.8400 5.2634 -0.0460
15.8600 5.2701 -0.0532
15.8800 5.2768 -0.0461
15.9000 5.2834 -0.0494
15.9200 5.2900 -0.0573
15.9400 5.2966 -0.0492
15.9600 5.3033 -0.0487
15.9800 5.3100 -0.0498
16.0000 5.3167 -0.0537
16.0200 5.3234 -0.0520
16.0400 5.3300 -0.0540
16.0600 5.3367 -0.0556
16.0800 5.3434 -0.0521
16.1000 5.3500 -0.0453
16.1200 5.3566 -0.0607
16.1400 5.3633 -0.0538
16.1600 5.3700 -0.0494
16.1800 5.3767 -0.0634
16.2000 5.3834 -0.0553
16.2200 5.3900 -0.0490
16.2400 5.3967 -0.0612
16.2600 5.4034 -0.0579
16.2800 5.4100 -0.0551
16.3000 5.4166 -0.0589
16.3200 5.4233 -0.0549
16.3400 5.4299 -0.0530
16.3600 5.4367 -0.0642
16.3800 5.4434 -0.0517
16.4000 5.4501 -0.0606
16.4200 5.4568 -0.0683
16.4400 5.4635 -0.0497
16.4600 5.4701 -0.0649
16.4800 5.4766 -0.0661
16.5000 5.4833 -0.0514
16.5200 5.4900 -0.0607
16.5400 5.4967 -0.0708
16.5600 5.5034 -0.0535
16.5800 5.5101 -0.0635
16.6000 5.5168 -0.0649
16.6200 5.5234 -0.0560
16.6400 5.5300 -0.0651
16.6600 5.5366 -0.0635
16.6800 5.5433 -0.0536
16.7000 5.5500 -0.0705
16.7200 5.5567 -0.0627
16.7400 5.5634 -0.0552
16.7600 5.5700 -0.0703
16.7800 5.5767 -0.0631
16.8000 5.5834 -0.0553
16.8200 5.5900 -0.0699
16.8400 5.5966 -0.0686
16.8600 5.6033 -0.0538
16.8800 5.6100 -0.0712
16.9000 5.6167 -0.0658
16.9200 5.6234 -0.0581
16.9400 5.6300 -0.0718
16.9600 5.6367 -0.0616
16.9800 5.6434 -0.0622
17.0000 5.6500 -0.0746
17.0200 5.6566 -0.0573
17.0400 5.6633 -0.0625
17.0600 5.6700 -0.0724
17.0800 5.6767 -0.0632
17.1000 5.6834 -0.0634
17.1200 5.6900 -0.0723
17.1400 5.6967 -0.0595
17.1600 5.7033 -0.0677
17.1800 5.7100 -0.0765
17.2000 5.7166 -0.0591
17.2200 5.7233 -0.0664
17.2400 5.7301 -0.0747
17.2600 5.7368 -0.0660
17.2800 5.7435 -0.0709
17.3000 5.7501 -0.0715
17.3200 5.7568 -0.0672
17.3400 5.7635 -0.0737
17.3600 5.7701 -0.0672
17.3800 5.7767 -0.0706
17.4000 5.7833 -0.0725
17.4200 5.7900 -0.0691
17.4400 5.7967 -0.0674
17.4600 5.8034 -0.0736
17.4800 5.8101 -0.0685
17.5000 5.8168 -0.0720
17.5200 5.8234 -0.0714
17.5400 5.8300 -0.0729
17.5600 5.8366 -0.0746
17.5800 5.8432 -0.0678
17.6000 5.8499 -0.0718
17.6200 5.8567 -0.0786
17.6400 5.8634 -0.0741
17.6600 5.8700 -0.0783
17.6800 5.8767 -0.0768
17.7000 5.8834 -0.0729
17.7200 5.8900 -0.0740
17.7400 5.8966 -0.0764
17.7600 5.9033 -0.0755
17.7800 5.9100 -0.0789
17.8000 5.9167 -0.0802
17.8200 5.9234 -0.0717
17.8400 5.9301 -0.0808
17.8600 5.9368 -0.0794
17.8800 5.9435 -0.0762
17.9000 5.9501 -0.0801
17.9200 5.9567 -0.0831
17.9400 5.9633 -0.0762
17.9600 5.9699 -0.0826
17.9800 5.9767 -0.0798
18.0000 5.9834 -0.0807
18.0200 5.9901 -0.0846
18.0400 5.9968 -0.0795
18.0600 6.0035 -0.0821
18.0800 6.0101 -0.0836
18.1000 6.0166 -0.0803
18.1200 6.0233 -0.0842
18.1400 6.0300 -0.0811
18.1600 6.0367 -0.0824
18.1800 6.0434 -0.0852
18.2000 6.0501 -0.0815
18.2200 6.0567 -0.0813
18.2400 6.0634 -0.0896
18.2600 6.0700 -0.0824
18.2800 6.0766 -0.0791
18.3000 6.0833 -0.0859
18.3200 6.0900 -0.0824
18.3400 6.0967 -0.0891
18.3600 6.1033 -0.0870
18.3800 6.1100 -0.0863
18.4000 6.1167 -0.0886
18.4200 6.1234 -0.0886
18.4400 6.1301 -0.0804
18.4600 6.1367 -0.0915
18.4800 6.1433 -0.0873
18.5000 6.1500 -0.0816
18.5200 6.1567 -0.0924
18.5400 6.1634 -0.0924
18.5600 6.1701 -0.0864
18.5800 6.1768 -0.0954
18.6000 6.1834 -0.0892
18.6200 6.1901 -0.0879
18.6400 6.1966 -0.0903
18.6600 6.2033 -0.0873
18.6800 6.2100 -0.0853
18.7000 6.2167 -0.0947
18.7200 6.2234 -0.0923
18.7400 6.2301 -0.0844
18.7600 6.2367 -0.0973
18.7800 6.2434 -0.0889
18.8000 6.2501 -0.0904
18.8200 6.2567 -0.0972
18.8400 6.2633 -0.0915
18.8600 6.2700 -0.0892
18.8800 6.2767 -0.0969
18.9000 6.2834 -0.0890
18.9200 6.2900 -0.0968
18.9400 6.2967 -0.0969
18.9600 6.3034 -0.0933
18.9800 6.3100 -0.0954
19.0000 6.3166 -0.0922
19.0200 6.3232 -0.0909
19.0400 6.3299 -0.0979
19.0600 6.3366 -0.0916
19.0800 6.3433 -0.0959
19.1000 6.3500 -0.0999
19.1200 6.3567 -0.0917
19.1400 6.3634 -0.0999
19.1600 6.3700 -0.0966
19.1800 6.3767 -0.0912
19.2000 6.3833 -0.1005
19.2200 6.3900 -0.0967
19.2400 6.3967 -0.0884
19.2600 6.4034 -0.1066
19.2800 6.4101 -0.0934
19.3000 6.4168 -0.0920
19.3200 6.4234 -0.1097
19.3400 6.4301 -0.0966
19.3600 6.4367 -0.0873
19.3800 6.4433 -0.1088
19.4000 6.4500 -0.0901
19.4200 6.4567 -0.0973
19.4400 6.4634 -0.1087
19.4600 6.4701 -0.0894
19.4800 6.4768 -0.1033
19.5000 6.4834 -0.1116
19.5200 6.4901 -0.0871
19.5400 6.4967 -0.1079
19.5600 6.5033 -0.1079
19.5800 6.5099 -0.0881
19.6000 6.5166 -0.1050
19.6200 6.5234 -0.1038
19.6400 6.5301 -0.0968
19.6600 6.5368 -0.1079
19.6800 6.5434 -0.1027
19.7000 6.5500 -0.0984
19.7200 6.5566 -0.1111
19.7400 6.5632 -0.0992
19.7600 6.5699 -0.0992
19.7800 6.5766 -0.1099
19.8000 6.5834 -0.1051
19.8200 6.5900 -0.1002
19.8400 6.5967 -0.1086
19.8600 6.6034 -0.1004
19.8800 6.6100 -0.1070
19.9000 6.6167 -0.1060
19.9200 6.6233 -0.1079
19.9400 6.6300 -0.1012
19.9600 6.6367 -0.1067
19.9800 6.6434 -0.1090
20.0000 6.6501 -0.1036
20.0200 6.6568 -0.1042
20.0400 6.6635 -0.1134
20.0600 6.6701 -0.1056
20.0800 6.6767 -0.1018
20.1000 6.6833 -0.1100
20.1200 6.6900 -0.1039
20.1400 6.6967 -0.1064
20.1600 6.7034 -0.1117
20.1800 6.7101 -0.1093
20.2000 6.7168 -0.1035
20.2200 6.7234 -0.1122
20.2400 6.7301 -0.1080
20.2600 6.7367 -0.1091
20.2800 6.7433 -0.1139
20.3000 6.7499 -0.1089
20.3200 6.7567 -0.1079
20.3400 6.7633 -0.1146
20.3600 6.7700 -0.1096
20.3800 6.7767 -0.1081
20.4000 6.7834 -0.1162
20.4200 6.7900 -0.1099
20.4400 6.7967 -0.1090
20.4600 6.8033 -0.1154
20.4800 6.8099 -0.1083
20.5000 6.8166 -0.1074
20.5200 6.8234 -0.1180
20.5400 6.8300 -0.1156
20.5600 6.8367 -0.1065
20.5800 6.8434 -0.1196
20.6000 6.8501 -0.1167
20.6200 6.8567 -0.1068
20.6400 6.8633 -0.1209
20.6600 6.8700 -0.1103
20.6800 6.8767 -0.1138
20.7000 6.8834 -0.1227
20.7200 6.8901 -0.1105
20.7400 6.8968 -0.1121
20.7600 6.9035 -0.1282
20.7800 6.9101 -0.1100
20.8000 6.9167 -0.1165
20.8200 6.9233 -0.1234
20.8400 6.9299 -0.1132
20.8600 6.9367 -0.1130
20.8800 6.9434 -0.1255
20.9000 6.9501 -0.1179
20.9200 6.9567 -0.1167
20.9400 6.9634 -0.1229
20.9600 6.9701 -0.1136
20.9800 6.9767 -0.1204
21.0000 6.9833 -0.1217
21.0200 6.9900 -0.1182
21.0400 6.9967 -0.1171
21.0600 7.0034 -0.1253
21.0800 7.0100 -0.1175
21.1000 7.0167 -0.1171
21.1200 7.0234 -0.1265
21.1400 7.0301 -0.1189
21.1600 7.0367 -0.1212
21.1800 7.0432 -0.1250
21.2000 7.0499 -0.1197
21.2200 7.0566 -0.1220
21.2400 7.0633 -0.1180
21.2600 7.0700 -0.1284
21.2800 7.0767 -0.1220
21.3000 7.0834 -0.1208
21.3200 7.0900 -0.1287
21.3400 7.0966 -0.1256
21.3600 7.1033 -0.1278
21.3800 7.1099 -0.1241
21.4000 7.1167 -0.1227
21.4200 7.1234 -0.1270
21.4400 7.1301 -0.1288
21.4600 7.1367 -0.1258
21.4800 7.1434 -0.1324
21.5000 7.1501 -0.1255
21.5200 7.1567 -0.1169
21.5400 7.1633 -0.1440
21.5600 7.1700 -0.1322
21.5800 7.1767 -0.1116
21.6000 7.1834 -0.1413
21.6200 7.1901 -0.1301
21.6400 7.1967 -0.1188
21.6600 7.2034 -0.1481
21.6800 7.2101 -0.1238
21.7000 7.2167 -0.1204
21.7200 7.2233 -0.1477
21.7400 7.2299 -0.1133
21.7600 7.2367 -0.1294
21.7800 7.2434 -0.1535
21.8000 7.2501 -0.1141
21.8200 7.2567 -0.1335
21.8400 7.2634 -0.1537
21.8600 7.2701 -0.1133
21.8800 7.2767 -0.1410
21.9000 7.2833 -0.1471
21.9200 7.2899 -0.1043
21.9400 7.2966 -0.1526
21.9600 7.3033 -0.1497
21.9800 7.3100 -0.1047
22.0000 7.3167 -0.1478
22.0200 7.3234 -0.1512
22.0400 7.3300 -0.1121
22.0600 7.3367 -0.1543
22.0800 7.3433 -0.1363
22.1000 7.3500 -0.1150
22.1200 7.3567 -0.1605
22.1400 7.3634 -0.1274
22.1600 7.3701 -0.1254
22.1800 7.3767 -0.1663
22.2000 7.3835 -0.1226
22.2200 7.3901 -0.1308
22.2400 7.3967 -0.1713
22.2600 7.4033 -0.1241
22.2800 7.4100 -0.1269
22.3000 7.4167 -0.1640
22.3200 7.4234 -0.1303
22.3400 7.4301 -0.1343
22.3600 7.4367 -0.1561
22.3800 7.4434 -0.1257
22.4000 7.4501 -0.1459
22.4200 7.4567 -0.1556
22.4400 7.4633 -0.1255
22.4600 7.4699 -0.1423
22.4800 7.4766 -0.1475
22.5000 7.4833 -0.1327
22.5200 7.4900 -0.1532
22.5400 7.4967 -0.1401
22.5600 7.5034 -0.1300
22.5800 7.5101 -0.1557
22.6000 7.5167 -0.1435
22.6200 7.5233 -0.1341
22.6400 7.5299 -0.1624
22.6600 7.5366 -0.1358
22.6800 7.5433 -0.1360
22.7000 7.5500 -0.1565
22.7200 7.5567 -0.1394
22.7400 7.5634 -0.1460
22.7600 7.5701 -0.1487
22.7800 7.5767 -0.1406
22.8000 7.5833 -0.1446
22.8200 7.5900 -0.1515
22.8400 7.5967 -0.1395
22.8600 7.6034 -0.1472
22.8800 7.6100 -0.1541
22.9000 7.6167 -0.1376
22.9200 7.6234 -0.1491
22.9400 7.6301 -0.1584
22.9600 7.6367 -0.1378
22.9800 7.6434 -0.1504
23.0000 7.6500 -0.1510
23.0200 7.6567 -0.1434
23.0400 7.6634 -0.1462
23.0600 7.6701 -0.1552
23.0800 7.6767 -0.1440
23.1000 7.6834 -0.1434
23.1200 7.6901 -0.1566
23.1400 7.6968 -0.1544
23.1600 7.7033 -0.1415
23.1800 7.7099 -0.1488
23.2000 7.7166 -0.1528
23.2200 7.7233 -0.1441
23.2400 7.7301 -0.1536
23.2600 7.7367 -0.1536
23.2800 7.7434 -0.1439
23.3000 7.7501 -0.1524
23.3200 7.7567 -0.1555
23.3400 7.7633 -0.1434
23.3600 7.7699 -0.1576
23.3800 7.7766 -0.1515
23.4000 7.7833 -0.1446
23.4200 7.7900 -0.1545
23.4400 7.7967 -0.1590
23.4600 7.8033 -0.1416
23.4800 7.8100 -0.1576
23.5000 7.8167 -0.1554
23.5200 7.8233 -0.1451
23.5400 7.8300 -0.1596
23.5600 7.8366 -0.1588
23.5800 7.8433 -0.1446
23.6000 7.8501 -0.1557
23.6200 7.8568 -0.1560
23.6400 7.8634 -0.1522
23.6600 7.8701 -0.1533
23.6800 7.8768 -0.1565
23.7000 7.8833 -0.1565
23.7200 7.8900 -0.1489
23.7400 7.8967 -0.1628
23.7600 7.9034 -0.1583
23.7800 7.9101 -0.1587
23.8000 7.9168 -0.1565
23.8200 7.9234 -0.1544
23.8400 7.9301 -0.1567
23.8600 7.9367 -0.1683
23.8800 7.9433 -0.1520
23.9000 7.9499 -0.1583
23.9200 7.9566 -0.1732
23.9400 7.9634 -0.1466
23.9600 7.9700 -0.1588
23.9800 7.9767 -0.1786
24.0000 7.9834 -0.1448
24.0200 7.9901 -0.1632
24.0400 7.9967 -0.1716
24.0600 8.0034 -0.1527
24.0800 8.0100 -0.1656
24.1000 8.0166 -0.1698
24.1200 8.0233 -0.1518
24.1400 8.0300 -0.1737
24.1600 8.0367 -0.1688
24.1800 8.0434 -0.1490
24.2000 8.0500 -0.1741
24.2200 8.0567 -0.1664
24.2400 8.0633 -0.1577
24.2600 8.0699 -0.1719
24.2800 8.0766 -0.1604
24.3000 8.0834 -0.1626
24.3200 8.0901 -0.1766
24.3400 8.0968 -0.1590
24.3600 8.1034 -0.1699
24.3800 8.1101 -0.1679
24.4000 8.1167 -0.1645
24.4200 8.1233 -0.1658
24.4400 8.1299 -0.1726
24.4600 8.1367 -0.1653
24.4800 8.1434 -0.1705
24.5000 8.1501 -0.1728
24.5200 8.1568 -0.1675
24.5400 8.1634 -0.1703
24.5600 8.1701 -0.1708
24.5800 8.1767 -0.1665
24.6000 8.1833 -0.1736
24.6200 8.1900 -0.1724
24.6400 8.1966 -0.1683
24.6600 8.2033 -0.1712
24.6800 8.2100 -0.1684
24.7000 8.2167 -0.1756
24.7200 8.2234 -0.1693
24.7400 8.2301 -0.1675
24.7600 8.2367 -0.1743
24.7800 8.2433 -0.1724
24.8000 8.2499 -0.1673
24.8200 8.2566 -0.1794
24.8400 8.2633 -0.1705
24.8600 8.2700 -0.1695
24.8800 8.2767 -0.1761
24.9000 8.2834 -0.1713
24.9200 8.2901 -0.1752
24.9400 8.2967 -0.1769
24.9600 8.3033 -0.1711
24.9800 8.3100 -0.1737
25.0000 8.3166 -0.1744
25.0200 8.3233 -0.1728
25.0400 8.3300 -0.1761
25.0600 8.3367 -0.1745
25.0800 8.3434 -0.1732
25.1000 8.3501 -0.1784
25.1200 8.3568 -0.1768
25.1400 8.3634 -0.1741
25.1600 8.3700 -0.1781
25.1800 8.3766 -0.1720
25.2000 8.3833 -0.1798
25.2200 8.3900 -0.1741
25.2400 8.3967 -0.1705
25.2600 8.4034 -0.1777
25.2800 8.4101 -0.1784
25.3000 8.4168 -0.1721
25.3200 8.4234 -0.1806
25.3400 8.4300 -0.1758
25.3600 8.4366 -0.1773
25.3800 8.4433 -0.1733
25.4000 8.4501 -0.1788
25.4200 8.4567 -0.1819
25.4400 8.4634 -0.1754
25.4600 8.4701 -0.1738
25.4800 8.4767 -0.1803
25.5000 8.4833 -0.1788
25.5200 8.4899 -0.1781
25.5400 8.4966 -0.1796
25.5600 8.5033 -0.1803
25.5800 8.5100 -0.1782
25.6000 8.5167 -0.1787
25.6200 8.5233 -0.1854
25.6400 8.5300 -0.1780
25.6600 8.5367 -0.1847
25.6800 8.5433 -0.1792
25.7000 8.5499 -0.1792
25.7200 8.5566 -0.1881
25.7400 8.5633 -0.1853
25.7600 8.5700 -0.1752
25.7800 8.5768 -0.1887
25.8000 8.5835 -0.1774
25.8200 8.5901 -0.1802
25.8400 8.5968 -0.1940
25.8600 8.6034 -0.1819
25.8800 8.6100 -0.1787
25.9000 8.6166 -0.1878
25.9200 8.6234 -0.1828
25.9400 8.6301 -0.1851
25.9600 8.6368 -0.1905
25.9800 8.6434 -0.1828
26.0000 8.6501 -0.1846
26.0200 8.6568 -0.1885
26.0400 8.6634 -0.1852
26.0600 8.6700 -0.1861
26.0800 8.6766 -0.1893
26.1000 8.6833 -0.1845
26.1200 8.6900 -0.1917
26.1400 8.6967 -0.1907
26.1600 8.7034 -0.1867
26.1800 8.7101 -0.1919
26.2000 8.7167 -0.1873
26.2200 8.7233 -0.1871
26.2400 8.7299 -0.1954
26.2600 8.7366 -0.1846
26.2800 8.7433 -0.1902
26.3000 8.7500 -0.1926
26.3200 8.7567 -0.1933
26.3400 8.7634 -0.1907
26.3600 8.7700 -0.1934
26.3800 8.7767 -0.1940
26.4000 8.7833 -0.1905
26.4200 8.7899 -0.1927
26.4400 8.7966 -0.1900
26.4600 8.8033 -0.1973
26.4800 8.8101 -0.1924
26.5000 8.8168 -0.1925
26.5200 8.8234 -0.2001
26.5400 8.8301 -0.1917
26.5600 8.8368 -0.1909
26.5800 8.8434 -0.1997
26.6000 8.8500 -0.1899
26.6200 8.8567 -0.1976
26.6400 8.8634 -0.1965
26.6600 8.8700 -0.1913
26.6800 8.8767 -0.2013
26.7000 8.8834 -0.2019
26.7200 8.8901 -0.1886
26.7400 8.8968 -0.2030
26.7600 8.9034 -0.2037
26.7800 8.9100 -0.1876
26.8000 8.9166 -0.2025
26.8200 8.9233 -0.1980
26.8400 8.9300 -0.1946
26.8600 8.9367 -0.2070
26.8800 8.9434 -0.1930
26.9000 8.9501 -0.1955
26.9200 8.9567 -0.2082
26.9400 8.9634 -0.1988
26.9600 8.9699 -0.1936
26.9800 8.9766 -0.2005
27.0000 8.9833 -0.2024
27.0200 8.9900 -0.1938
27.0400 8.9967 -0.2087
27.0600 9.0034 -0.1982
27.0800 9.0100 -0.2008
27.1000 9.0167 -0.2059
27.1200 9.0234 -0.2043
27.1400 9.0300 -0.2020
27.1600 9.0366 -0.2057
27.1800 9.0433 -0.2053
27.2000 9.0500 -0.1990
27.2200 9.0567 -0.2066
27.2400 9.0634 -0.2062
27.2600 9.0701 -0.1947
27.2800 9.0768 -0.2047
27.3000 9.0834 -0.2111
27.3200 9.0900 -0.2003
27.3400 9.0966 -0.2004
27.3600 9.1033 -0.2130
27.3800 9.1100 -0.2015
27.4000 9.1168 -0.1996
27.4200 9.1234 -0.2130
27.4400 9.1301 -0.2071
27.4600 9.1368 -0.2075
27.4800 9.1434 -0.2132
27.5000 9.1500 -0.2063
27.5200 9.1566 -0.2023
27.5400 9.1633 -0.2097
27.5600 9.1700 -0.2119
27.5800 9.1767 -0.2042
27.6000 9.1834 -0.2102
27.6200 9.1901 -0.2153
27.6400 9.1967 -0.2031
27.6600 9.2034 -0.2146
27.6800 9.2100 -0.2126
27.7000 9.2166 -0.2018
27.7200 9.2233 -0.2105
27.7400 9.2300 -0.2143
27.7600 9.2367 -0.2046
27.7800 9.2434 -0.2136
27.8000 9.2501 -0.2159
27.8200 9.2568 -0.2035
27.8400 9.2634 -0.2207
27.8600 9.2700 -0.2153
27.8800 9.2766 -0.1981
27.9000 9.2833 -0.2241
27.9200 9.2900 -0.2145
27.9400 9.2968 -0.1995
27.9600 9.3034 -0.2274
27.9800 9.3101 -0.2074
28.0000 9.3168 -0.2040
28.0200 9.3234 -0.2276
28.0400 9.3300 -0.2133
28.0600 9.3366 -0.2001
28.0800 9.3433 -0.2246
28.1000 9.3500 -0.2138
28.1200 9.3567 -0.2079
28.1400 9.3634 -0.2208
28.1600 9.3701 -0.2105
28.1800 9.3768 -0.2124
28.2000 9.3834 -0.2209
28.2200 9.3900 -0.2074
28.2400 9.3966 -0.2146
28.2600 9.4033 -0.2171
28.2800 9.4100 -0.2078
28.3000 9.4167 -0.2189
28.3200 9.4234 -0.2157
28.3400 9.4301 -0.2123
28.3600 9.4368 -0.2185
28.3800 9.4434 -0.2200
28.4000 9.4500 -0.2094
28.4200 9.4566 -0.2208
28.4400 9.4633 -0.2131
28.4600 9.4700 -0.2138
28.4800 9.4767 -0.2182
28.5000 9.4834 -0.2167
28.5200 9.4901 -0.2202
28.5400 9.4967 -0.2166
28.5600 9.5034 -0.2110
28.5800 9.5100 -0.2231
28.6000 9.5166 -0.2139
28.6200 9.5233 -0.2132
28.6400 9.5300 -0.2245
28.6600 9.5367 -0.2144
28.6800 9.5434 -0.2128
28.7000 9.5501 -0.2251
28.7200 9.5568 -0.2127
28.7400 9.5634 -0.2171
28.7600 9.5700 -0.2273
28.7800 9.5767 -0.2062
28.8000 9.5833 -0.2239
28.8200 9.5900 -0.2251
28.8400 9.5967 -0.2112
28.8600 9.6034 -0.2245
28.8800 9.6101 -0.2244
28.9000 9.6168 -0.2130
28.9200 9.6234 -0.2245
28.9400 9.6300 -0.2183
28.9600 9.6366 -0.2099
28.9800 9.6433 -0.2248
29.0000 9.6500 -0.2202
29.0200 9.6567 -0.2116
29.0400 9.6634 -0.2287
29.0600 9.6700 -0.2174
29.0800 9.6767 -0.2190
29.1000 9.6834 -0.2283
29.1200 9.6900 -0.2159
29.1400 9.6966 -0.2189
29.1600 9.7033 -0.2267
29.1800 9.7100 -0.2163
29.2000 9.7167 -0.2250
29.2200 9.7233 -0.2306
29.2400 9.7300 -0.2120
29.2600 9.7367 -0.2193
29.2800 9.7434 -0.2313
29.3000 9.7500 -0.2184
29.3200 9.7566 -0.2195
29.3400 9.7633 -0.2314
29.3600 9.7700 -0.2185
29.3800 9.7767 -0.2226
29.4000 9.7834 -0.2255
29.4200 9.7901 -0.2258
29.4400 9.7968 -0.2202
29.4600 9.8034 -0.2261
29.4800 9.8100 -0.2249
29.5000 9.8166 -0.2225
29.5200 9.8233 -0.2271
29.5400 9.8300 -0.2242
29.5600 9.8367 -0.2278
29.5800 9.8434 -0.2271
29.6000 9.8501 -0.2254
29.6200 9.8568 -0.2296
29.6400 9.8634 -0.2268
29.6600 9.8700 -0.2260
29.6800 9.8766 -0.2298
29.7000 9.8833 -0.2283
29.7200 9.8900 -0.2285
29.7400 9.8967 -0.2275
29.7600 9.9034 -0.2302
29.7800 9.9100 -0.2225
29.8000 9.9167 -0.2313
29.8200 9.9234 -0.2315
29.8400 9.9300 -0.2313
29.8600 9.9366 -0.2287
29.8800 9.9432 -0.2274
29.9000 9.9499 -0.2270
29.9200 9.9567 -0.2344
29.9400 9.9633 -0.2244
29.9600 9.9700 -0.2301
29.9800 9.9767 -0.2365
30.0000 9.9834 -0.2273
30.0200 9.9900 -0.2320
30.0400 9.9966 -0.2344
30.0600 10.0033 -0.2288
30.0800 10.0100 -0.2357
30.1000 10.0167 -0.2333
30.1200 10.0234 -0.2244
30.1400 10.0301 -0.2383
30.1600 10.0368 -0.2346
30.1800 10.0434 -0.2309
30.2000 10.0501 -0.2364
30.2200 10.0567 -0.2340
30.2400 10.0633 -0.2298
30.2600 10.0700 -0.2379
30.2800 10.0767 -0.2356
30.3000 10.0834 -0.2345
30.3200 10.0901 -0.2349
30.3400 10.0968 -0.2396
30.3600 10.1034 -0.2317
30.3800 10.1100 -0.2373
30.4000 10.1166 -0.2382
30.4200 10.1232 -0.2333
30.4400 10.1299 -0.2345
30.4600 10.1367 -0.2388
30.4800 10.1434 -0.2322
30.5000 10.1500 -0.2360
30.5200 10.1567 -0.2402
30.5400 10.1634 -0.2312
30.5600 10.1700 -0.2407
30.5800 10.1766 -0.2382
30.6000 10.1833 -0.2336
30.6200 10.1900 -0.2383
30.6400 10.1967 -0.2383
30.6600 10.2034 -0.2372
30.6800 10.2100 -0.2375
30.7000 10.2167 -0.2382
30.7200 10.2234 -0.2376
30.7400 10.2300 -0.2440
30.7600 10.2367 -0.2371
30.7800 10.2433 -0.2327
30.8000 10.2500 -0.2480
30.8200 10.2567 -0.2360
30.8400 10.2634 -0.2351
30.8600 10.2701 -0.2461
30.8800 10.2768 -0.2441
30.9000 10.2835 -0.2353
30.9200 10.2901 -0.2462
30.9400 10.2966 -0.2417
30.9600 10.3033 -0.2327
30.9800 10.3100 -0.2463
31.0000 10.3167 -0.2446
31.0200 10.3234 -0.2384
31.0400 10.3301 -0.2445
31.0600 10.3367 -0.2442
31.0800 10.3434 -0.2359
31.1000 10.3500 -0.2459
31.1200 10.3566 -0.2463
31.1400 10.3633 -0.2370
31.1600 10.3700 -0.2428
31.1800 10.3767 -0.2544
31.2000 10.3834 -0.2381
31.2200 10.3900 -0.2462
31.2400 10.3967 -0.2501
31.2600 10.4034 -0.2397
31.2800 10.4100 -0.2463
31.3000 10.4166 -0.2524
31.3200 10.4233 -0.2369
31.3400 10.4300 -0.2491
31.3600 10.4367 -0.2502
31.3800 10.4434 -0.2379
31.4000 10.4500 -0.2484
31.4200 10.4567 -0.2533
31.4400 10.4634 -0.2428
31.4600 10.4701 -0.2461
31.4800 10.4766 -0.2518
31.5000 10.4833 -0.2404
31.5200 10.4900 -0.2469
31.5400 10.4967 -0.2534
31.5600 10.5034 -0.2430
31.5800 10.5101 -0.2505
31.6000 10.5168 -0.2539
31.6200 10.5234 -0.2403
31.6400 10.5301 -0.2543
31.6600 10.5367 -0.2533
31.6800 10.5433 -0.2425
31.7000 10.5500 -0.2498
31.7200 10.5567 -0.2557
31.7400 10.5634 -0.2446
31.7600 10.5701 -0.2561
31.7800 10.5768 -0.2524
31.8000 10.5834 -0.2517
31.8200 10.5901 -0.2536
31.8400 10.5967 -0.2550
31.8600 10.6033 -0.2504
31.8800 10.6100 -0.2515
31.9000 10.6167 -0.2508
31.9200 10.6234 -0.2538
31.9400 10.6301 -0.2562
31.9600 10.6368 -0.2514
31.9800 10.6434 -0.2559
32.0000 10.6500 -0.2559
32.0200 10.6566 -0.2534
32.0400 10.6632 -0.2538
32.0600 10.6699 -0.2523
32.0800 10.6767 -0.2511
32.1000 10.6834 -0.2568
32.1200 10.6900 -0.2515
32.1400 10.6967 -0.2542
32.1600 10.7034 -0.2563
32.1800 10.7100 -0.2592
32.2000 10.7166 -0.2542
32.2200 10.7233 -0.2593
32.2400 10.7300 -0.2587
32.2600 10.7367 -0.2531
32.2800 10.7434 -0.2606
32.3000 10.7501 -0.2557
32.3200 10.7568 -0.2543
32.3400 10.7635 -0.2611
32.3600 10.7701 -0.2564
32.3800 10.7767 -0.2598
32.4000 10.7833 -0.2578
32.4200 10.7900 -0.2557
32.4400 10.7967 -0.2595
32.4600 10.8034 -0.2615
32.4800 10.8101 -0.2565
32.5000 10.8168 -0.2554
32.5200 10.8234 -0.2689
32.5400 10.8300 -0.2504
32.5600 10.8366 -0.2668
32.5800 10.8433 -0.2647
32.6000 10.8499 -0.2471
32.6200 10.8567 -0.2684
32.6400 10.8634 -0.2678
32.6600 10.8701 -0.2479
32.6800 10.8767 -0.2697
32.7000 10.8834 -0.2598
32.7200 10.8900 -0.2512
32.7400 10.8967 -0.2681
32.7600 10.9033 -0.2623
32.7800 10.9100 -0.2573
32.8000 10.9167 -0.2727
32.8200 10.9234 -0.2565
32.8400 10.9300 -0.2560
32.8600 10.9367 -0.2739
32.8800 10.9434 -0.2584
32.9000 10.9501 -0.2607
32.9200 10.9567 -0.2716
32.9400 10.9633 -0.2575
32.9600 10.9700 -0.2604
32.9800 10.9767 -0.2713
33.0000 10.9834 -0.2595
33.0200 10.9901 -0.2658
33.0400 10.9967 -0.2650
33.0600 11.0034 -0.2650
33.0800 11.0101 -0.2696
33.1000 11.0167 -0.2681
33.1200 11.0233 -0.2583
33.1400 11.0300 -0.2701
33.1600 11.0367 -0.2652
33.1800 11.0434 -0.2689
33.2000 11.0501 -0.2682
33.2200 11.0568 -0.2596
33.2400 11.0635 -0.2745
33.2600 11.0701 -0.2731
33.2800 11.0767 -0.2628
33.3000 11.0833 -0.2699
33.3200 11.0900 -0.2710
33.3400 11.0967 -0.2673
33.3600 11.1034 -0.2718
33.3800 11.1100 -0.2725
33.4000 11.1167 -0.2637
33.4200 11.1234 -0.2740
33.4400 11.1300 -0.2739
33.4600 11.1366 -0.2665
33.4800 11.1433 -0.2749
33.5000 11.1499 -0.2667
33.5200 11.1566 -0.2723
33.5400 11.1634 -0.2746
33.5600 11.1700 -0.2686
33.5800 11.1767 -0.2708
33.6000 11.1834 -0.2733
33.6200 11.1901 -0.2738
33.6400 11.1967 -0.2722
33.6600 11.2033 -0.2710
33.6800 11.2100 -0.2733
33.7000 11.2167 -0.2800
33.7200 11.2234 -0.2777
33.7400 11.2301 -0.2748
33.7600 11.2368 -0.2771
33.7800 11.2434 -0.2781
33.8000 11.2501 -0.2757
33.8200 11.2567 -0.2739
33.8400 11.2633 -0.2752
33.8600 11.2700 -0.2806
33.8800 11.2767 -0.2730
33.9000 11.2834 -0.2798
33.9200 11.2901 -0.2783
33.9400 11.2968 -0.2762
33.9600 11.3034 -0.2800
33.9800 11.3101 -0.2779
34.0000 11.3167 -0.2757
34.0200 11.3233 -0.2792
34.0400 11.3299 -0.2783
34.0600 11.3366 -0.2793
34.0800 11.3433 -0.2792
34.1000 11.3500 -0.2815
34.1200 11.3567 -0.2760
34.1400 11.3634 -0.2849
34.1600 11.3701 -0.2844
34.1800 11.3766 -0.2746
34.2000 11.3832 -0.2823
34.2200 11.3899 -0.2791
34.2400 11.3966 -0.2786
34.2600 11.4034 -0.2852
34.2800 11.4100 -0.2835
34.3000 11.4167 -0.2782
34.3200 11.4234 -0.2855
34.3400 11.4300 -0.2785
34.3600 11.4367 -0.2794
34.3800 11.4433 -0.2860
34.4000 11.4500 -0.2766
34.4200 11.4567 -0.2811
34.4400 11.4634 -0.2923
34.4600 11.4701 -0.2735
34.4800 11.4768 -0.2826
34.5000 11.4835 -0.2876
34.5200 11.4901 -0.2788
34.5400 11.4967 -0.2833
34.5600 11.5033 -0.2876
34.5800 11.5100 -0.2779
34.6000 11.5167 -0.2838
34.6200 11.5234 -0.2870
34.6400 11.5301 -0.2810
34.6600 11.5368 -0.2880
34.6800 11.5434 -0.2862
34.7000 11.5501 -0.2787
34.7200 11.5567 -0.2892
34.7400 11.5633 -0.2825
34.7600 11.5699 -0.2805
34.7800 11.5766 -0.2907
34.8000 11.5834 -0.2794
34.8200 11.5900 -0.2845
34.8400 11.5967 -0.2874
34.8600 11.6034 -0.2824
34.8800 11.6100 -0.2835
34.9000 11.6167 -0.2910
34.9200 11.6233 -0.2816
34.9400 11.6299 -0.2865
34.9600 11.6366 -0.2835
34.9800 11.6433 -0.2867
35.0000 11.6500 -0.2854
35.0200 11.6567 -0.2840
35.0400 11.6634 -0.2929
35.0600 11.6701 -0.2912
35.0800 11.6767 -0.2843
35.1000 11.6833 -0.2871
35.1200 11.6900 -0.2914
35.1400 11.6967 -0.2890
35.1600 11.7034 -0.2921
35.1800 11.7101 -0.2875
35.2000 11.7168 -0.2879
35.2200 11.7234 -0.2896
35.2400 11.7301 -0.2898
35.2600 11.7367 -0.2867
35.2800 11.7433 -0.2912
35.3000 11.7500 -0.2875
35.3200 11.7567 -0.2913
35.3400 11.7634 -0.2883
35.3600 11.7701 -0.2929
35.3800 11.7767 -0.2901
35.4000 11.7834 -0.2875
35.4200 11.7901 -0.2934
35.4400 11.7967 -0.2929
35.4600 11.8034 -0.2891
35.4800 11.8100 -0.2931
35.5000 11.8167 -0.2883
35.5200 11.8233 -0.2894
35.5400 11.8300 -0.2924
35.5600 11.8367 -0.2882
35.5800 11.8434 -0.2925
35.6000 11.8501 -0.2936
35.6200 11.8567 -0.2880
35.6400 11.8633 -0.2927
35.6600 11.8699 -0.2946
35.6800 11.8766 -0.2848
35.7000 11.8833 -0.2945
35.7200 11.8900 -0.2976
35.7400 11.8967 -0.2866
35.7600 11.9034 -0.2941
35.7800 11.9100 -0.2953
35.8000 11.9167 -0.2846
35.8200 11.9233 -0.3005
35.8400 11.9299 -0.2876
35.8600 11.9366 -0.2847
35.8800 11.9433 -0.3014
35.9000 11.9500 -0.2951
35.9200 11.9567 -0.2808
35.9400 11.9634 -0.2982
35.9600 11.9701 -0.2970
35.9800 11.9767 -0.2837
36.0000 11.9833 -0.2957
36.0200 11.9900 -0.2967
36.0400 11.9967 -0.2825
36.0600 12.0034 -0.3003
36.0800 12.0101 -0.2945
36.1000 12.0168 -0.2830
36.1200 12.0234 -0.3061
36.1400 12.0301 -0.2887
36.1600 12.0367 -0.2914
36.1800 12.0433 -0.3032
36.2000 12.0499 -0.2877
36.2200 12.0567 -0.2922
36.2400 12.0634 -0.3046
36.2600 12.0701 -0.2892
36.2800 12.0767 -0.2958
36.3000 12.0834 -0.3020
36.3200 12.0901 -0.2904
36.3400 12.0967 -0.2981
36.3600 12.1033 -0.2995
36.3800 12.1099 -0.2875
36.4000 12.1166 -0.3042
36.4200 12.1233 -0.2998
36.4400 12.1300 -0.2917
36.4600 12.1367 -0.2998
36.4800 12.1434 -0.3026
36.5000 12.1501 -0.2975
36.5200 12.1567 -0.3008
36.5400 12.1633 -0.2984
36.5600 12.1700 -0.2984
36.5800 12.1766 -0.3035
36.6000 12.1834 -0.2919
36.6200 12.1901 -0.3029
36.6400 12.1967 -0.3067
36.6600 12.2034 -0.2981
36.6800 12.2101 -0.3024
36.7000 12.2167 -0.3018
36.7200 12.2233 -0.2975
36.7400 12.2300 -0.3105
36.7600 12.2367 -0.2966
36.7800 12.2434 -0.3018
36.8000 12.2501 -0.3156
36.8200 12.2568 -0.2994
36.8400 12.2634 -0.3001
36.8600 12.2701 -0.3159
36.8800 12.2767 -0.3012
36.9000 12.2833 -0.2973
36.9200 12.2899 -0.3094
36.9400 12.2966 -0.3006
36.9600 12.3033 -0.3062
36.9800 12.3100 -0.3135
37.0000 12.3167 -0.2947
37.0200 12.3234 -0.3121
37.0400 12.3301 -0.3176
37.0600 12.3367 -0.2951
37.0800 12.3433 -0.3107
37.1000 12.3499 -0.3143
37.1200 12.3566 -0.3023
37.1400 12.3633 -0.3030
37.1600 12.3700 -0.3173
37.1800 12.3767 -0.3054
37.2000 12.3834 -0.3083
37.2200 12.3901 -0.3127
37.2400 12.3967 -0.3027
37.2600 12.4033 -0.3086
37.2800 12.4099 -0.3133
37.3000 12.4166 -0.3024
37.3200 12.4234 -0.3081
37.3400 12.4301 -0.3138
37.3600 12.4367 -0.3057
37.3800 12.4434 -0.3089
37.4000 12.4501 -0.3160
37.4200 12.4568 -0.3064
37.4400 12.4634 -0.3156
37.4600 12.4700 -0.3117
37.4800 12.4767 -0.3042
37.5000 12.4833 -0.3186
37.5200 12.4900 -0.3078
37.5400 12.4967 -0.3092
37.5600 12.5034 -0.3109
37.5800 12.5101 -0.3155
37.6000 12.5168 -0.3109
37.6200 12.5234 -0.3109
37.6400 12.5300 -0.3107
37.6600 12.5366 -0.3117
37.6800 12.5433 -0.3090
37.7000 12.5500 -0.3111
37.7200 12.5567 -0.3145
37.7400 12.5634 -0.3103
37.7600 12.5701 -0.3115
37.7800 12.5767 -0.3155
37.8000 12.5833 -0.3125
37.8200 12.5899 -0.3136
37.8400 12.5966 -0.3127
37.8600 12.6033 -0.3139
37.8800 12.6100 -0.3123
37.9000 12.6167 -0.3151
37.9200 12.6233 -0.3160
37.9400 12.6300 -0.3123
37.9600 12.6367 -0.3200
37.9800 12.6433 -0.3158
38.0000 12.6500 -0.3109
38.0200 12.6566 -0.3182
38.0400 12.6634 -0.3160
38.0600 12.6701 -0.3110
38.0800 12.6768 -0.3220
38.1000 12.6834 -0.3110
38.1200 12.6901 -0.3159
38.1400 12.6968 -0.3228
38.1600 12.7034 -0.3152
38.1800 12.7100 -0.3102
38.2000 12.7166 -0.3247
38.2200 12.7233 -0.3120
38.2400 12.7301 -0.3180
38.2600 12.7367 -0.3241
38.2800 12.7434 -0.3108
38.3000 12.7501 -0.3227
38.3200 12.7567 -0.3226
38.3400 12.7633 -0.3133
38.3600 12.7699 -0.3219
38.3800 12.7766 -0.3175
38.4000 12.7834 -0.3147
38.4200 12.7901 -0.3225
38.4400 12.7967 -0.3170
38.4600 12.8034 -0.3193
38.4800 12.8101 -0.3200
38.5000 12.8167 -0.3210
38.5200 12.8234 -0.3193
38.5400 12.8300 -0.3222
38.5600 12.8366 -0.3181
38.5800 12.8433 -0.3242
38.6000 12.8500 -0.3200
38.6200 12.8567 -0.3191
38.6400 12.8633 -0.3234
38.6600 12.8700 -0.3255
38.6800 12.8767 -0.3193
38.7000 12.8833 -0.3246
38.7200 12.8899 -0.3203
38.7400 12.8966 -0.3221
38.7600 12.9033 -0.3272
38.7800 12.9101 -0.3188
38.8000 12.9168 -0.3245
38.8200 12.9234 -0.3307
38.8400 12.9301 -0.3159
38.8600 12.9367 -0.3259
38.8800 12.9433 -0.3281
38.9000 12.9500 -0.3141
38.9200 12.9566 -0.3292
38.9400 12.9634 -0.3262
38.9600 12.9701 -0.3211
38.9800 12.9768 -0.3285
39.0000 12.9834 -0.3280
39.0200 12.9901 -0.3205
39.0400 12.9967 -0.3316
39.0600 13.0034 -0.3221
39.0800 13.0100 -0.3195
39.1000 13.0166 -0.3333
39.1200 13.0233 -0.3247
39.1400 13.0300 -0.3227
39.1600 13.0367 -0.3348
39.1800 13.0434 -0.3217
39.2000 13.0501 -0.3242
39.2200 13.0567 -0.3345
39.2400 13.0633 -0.3291
39.2600 13.0699 -0.3256
39.2800 13.0766 -0.3306
39.3000 13.0833 -0.3295
39.3200 13.0900 -0.3258
39.3400 13.0967 -0.3340
39.3600 13.1034 -0.3348
39.3800 13.1101 -0.3260
39.4000 13.1167 -0.3349
39.4200 13.1234 -0.3335
39.4400 13.1300 -0.3202
39.4600 13.1366 -0.3360
39.4800 13.1434 -0.3387
39.5000 13.1501 -0.3273
39.5200 13.1567 -0.3348
39.5400 13.1634 -0.3355
39.5600 13.1701 -0.3268
39.5800 13.1767 -0.3408
39.6000 13.1834 -0.3337
39.6200 13.1900 -0.3297
39.6400 13.1966 -0.3382
39.6600 13.2033 -0.3327
39.6800 13.2100 -0.3266
39.7000 13.2167 -0.3411
39.7200 13.2234 -0.3296
39.7400 13.2301 -0.3307
39.7600 13.2368 -0.3453
39.7800 13.2434 -0.3284
39.8000 13.2500 -0.3353
39.8200 13.2566 -0.3399
39.8400 13.2633 -0.3264
39.8600 13.2700 -0.3381
39.8800 13.2767 -0.3420
39.9000 13.2834 -0.3269
39.9200 13.2901 -0.3365
39.9400 13.2967 -0.3404
39.9600 13.3034 -0.3300
39.9800 13.3100 -0.3356
40.0000 13.3166 -0.3418
40.0200 13.3233 -0.3261
40.0400 13.3300 -0.3409
40.0600 13.3367 -0.3380
40.0800 13.3433 -0.3317
40.1000 13.3500 -0.3425
40.1200 13.3567 -0.3374
40.1400 13.3633 -0.3272
40.1600 13.3700 -0.3391
40.1800 13.3766 -0.3364
40.2000 13.3833 -0.3294
40.2200 13.3900 -0.3433
40.2400 13.3967 -0.3363
40.2600 13.4035 -0.3274
40.2800 13.4102 -0.3453
40.3000 13.4168 -0.3394
40.3200 13.4234 -0.3281
40.3400 13.4300 -0.3448
40.3600 13.4366 -0.3323
40.3800 13.4433 -0.3357
40.4000 13.4501 -0.3399
40.4200 13.4568 -0.3361
40.4400 13.4634 -0.3390
40.4600 13.4701 -0.3424
40.4800 13.4768 -0.3342
40.5000 13.4834 -0.3407
40.5200 13.4900 -0.3427
40.5400 13.4966 -0.3364
40.5600 13.5033 -0.3367
40.5800 13.5100 -0.3387
40.6000 13.5167 -0.3376
40.6200 13.5234 -0.3414
40.6400 13.5300 -0.3379
40.6600 13.5367 -0.3434
40.6800 13.5433 -0.3406
40.7000 13.5499 -0.3377
40.7200 13.5565 -0.3424
40.7400 13.5632 -0.3391
40.7600 13.5700 -0.3432
40.7800 13.5767 -0.3419
40.8000 13.5834 -0.3373
40.8200 13.5901 -0.3400
40.8400 13.5967 -0.3462
40.8600 13.6034 -0.3354
40.8800 13.6100 -0.3426
40.9000 13.6166 -0.3437
40.9200 13.6233 -0.3361
40.9400 13.6300 -0.3429
40.9600 13.6368 -0.3442
40.9800 13.6434 -0.3387
41.0000 13.6501 -0.3448
41.0200 13.6568 -0.3462
41.0400 13.6634 -0.3403
41.0600 13.6700 -0.3398
41.0800 13.6767 -0.3453
41.1000 13.6833 -0.3410
41.1200 13.6900 -0.3429
41.1400 13.6967 -0.3483
41.1600 13.7034 -0.3400
41.1800 13.7101 -0.3449
41.2000 13.7168 -0.3473
41.2200 13.7234 -0.3459
41.2400 13.7300 -0.3433
41.2600 13.7366 -0.3483
41.2800 13.7433 -0.3412
41.3000 13.7500 -0.3478
41.3200 13.7567 -0.3479
41.3400 13.7634 -0.3447
41.3600 13.7701 -0.3467
41.3800 13.7767 -0.3503
41.4000 13.7834 -0.3429
41.4200 13.7900 -0.3460
41.4400 13.7966 -0.3497
41.4600 13.8033 -0.3448
41.4800 13.8100 -0.3470
41.5000 13.8167 -0.3513
41.5200 13.8233 -0.3402
41.5400 13.8300 -0.3513
41.5600 13.8367 -0.3502
41.5800 13.8434 -0.3436
41.6000 13.8500 -0.3583
41.6200 13.8567 -0.3488
41.6400 13.8633 -0.3405
41.6600 13.8700 -0.3594
41.6800 13.8767 -0.3531
41.7000 13.8834 -0.3448
41.7200 13.8901 -0.3581
41.7400 13.8968 -0.3485
41.7600 13.9034 -0.3499
41.7800 13.9100 -0.3575
41.8000 13.9166 -0.3436
41.8200 13.9233 -0.3496
41.8400 13.9300 -0.3608
41.8600 13.9367 -0.3433
41.8800 13.9434 -0.3548
41.9000 13.9501 -0.3602
41.9200 13.9568 -0.3458
41.9400 13.9634 -0.3556
41.9600 13.9700 -0.3566
41.9800 13.9766 -0.3424
42.0000 13.9833 -0.3579
42.0200 13.9900 -0.3510
42.0400 13.9967 -0.3476
42.0600 14.0034 -0.3626
42.0800 14.0100 -0.3457
42.1000 14.0167 -0.3579
42.1200 14.0234 -0.3557
42.1400 14.0300 -0.3501
42.1600 14.0366 -0.3569
42.1800 14.0433 -0.3583
42.2000 14.0500 -0.3504
42.2200 14.0567 -0.3592
42.2400 14.0633 -0.3583
42.2600 14.0700 -0.3514
42.2800 14.0767 -0.3588
42.3000 14.0834 -0.3580
42.3200 14.0900 -0.3492
42.3400 14.0966 -0.3593
42.3600 14.1033 -0.3577
42.3800 14.1100 -0.3560
42.4000 14.1167 -0.3628
42.4200 14.1234 -0.3545
42.4400 14.1301 -0.3502
42.4600 14.1368 -0.3637
42.4800 14.1434 -0.3591
42.5000 14.1500 -0.3515
42.5200 14.1567 -0.3648
42.5400 14.1633 -0.3566
42.5600 14.1700 -0.3528
42.5800 14.1767 -0.3638
42.6000 14.1834 -0.3587
42.6200 14.1901 -0.3561
42.6400 14.1968 -0.3682
42.6600 14.2034 -0.3573
42.6800 14.2100 -0.3590
42.7000 14.2166 -0.3649
42.7200 14.2233 -0.3587
42.7400 14.2300 -0.3568
42.7600 14.2367 -0.3667
42.7800 14.2434 -0.3561
42.8000 14.2501 -0.3617
42.8200 14.2568 -0.3658
42.8400 14.2634 -0.3572
42.8600 14.2700 -0.3658
42.8800 14.2766 -0.3598
42.9000 14.2833 -0.3593
42.9200 14.2900 -0.3681
42.9400 14.2967 -0.3593
42.9600 14.3034 -0.3589
42.9800 14.3100 -0.3671
43.0000 14.3167 -0.3559
43.0200 14.3234 -0.3618
43.0400 14.3300 -0.3666
43.0600 14.3366 -0.3574
43.0800 14.3433 -0.3657
43.1000 14.3500 -0.3690
43.1200 14.3567 -0.3548
43.1400 14.3634 -0.3703
43.1600 14.3700 -0.3610
43.1800 14.3767 -0.3576
43.2000 14.3834 -0.3729
43.2200 14.3901 -0.3610
43.2400 14.3967 -0.3589
43.2600 14.4033 -0.3724
43.2800 14.4100 -0.3524
43.3000 14.4167 -0.3616
43.3200 14.4234 -0.3758
43.3400 14.4301 -0.3533
43.3600 14.4368 -0.3642
43.3800 14.4434 -0.3769
43.4000 14.4500 -0.3535
43.4200 14.4566 -0.3656
43.4400 14.4633 -0.3718
43.4600 14.4700 -0.3538
43.4800 14.4767 -0.3716
43.5000 14.4834 -0.3695
43.5200 14.4901 -0.3561
43.5400 14.4967 -0.3677
43.5600 14.5034 -0.3759
43.5800 14.5100 -0.3592
43.6000 14.5166 -0.3681
43.6200 14.5233 -0.3717
43.6400 14.5300 -0.3626
43.6600 14.5367 -0.3688
43.6800 14.5433 -0.3724
43.7000 14.5500 -0.3633
43.7200 14.5567 -0.3684
43.7400 14.5634 -0.3706
43.7600 14.5700 -0.3676
43.7800 14.5767 -0.3658
43.8000 14.5833 -0.3762
43.8200 14.5900 -0.3718
43.8400 14.5967 -0.3658
43.8600 14.6034 -0.3744
43.8800 14.6101 -0.3704
43.9000 14.6167 -0.3694
43.9200 14.6234 -0.3727
43.9400 14.6300 -0.3728
43.9600 14.6366 -0.3658
43.9800 14.6433 -0.3783
44.0000 14.6500 -0.3710
44.0200 14.6568 -0.3687
44.0400 14.6634 -0.3808
44.0600 14.6701 -0.3725
44.0800 14.6767 -0.3680
44.1000 14.6834 -0.3779
44.1200 14.6900 -0.3726
44.1400 14.6966 -0.3680
44.1600 14.7033 -0.3811
44.1800 14.7100 -0.3778
44.2000 14.7167 -0.3725
44.2200 14.7234 -0.3847
44.2400 14.7300 -0.3718
44.2600 14.7367 -0.3736
44.2800 14.7434 -0.3851
44.3000 14.7500 -0.3747
44.3200 14.7566 -0.3746
44.3400 14.7632 -0.3819
44.3600 14.7699 -0.3774
44.3800 14.7767 -0.3754
44.4000 14.7834 -0.3859
44.4200 14.7900 -0.3735
44.4400 14.7967 -0.3801
44.4600 14.8034 -0.3827
44.4800 14.8100 -0.3745
44.5000 14.8166 -0.3781
44.5200 14.8233 -0.3891
44.5400 14.8300 -0.3741
44.5600 14.8367 -0.3856
44.5800 14.8434 -0.3843
44.6000 14.8501 -0.3768
44.6200 14.8568 -0.3804
44.6400 14.8634 -0.3806
44.6600 14.8701 -0.3799
44.6800 14.8767 -0.3866
44.7000 14.8833 -0.3794
44.7200 14.8900 -0.3764
44.7400 14.8967 -0.3874
44.7600 14.9034 -0.3773
44.7800 14.9101 -0.3839
44.8000 14.9168 -0.3854
44.8200 14.9235 -0.3812
44.8400 14.9301 -0.3831
44.8600 14.9367 -0.3828
44.8800 14.9433 -0.3782
44.9000 14.9499 -0.3904
44.9200 14.9567 -0.3758
44.9400 14.9633 -0.3826
44.9600 14.9700 -0.3882
44.9800 14.9767 -0.3769
45.0000 14.9834 -0.3894
45.0200 14.9900 -0.3887
45.0400 14.9966 -0.3707
45.0600 15.0033 -0.3946
45.0800 15.0100 -0.3874
45.1000 15.0167 -0.3754
45.1200 15.0234 -0.3954
45.1400 15.0300 -0.3846
45.1600 15.0367 -0.3776
45.1800 15.0434 -0.4005
45.2000 15.0501 -0.3812
45.2200 15.0567 -0.3772
45.2400 15.0633 -0.4004
45.2600 15.0700 -0.3805
45.2800 15.0767 -0.3847
45.3000 15.0834 -0.3998
45.3200 15.0901 -0.3816
45.3400 15.0968 -0.3842
45.3600 15.1035 -0.4002
45.3800 15.1101 -0.3798
45.4000 15.1167 -0.3877
45.4200 15.1233 -0.3970
45.4400 15.1300 -0.3852
45.4600 15.1367 -0.3894
45.4800 15.1434 -0.3988
45.5000 15.1501 -0.3869
45.5200 15.1568 -0.3868
45.5400 15.1634 -0.3944
45.5600 15.1700 -0.3915
45.5800 15.1766 -0.3917
45.6000 15.1833 -0.3908
45.6200 15.1900 -0.3949
45.6400 15.1967 -0.3909
45.6600 15.2034 -0.3929
45.6800 15.2101 -0.3944
45.7000 15.2167 -0.3905
45.7200 15.2234 -0.3938
45.7400 15.2300 -0.3981
45.7600 15.2367 -0.3904
45.7800 15.2433 -0.3949
45.8000 15.2500 -0.3991
45.8200 15.2567 -0.3938
45.8400 15.2633 -0.3930
45.8600 15.2700 -0.4028
45.8800 15.2767 -0.3903
45.9000 15.2834 -0.3974
45.9200 15.2901 -0.4010
45.9400 15.2967 -0.3896
45.9600 15.3033 -0.4005
45.9800 15.3100 -0.4036
46.0000 15.3167 -0.3816
46.0200 15.3234 -0.4028
46.0400 15.3301 -0.4061
46.0600 15.3368 -0.3871
46.0800 15.3434 -0.4027
46.1000 15.3501 -0.4018
46.1200 15.3567 -0.3910
46.1400 15.3633 -0.4063
46.1600 15.3700 -0.3977
46.1800 15.3767 -0.3933
46.2000 15.3834 -0.4116
46.2200 15.3901 -0.3906
46.2400 15.3968 -0.3953
46.2600 15.4034 -0.4125
46.2800 15.4101 -0.3979
46.3000 15.4167 -0.3972
46.3200 15.4233 -0.4110
46.3400 15.4299 -0.3921
46.3600 15.4367 -0.3998
46.3800 15.4434 -0.4116
46.4000 15.4500 -0.3941
46.4200 15.4567 -0.3993
46.4400 15.4634 -0.4098
46.4600 15.4701 -0.3973
46.4800 15.4766 -0.4074
46.5000 15.4832 -0.4052
46.5200 15.4899 -0.3962
46.5400 15.4966 -0.4038
46.5600 15.5034 -0.4047
46.5800 15.5100 -0.4025
46.6000 15.5167 -0.4071
46.6200 15.5234 -0.4028
46.6400 15.5300 -0.3994
46.6600 15.5367 -0.4076
46.6800 15.5433 -0.4015
46.7000 15.5500 -0.4008
46.7200 15.5567 -0.4064
46.7400 15.5634 -0.4046
46.7600 15.5700 -0.4002
46.7800 15.5767 -0.4076
46.8000 15.5835 -0.4027
46.8200 15.5901 -0.4071
46.8400 15.5967 -0.4046
46.8600 15.6033 -0.3996
46.8800 15.6100 -0.4025
46.9000 15.6167 -0.4068
46.9200 15.6234 -0.4051
46.9400 15.6301 -0.4021
46.9600 15.6368 -0.4051
46.9800 15.6434 -0.3993
47.0000 15.6500 -0.4071
47.0200 15.6566 -0.4062
47.0400 15.6633 -0.4029
47.0600 15.6700 -0.4101
47.0800 15.6767 -0.4068
47.1000 15.6834 -0.3990
47.1200 15.6900 -0.4133
47.1400 15.6967 -0.4047
47.1600 15.7034 -0.3990
47.1800 15.7100 -0.4113
47.2000 15.7166 -0.4084
47.2200 15.7233 -0.3992
47.2400 15.7300 -0.4058
47.2600 15.7367 -0.4076
47.2800 15.7434 -0.4019
47.3000 15.7501 -0.4060
47.3200 15.7567 -0.4142
47.3400 15.7634 -0.3993
47.3600 15.7701 -0.4128
47.3800 15.7767 -0.4114
47.4000 15.7833 -0.3985
47.4200 15.7900 -0.4111
47.4400 15.7967 -0.4133
47.4600 15.8034 -0.4030
47.4800 15.8101 -0.4093
47.5000 15.8168 -0.4166
47.5200 15.8234 -0.4059
47.5400 15.8301 -0.4116
47.5600 15.8367 -0.4084
47.5800 15.8433 -0.4020
47.6000 15.8499 -0.4104
47.6200 15.8567 -0.4172
47.6400 15.8634 -0.4099
47.6600 15.8701 -0.4078
47.6800 15.8768 -0.4138
47.7000 15.8834 -0.4067
47.7200 15.8901 -0.4078
47.7400 15.8967 -0.4136
47.7600 15.9033 -0.4020
47.7800 15.9100 -0.4089
47.8000 15.9167 -0.4148
47.8200 15.9234 -0.4107
47.8400 15.9300 -0.4096
47.8600 15.9367 -0.4173
47.8800 15.9434 -0.4101
47.9000 15.9501 -0.4124
47.9200 15.9567 -0.4189
47.9400 15.9633 -0.4078
47.9600 15.9699 -0.4069
47.9800 15.9766 -0.4177
48.0000 15.9833 -0.4118
48.0200 15.9900 -0.4087
48.0400 15.9967 -0.4225
48.0600 16.0034 -0.4069
48.0800 16.0101 -0.4104
48.1000 16.0167 -0.4207
48.1200 16.0233 -0.4134
48.1400 16.0300 -0.4142
48.1600 16.0367 -0.4205
48.1800 16.0434 -0.4094
48.2000 16.0501 -0.4173
48.2200 16.0568 -0.4262
48.2400 16.0634 -0.4124
48.2600 16.0701 -0.4198
48.2800 16.0767 -0.4239
48.3000 16.0833 -0.4078
48.3200 16.0900 -0.4222
48.3400 16.0967 -0.4268
48.3600 16.1034 -0.4060
48.3800 16.1101 -0.4235
48.4000 16.1168 -0.4259
48.4200 16.1234 -0.4092
48.4400 16.1301 -0.4242
48.4600 16.1367 -0.4236
48.4800 16.1433 -0.4115
48.5000 16.1499 -0.4282
48.5200 16.1566 -0.4174
48.5400 16.1633 -0.4183
48.5600 16.1700 -0.4264
48.5800 16.1767 -0.4176
48.6000 16.1834 -0.4161
48.6200 16.1901 -0.4293
48.6400 16.1967 -0.4214
48.6600 16.2033 -0.4194
48.6800 16.2099 -0.4279
48.7000 16.2166 -0.4220
48.7200 16.2233 -0.4194
48.7400 16.2300 -0.4285
48.7600 16.2367 -0.4220
48.7800 16.2434 -0.4210
48.8000 16.2500 -0.4262
48.8200 16.2567 -0.4269
48.8400 16.2633 -0.4229
48.8600 16.2700 -0.4265
48.8800 16.2767 -0.4279
48.9000 16.2834 -0.4169
48.9200 16.2901 -0.4341
48.9400 16.2968 -0.4288
48.9600 16.3035 -0.4187
48.9800 16.3101 -0.4323
49.0000 16.3167 -0.4298
49.0200 16.3233 -0.4232
49.0400 16.3300 -0.4316
49.0600 16.3367 -0.4244
49.0800 16.3434 -0.4244
49.1000 16.3501 -0.4319
49.1200 16.3568 -0.4277
49.1400 16.3634 -0.4261
49.1600 16.3701 -0.4330
49.1800 16.3767 -0.4274
49.2000 16.3833 -0.4276
49.2200 16.3899 -0.4316
49.2400 16.3966 -0.4302
49.2600 16.4033 -0.4304
49.2800 16.4100 -0.4303
49.3000 16.4167 -0.4348
49.3200 16.4234 -0.4327
49.3400 16.4301 -0.4327
49.3600 16.4367 -0.4357
49.3800 16.4433 -0.4267
49.4000 16.4499 -0.4306
49.4200 16.4566 -0.4424
49.4400 16.4633 -0.4286
49.4600 16.4700 -0.4287
49.4800 16.4767 -0.4425
49.5000 16.4834 -0.4293
49.5200 16.4901 -0.4306
49.5400 16.4967 -0.4482
49.5600 16.5033 -0.4285
49.5800 16.5100 -0.4301
49.6000 16.5166 -0.4358
49.6200 16.5234 -0.4364
49.6400 16.5301 -0.4382
49.6600 16.5368 -0.4317
49.6800 16.5434 -0.4325
49.7000 16.5501 -0.4401
49.7200 16.5567 -0.4391
49.7400 16.5633 -0.4317
49.7600 16.5700 -0.4423
49.7800 16.5767 -0.4341
49.8000 16.5834 -0.4336
49.8200 16.5900 -0.4459
49.8400 16.5967 -0.4305
49.8600 16.6034 -0.4371
49.8800 16.6101 -0.4469
49.9000 16.6168 -0.4288
49.9200 16.6234 -0.4459
49.9400 16.6300 -0.4425
49.9600 16.6367 -0.4316
49.9800 16.6434 -0.4391
50.0000 16.6500 -0.4393
50.0200 16.6567 -0.4406
50.0400 16.6634 -0.4468
50.0600 16.6701 -0.4347
50.0800 16.6767 -0.4355
50.1000 16.6833 -0.4509
50.1200 16.6899 -0.4365
50.1400 16.6966 -0.4394
50.1600 16.7033 -0.4472
50.1800 16.7100 -0.4342
50.2000 16.7167 -0.4451
50.2200 16.7234 -0.4474
50.2400 16.7301 -0.4318
50.2600 16.7367 -0.4478
50.2800 16.7433 -0.4472
50.3000 16.7499 -0.4354
50.3200 16.7566 -0.4456
50.3400 16.7634 -0.4525
50.3600 16.7701 -0.4340
50.3800 16.7767 -0.4485
50.4000 16.7834 -0.4473
50.4200 16.7901 -0.4408
50.4400 16.7967 -0.4487
50.4600 16.8033 -0.4452
50.4800 16.8100 -0.4380
50.5000 16.8166 -0.4517
50.5200 16.8234 -0.4442
50.5400 16.8301 -0.4449
50.5600 16.8367 -0.4502
50.5800 16.8434 -0.4457
50.6000 16.8501 -0.4477
50.6200 16.8568 -0.4496
50.6400 16.8633 -0.4445
50.6600 16.8699 -0.4473
50.6800 16.8766 -0.4505
50.7000 16.8834 -0.4423
50.7200 16.8901 -0.4518
50.7400 16.8968 -0.4516
50.7600 16.9034 -0.4427
50.7800 16.9101 -0.4479
50.8000 16.9167 -0.4519
50.8200 16.9233 -0.4477
50.8400 16.9299 -0.4484
50.8600 16.9366 -0.4474
50.8800 16.9433 -0.4548
50.9000 16.9500 -0.4515
50.9200 16.9566 -0.4489
50.9400 16.9633 -0.4533
50.9600 16.9700 -0.4503
50.9800 16.9767 -0.4443
51.0000 16.9833 -0.4612
51.0200 16.9899 -0.4475
51.0400 16.9966 -0.4455
51.0600 17.0033 -0.4630
51.0800 17.0101 -0.4475
51.1000 17.0168 -0.4505
51.1200 17.0234 -0.4577
51.1400 17.0301 -0.4499
51.1600 17.0367 -0.4548
51.1800 17.0433 -0.4609
51.2000 17.0500 -0.4416
51.2200 17.0567 -0.4569
51.2400 17.0634 -0.4615
51.2600 17.0701 -0.4468
51.2800 17.0767 -0.4547
51.3000 17.0834 -0.4626
51.3200 17.0901 -0.4488
51.3400 17.0967 -0.4599
51.3600 17.1033 -0.4577
51.3800 17.1099 -0.4522
51.4000 17.1166 -0.4589
51.4200 17.1233 -0.4588
51.4400 17.1300 -0.4550
51.4600 17.1367 -0.4585
51.4800 17.1434 -0.4592
51.5000 17.1501 -0.4563
51.5200 17.1567 -0.4557
51.5400 17.1633 -0.4626
51.5600 17.1699 -0.4561
51.5800 17.1766 -0.4539
51.6000 17.1833 -0.4636
51.6200 17.1900 -0.4604
51.6400 17.1967 -0.4586
51.6600 17.2034 -0.4621
51.6800 17.2101 -0.4595
51.7000 17.2167 -0.4545
51.7200 17.2233 -0.4666
51.7400 17.2299 -0.4632
51.7600 17.2366 -0.4567
51.7800 17.2433 -0.4623
51.8000 17.2500 -0.4675
51.8200 17.2567 -0.4608
51.8400 17.2634 -0.4647
51.8600 17.2701 -0.4669
51.8800 17.2768 -0.4666
51.9000 17.2834 -0.4614
51.9200 17.2900 -0.4664
51.9400 17.2966 -0.4623
51.9600 17.3033 -0.4621
51.9800 17.3101 -0.4671
52.0000 17.3167 -0.4633
52.0200 17.3234 -0.4659
52.0400 17.3301 -0.4671
52.0600 17.3367 -0.4635
52.0800 17.3433 -0.4677
52.1000 17.3499 -0.4717
52.1200 17.3566 -0.4581
52.1400 17.3633 -0.4690
52.1600 17.3700 -0.4691
52.1800 17.3767 -0.4583
52.2000 17.3834 -0.4711
52.2200 17.3901 -0.4690
52.2400 17.3967 -0.4597
52.2600 17.4033 -0.4742
52.2800 17.4099 -0.4684
52.3000 17.4166 -0.4628
52.3200 17.4233 -0.4727
52.3400 17.4300 -0.4691
52.3600 17.4367 -0.4610
52.3800 17.4433 -0.4761
52.4000 17.4500 -0.4660
52.4200 17.4567 -0.4629
52.4400 17.4633 -0.4777
52.4600 17.4700 -0.4655
52.4800 17.4766 -0.4614
52.5000 17.4833 -0.4762
52.5200 17.4901 -0.4735
52.5400 17.4967 -0.4671
52.5600 17.5034 -0.4691
52.5800 17.5101 -0.4661
52.6000 17.5168 -0.4786
52.6200 17.5234 -0.4729
52.6400 17.5300 -0.4680
52.6600 17.5366 -0.4716
52.6800 17.5433 -0.4719
52.7000 17.5501 -0.4711
52.7200 17.5568 -0.4758
52.7400 17.5634 -0.4690
52.7600 17.5701 -0.4792
52.7800 17.5768 -0.4740
52.8000 17.5834 -0.4686
52.8200 17.5900 -0.4767
52.8400 17.5966 -0.4715
52.8600 17.6033 -0.4711
52.8800 17.6100 -0.4755
52.9000 17.6167 -0.4726
52.9200 17.6234 -0.4769
52.9400 17.6301 -0.4850
52.9600 17.6367 -0.4668
52.9800 17.6434 -0.4757
53.0000 17.6500 -0.4853
53.0200 17.6566 -0.4655
53.0400 17.6633 -0.4733
53.0600 17.6700 -0.4854
53.0800 17.6767 -0.4682
53.1000 17.6834 -0.4829
53.1200 17.6900 -0.4874
53.1400 17.6967 -0.4729
53.1600 17.7034 -0.4845
53.1800 17.7100 -0.4803
53.2000 17.7166 -0.4666
53.2200 17.7233 -0.4925
53.2400 17.7301 -0.4800
53.2600 17.7367 -0.4663
53.2800 17.7434 -0.4872
53.3000 17.7501 -0.4815
53.3200 17.7568 -0.4758
53.3400 17.7634 -0.4870
53.3600 17.7700 -0.4826
53.3800 17.7766 -0.4728
53.4000 17.7834 -0.4878
53.4200 17.7901 -0.4836
53.4400 17.7968 -0.4824
53.4600 17.8034 -0.4890
53.4800 17.8101 -0.4798
53.5000 17.8167 -0.4809
53.5200 17.8234 -0.4895
53.5400 17.8300 -0.4827
53.5600 17.8366 -0.4836
53.5800 17.8433 -0.4908
53.6000 17.8500 -0.4822
53.6200 17.8567 -0.4782
53.6400 17.8633 -0.4915
53.6600 17.8700 -0.4855
53.6800 17.8767 -0.4784
53.7000 17.8833 -0.4909
53.7200 17.8899 -0.4889
53.7400 17.8966 -0.4781
53.7600 17.9033 -0.4872
53.7800 17.9100 -0.4931
53.8000 17.9167 -0.4834
53.8200 17.9234 -0.4838
53.8400 17.9301 -0.4937
53.8600 17.9367 -0.4856
53.8800 17.9434 -0.4839
53.9000 17.9500 -0.4941
53.9200 17.9566 -0.4862
53.9400 17.9633 -0.4848
53.9600 17.9700 -0.4926
53.9800 17.9767 -0.4884
54.0000 17.9834 -0.4864
54.0200 17.9901 -0.5016
54.0400 17.9968 -0.4865
54.0600 18.0034 -0.4807
54.0800 18.0100 -0.4978
54.1000 18.0166 -0.4919
54.1200 18.0233 -0.4815
54.1400 18.0300 -0.4995
54.1600 18.0367 -0.4928
54.1800 18.0434 -0.4851
54.2000 18.0501 -0.4960
54.2200 18.0568 -0.4890
54.2400 18.0634 -0.4928
54.2600 18.0700 -0.4956
54.2800 18.0766 -0.4891
54.3000 18.0833 -0.4906
54.3200 18.0901 -0.4990
54.3400 18.0967 -0.4934
54.3600 18.1034 -0.4934
54.3800 18.1101 -0.4943
54.4000 18.1167 -0.4960
54.4200 18.1234 -0.4937
54.4400 18.1300 -0.4973
54.4600 18.1366 -0.4950
54.4800 18.1433 -0.4949
54.5000 18.1500 -0.4948
54.5200 18.1567 -0.4979
54.5400 18.1633 -0.4940
54.5600 18.1700 -0.4992
54.5800 18.1767 -0.4994
54.6000 18.1833 -0.4955
54.6200 18.1900 -0.4953
54.6400 18.1966 -0.5061
54.6600 18.2033 -0.4966
54.6800 18.2100 -0.4958
54.7000 18.2167 -0.5108
54.7200 18.2234 -0.4949
54.7400 18.2302 -0.4978
54.7600 18.2368 -0.5062
54.7800 18.2434 -0.5036
54.8000 18.2500 -0.4965
54.8200 18.2566 -0.5082
54.8400 18.2633 -0.4991
54.8600 18.2701 -0.5008
54.8800 18.2768 -0.5096
54.9000 18.2834 -0.4997
54.9200 18.2901 -0.4954
54.9400 18.2968 -0.5105
54.9600 18.3034 -0.5015
54.9800 18.3100 -0.5003
55.0000 18.3166 -0.5085
55.0200 18.3233 -0.5024
55.0400 18.3300 -0.5041
55.0600 18.3367 -0.5111
55.0800 18.3434 -0.5041
55.1000 18.3500 -0.5055
55.1200 18.3567 -0.5119
55.1400 18.3634 -0.5011
55.1600 18.3700 -0.5097
55.1800 18.3766 -0.5130
55.2000 18.3832 -0.5003
55.2200 18.3900 -0.5082
55.2400 18.3967 -0.5135
55.2600 18.4033 -0.5003
55.2800 18.4100 -0.5124
55.3000 18.4167 -0.5135
55.3200 18.4233 -0.5069
55.3400 18.4300 -0.5117
55.3600 18.4366 -0.5074
55.3800 18.4433 -0.5054
55.4000 18.4500 -0.5192
55.4200 18.4567 -0.5060
55.4400 18.4634 -0.5068
55.4600 18.4701 -0.5162
55.4800 18.4768 -0.5116
55.5000 18.4834 -0.5132
55.5200 18.4900 -0.5138
55.5400 18.4967 -0.5131
55.5600 18.5033 -0.5185
55.5800 18.5100 -0.5104
55.6000 18.5167 -0.5110
55.6200 18.5234 -0.5200
55.6400 18.5301 -0.5147
55.6600 18.5368 -0.5151
55.6800 18.5434 -0.5180
55.7000 18.5500 -0.5127
55.7200 18.5566 -0.5122
55.7400 18.5633 -0.5184
55.7600 18.5700 -0.5128
55.7800 18.5767 -0.5217
55.8000 18.5834 -0.5202
55.8200 18.5901 -0.5093
55.8400 18.5967 -0.5217
55.8600 18.6034 -0.5229
55.8800 18.6100 -0.5075
55.9000 18.6166 -0.5222
55.9200 18.6233 -0.5220
55.9400 18.6300 -0.5091
55.9600 18.6367 -0.5283
55.9800 18.6434 -0.5162
56.0000 18.6500 -0.5109
56.0200 18.6567 -0.5322
56.0400 18.6634 -0.5186
56.0600 18.6700 -0.5146
56.0800 18.6766 -0.5303
56.1000 18.6833 -0.5176
56.1200 18.6900 -0.5163
56.1400 18.6967 -0.5297
56.1600 18.7034 -0.5142
56.1800 18.7101 -0.5160
56.2000 18.7168 -0.5338
56.2200 18.7235 -0.5122
56.2400 18.7300 -0.5251
56.2600 18.7366 -0.5306
56.2800 18.7433 -0.5148
56.3000 18.7500 -0.5279
56.3200 18.7567 -0.5273
56.3400 18.7634 -0.5188
56.3600 18.7701 -0.5322
56.3800 18.7768 -0.5258
56.4000 18.7834 -0.5191
56.4200 18.7900 -0.5314
56.4400 18.7966 -0.5223
56.4600 18.8033 -0.5256
56.4800 18.8100 -0.5315
56.5000 18.8167 -0.5232
56.5200 18.8234 -0.5303
56.5400 18.8300 -0.5269
56.5600 18.8367 -0.5213
56.5800 18.8434 -0.5386
56.6000 18.8500 -0.5231
56.6200 18.8566 -0.5227
56.6400 18.8632 -0.5369
56.6600 18.8699 -0.5255
56.6800 18.8767 -0.5214
56.7000 18.8833 -0.5397
56.7200 18.8900 -0.5209
56.7400 18.8967 -0.5279
56.7600 18.9034 -0.5391
56.7800 18.9100 -0.5188
56.8000 18.9166 -0.5291
56.8200 18.9233 -0.5381
56.8400 18.9300 -0.5214
56.8600 18.9367 -0.5297
56.8800 18.9434 -0.5385
56.9000 18.9501 -0.5230
56.9200 18.9568 -0.5310
56.9400 18.9634 -0.5398
56.9600 18.9700 -0.5277
56.9800 18.9766 -0.5314
57.0000 18.9833 -0.5363
57.0200 18.9900 -0.5247
57.0400 18.9967 -0.5403
57.0600 19.0034 -0.5371
57.0800 19.0101 -0.5291
57.1000 19.0168 -0.5403
57.1200 19.0234 -0.5371
57.1400 19.0300 -0.5287
57.1600 19.0366 -0.5427
57.1800 19.0432 -0.5320
57.2000 19.0499 -0.5306
57.2200 19.0567 -0.5415
57.2400 19.0634 -0.5413
57.2600 19.0700 -0.5287
57.2800 19.0767 -0.5402
57.3000 19.0834 -0.5390
57.3200 19.0900 -0.5373
57.3400 19.0966 -0.5394
57.3600 19.1032 -0.5377
57.3800 19.1100 -0.5408
57.4000 19.1167 -0.5402
57.4200 19.1234 -0.5405
57.4400 19.1300 -0.5408
57.4600 19.1367 -0.5418
57.4800 19.1434 -0.5417
57.5000 19.1500 -0.5440
57.5200 19.1566 -0.5415
57.5400 19.1633 -0.5410
57.5600 19.1700 -0.5415
57.5800 19.1767 -0.5489
57.6000 19.1834 -0.5413
57.6200 19.1901 -0.5429
57.6400 19.1968 -0.5450
57.6600 19.2034 -0.5494
57.6800 19.2101 -0.5458
57.7000 19.2167 -0.5476
57.7200 19.2233 -0.5517
57.7400 19.2300 -0.5447
57.7600 19.2367 -0.5465
57.7800 19.2434 -0.5552
57.8000 19.2501 -0.5484
57.8200 19.2568 -0.5468
57.8400 19.2635 -0.5579
57.8600 19.2701 -0.5482
57.8800 19.2766 -0.5451
57.9000 19.2833 -0.5567
57.9200 19.2900 -0.5509
57.9400 19.2967 -0.5465
57.9600 19.3034 -0.5604
57.9800 19.3100 -0.5493
58.0000 19.3167 -0.5502
58.0200 19.3234 -0.5569
58.0400 19.3300 -0.5550
58.0600 19.3366 -0.5470
58.0800 19.3433 -0.5631
58.1000 19.3500 -0.5559
58.1200 19.3567 -0.5504
58.1400 19.3633 -0.5593
58.1600 19.3700 -0.5557
58.1800 19.3767 -0.5547
58.2000 19.3834 -0.5601
58.2200 19.3900 -0.5582
58.2400 19.3967 -0.5565
58.2600 19.4033 -0.5640
58.2800 19.4100 -0.5567
58.3000 19.4167 -0.5556
58.3200 19.4234 -0.5634
58.3400 19.4301 -0.5634
58.3600 19.4368 -0.5512
58.3800 19.4435 -0.5680
58.4000 19.4501 -0.5658
58.4200 19.4566 -0.5541
58.4400 19.4633 -0.5621
58.4600 19.4700 -0.5682
58.4800 19.4767 -0.5577
58.5000 19.4834 -0.5692
58.5200 19.4901 -0.5653
58.5400 19.4968 -0.5580
58.5600 19.5034 -0.5650
58.5800 19.5100 -0.5655
58.6000 19.5166 -0.5536
58.6200 19.5233 -0.5686
58.6400 19.5300 -0.5704
58.6600 19.5367 -0.5559
58.6800 19.5434 -0.5706
58.7000 19.5501 -0.5709
58.7200 19.5567 -0.5550
58.7400 19.5634 -0.5744
58.7600 19.5700 -0.5734
58.7800 19.5766 -0.5534
58.8000 19.5832 -0.5732
58.8200 19.5899 -0.5752
58.8400 19.5966 -0.5609
58.8600 19.6033 -0.5791
58.8800 19.6100 -0.5775
58.9000 19.6167 -0.5600
58.9200 19.6234 -0.5765
58.9400 19.6300 -0.5711
58.9600 19.6366 -0.5662
58.9800 19.6433 -0.5830
59.0000 19.6500 -0.5751
59.0200 19.6567 -0.5640
59.0400 19.6634 -0.5839
59.0600 19.6701 -0.5734
59.0800 19.6768 -0.5682
59.1000 19.6834 -0.5883
59.1200 19.6901 -0.5769
59.1400 19.6967 -0.5717
59.1600 19.7033 -0.5854
59.1800 19.7100 -0.5736
59.2000 19.7167 -0.5764
59.2200 19.7234 -0.5855
59.2400 19.7301 -0.5750
59.2600 19.7368 -0.5785
59.2800 19.7434 -0.5833
59.3000 19.7500 -0.5958
