Raw Data
Time Displacement Force
(s) (mm) (N)
0.0000 0.0000 -0.7311
0.0200 0.0000 -0.7383
0.0400 0.0008 -0.6663
0.0600 0.0039 -0.6336
0.0800 0.0093 -0.6765
0.1000 0.0150 -0.6229
0.1200 0.0209 -0.5795
0.1400 0.0275 -0.5747
0.1600 0.0349 -0.5421
0.1800 0.0424 -0.5200
0.2000 0.0496 -0.5031
0.2200 0.0565 -0.4485
0.2400 0.0632 -0.4206
0.2600 0.0698 -0.4005
0.2800 0.0765 -0.3450
0.3000 0.0832 -0.3271
0.3200 0.0899 -0.3164
0.3400 0.0966 -0.2577
0.3600 0.1033 -0.2391
0.3800 0.1100 -0.2458
0.4000 0.1166 -0.2127
0.4200 0.1233 -0.2271
0.4400 0.1300 -0.2401
0.4600 0.1367 -0.2124
0.4800 0.1433 -0.2214
0.5000 0.1500 -0.2349
0.5200 0.1567 -0.2138
0.5400 0.1633 -0.2256
0.5600 0.1699 -0.2264
0.5800 0.1766 -0.2085
0.6000 0.1833 -0.2183
0.6200 0.1900 -0.2298
0.6400 0.1967 -0.2074
0.6600 0.2034 -0.2201
0.6800 0.2100 -0.2157
0.7000 0.2167 -0.2097
0.7200 0.2233 -0.2209
0.7400 0.2299 -0.2104
0.7600 0.2366 -0.2091
0.7800 0.2433 -0.2159
0.8000 0.2500 -0.2105
0.8200 0.2566 -0.2086
0.8400 0.2633 -0.2116
0.8600 0.2700 -0.2102
0.8800 0.2767 -0.2125
0.9000 0.2833 -0.2129
0.9200 0.2899 -0.2018
0.9400 0.2965 -0.2110
0.9600 0.3032 -0.2147
0.9800 0.3099 -0.1999
1.0000 0.3166 -0.2139
1.0200 0.3233 -0.2079
1.0400 0.3300 -0.2058
1.0600 0.3366 -0.2110
1.0800 0.3433 -0.2060
1.1000 0.3499 -0.2064
1.1200 0.3565 -0.2175
1.1400 0.3632 -0.2013
1.1600 0.3700 -0.2096
1.1800 0.3767 -0.2181
1.2000 0.3834 -0.2087
1.2200 0.3901 -0.2094
1.2400 0.3967 -0.2164
1.2600 0.4034 -0.2102
1.2800 0.4100 -0.2115
1.3000 0.4166 -0.2147
1.3200 0.4233 -0.2105
1.3400 0.4300 -0.2158
1.3600 0.4367 -0.2154
1.3800 0.4434 -0.2119
1.4000 0.4500 -0.2193
1.4200 0.4567 -0.2163
1.4400 0.4633 -0.2144
1.4600 0.4699 -0.2176
1.4800 0.4765 -0.2151
1.5000 0.4832 -0.2195
1.5200 0.4899 -0.2177
1.5400 0.4966 -0.2172
1.5600 0.5033 -0.2179
1.5800 0.5100 -0.2170
1.6000 0.5166 -0.2177
1.6200 0.5233 -0.2230
1.6400 0.5299 -0.2152
1.6600 0.5365 -0.2235
1.6800 0.5432 -0.2244
1.7000 0.5500 -0.2134
1.7200 0.5567 -0.2218
1.7400 0.5633 -0.2288
1.7600 0.5700 -0.2149
1.7800 0.5767 -0.2280
1.8000 0.5833 -0.2298
1.8200 0.5900 -0.2189
1.8400 0.5966 -0.2288
1.8600 0.6032 -0.2291
1.8800 0.6099 -0.2177
1.9000 0.6166 -0.2329
1.9200 0.6233 -0.2276
1.9400 0.6300 -0.2197
1.9600 0.6367 -0.2369
1.9800 0.6434 -0.2308
2.0000 0.6500 -0.2229
2.0200 0.6566 -0.2371
2.0400 0.6632 -0.2265
2.0600 0.6700 -0.2232
2.0800 0.6767 -0.2396
2.1000 0.6834 -0.2310
2.1200 0.6900 -0.2290
2.1400 0.6967 -0.2359
2.1600 0.7033 -0.2311
2.1800 0.7099 -0.2262
2.2000 0.7165 -0.2472
2.2200 0.7232 -0.2315
2.2400 0.7300 -0.2298
2.2600 0.7367 -0.2434
2.2800 0.7433 -0.2360
2.3000 0.7500 -0.2316
2.3200 0.7567 -0.2417
2.3400 0.7633 -0.2349
2.3600 0.7700 -0.2387
2.3800 0.7766 -0.2406
2.4000 0.7832 -0.2366
2.4200 0.7899 -0.2369
2.4400 0.7966 -0.2443
2.4600 0.8033 -0.2408
2.4800 0.8100 -0.2420
2.5000 0.8167 -0.2380
2.5200 0.8234 -0.2455
2.5400 0.8300 -0.2427
2.5600 0.8366 -0.2354
2.5800 0.8432 -0.2468
2.6000 0.8500 -0.2422
2.6200 0.8567 -0.2415
2.6400 0.8634 -0.2504
2.6600 0.8701 -0.2412
2.6800 0.8767 -0.2453
2.7000 0.8834 -0.2524
2.7200 0.8900 -0.2369
2.7400 0.8966 -0.2457
2.7600 0.9032 -0.2499
2.7800 0.9100 -0.2383
2.8000 0.9167 -0.2496
2.8200 0.9234 -0.2537
2.8400 0.9300 -0.2360
2.8600 0.9367 -0.2597
2.8800 0.9434 -0.2543
2.9000 0.9500 -0.2366
2.9200 0.9566 -0.2598
2.9400 0.9632 -0.2548
2.9600 0.9699 -0.2348
2.9800 0.9766 -0.2635
3.0000 0.9833 -0.2566
3.0200 0.9900 -0.2379
3.0400 0.9967 -0.2630
3.0600 1.0033 -0.2534
3.0800 1.0099 -0.2415
3.1000 1.0165 -0.2682
3.1200 1.0232 -0.2540
3.1400 1.0299 -0.2435
3.1600 1.0366 -0.2708
3.1800 1.0433 -0.2565
3.2000 1.0500 -0.2437
3.2200 1.0567 -0.2723
3.2400 1.0633 -0.2564
3.2600 1.0699 -0.2488
3.2800 1.0766 -0.2675
3.3000 1.0832 -0.2533
3.3200 1.0900 -0.2540
3.3400 1.0967 -0.2629
3.3600 1.1034 -0.2525
3.3800 1.1100 -0.2577
3.4000 1.1167 -0.2656
3.4200 1.1234 -0.2563
3.4400 1.1300 -0.2585
3.4600 1.1366 -0.2638
3.4800 1.1433 -0.2627
3.5000 1.1499 -0.2576
3.5200 1.1567 -0.2700
3.5400 1.1634 -0.2648
3.5600 1.1700 -0.2597
3.5800 1.1767 -0.2627
3.6000 1.1834 -0.2693
3.6200 1.1900 -0.2624
3.6400 1.1966 -0.2640
3.6600 1.2032 -0.2655
3.6800 1.2099 -0.2617
3.7000 1.2167 -0.2693
3.7200 1.2233 -0.2704
3.7400 1.2300 -0.2610
3.7600 1.2367 -0.2719
3.7800 1.2433 -0.2730
3.8000 1.2500 -0.2564
3.8200 1.2566 -0.2741
3.8400 1.2632 -0.2741
3.8600 1.2699 -0.2566
3.8800 1.2766 -0.2787
3.9000 1.2833 -0.2765
3.9200 1.2900 -0.2568
3.9400 1.2967 -0.2789
3.9600 1.3033 -0.2737
3.9800 1.3100 -0.2633
4.0000 1.3166 -0.2734
4.0200 1.3232 -0.2745
4.0400 1.3299 -0.2666
4.0600 1.3366 -0.2793
4.0800 1.3433 -0.2712
4.1000 1.3500 -0.2721
4.1200 1.3567 -0.2791
4.1400 1.3634 -0.2693
4.1600 1.3700 -0.2743
4.1800 1.3766 -0.2710
4.2000 1.3833 -0.2685
4.2200 1.3900 -0.2755
4.2400 1.3967 -0.2723
4.2600 1.4034 -0.2753
4.2800 1.4100 -0.2751
4.3000 1.4167 -0.2671
4.3200 1.4234 -0.2756
4.3400 1.4300 -0.2784
4.3600 1.4366 -0.2687
4.3800 1.4432 -0.2764
4.4000 1.4499 -0.2768
4.4200 1.4566 -0.2697
4.4400 1.4633 -0.2805
4.4600 1.4700 -0.2747
4.4800 1.4767 -0.2681
4.5000 1.4833 -0.2802
4.5200 1.4900 -0.2715
4.5400 1.4966 -0.2680
4.5600 1.5032 -0.2831
4.5800 1.5099 -0.2730
4.6000 1.5166 -0.2765
4.6200 1.5233 -0.2776
4.6400 1.5300 -0.2709
4.6600 1.5367 -0.2756
4.6800 1.5434 -0.2851
4.7000 1.5500 -0.2713
4.7200 1.5566 -0.2765
4.7400 1.5632 -0.2864
4.7600 1.5700 -0.2687
4.7800 1.5767 -0.2799
4.8000 1.5834 -0.2876
4.8200 1.5901 -0.2727
4.8400 1.5967 -0.2811
4.8600 1.6034 -0.2846
4.8800 1.6100 -0.2786
4.9000 1.6166 -0.2856
4.9200 1.6232 -0.2868
4.9400 1.6299 -0.2739
4.9600 1.6366 -0.2836
4.9800 1.6433 -0.2872
5.0000 1.6500 -0.2801
5.0200 1.6567 -0.2917
5.0400 1.6634 -0.2859
5.0600 1.6700 -0.2828
5.0800 1.6766 -0.2875
5.1000 1.6832 -0.2853
5.1200 1.6899 -0.2830
5.1400 1.6966 -0.2909
5.1600 1.7033 -0.2848
5.1800 1.7100 -0.2886
5.2000 1.7167 -0.2896
5.2200 1.7234 -0.2844
5.2400 1.7300 -0.2928
5.2600 1.7366 -0.2926
5.2800 1.7432 -0.2838
5.3000 1.7499 -0.2887
5.3200 1.7566 -0.2913
5.3400 1.7633 -0.2914
5.3600 1.7700 -0.2897
5.3800 1.7766 -0.2926
5.4000 1.7833 -0.2893
5.4200 1.7899 -0.2964
5.4400 1.7966 -0.2918
5.4600 1.8033 -0.2881
5.4800 1.8100 -0.2940
5.5000 1.8167 -0.2891
5.5200 1.8234 -0.2910
5.5400 1.8300 -0.2944
5.5600 1.8367 -0.2904
5.5800 1.8434 -0.2877
5.6000 1.8501 -0.3020
5.6200 1.8566 -0.2910
5.6400 1.8633 -0.2899
5.6600 1.8699 -0.2950
5.6800 1.8766 -0.2940
5.7000 1.8833 -0.2891
5.7200 1.8900 -0.2960
5.7400 1.8967 -0.2939
5.7600 1.9034 -0.2937
5.7800 1.9100 -0.2962
5.8000 1.9166 -0.2977
5.8200 1.9232 -0.2896
5.8400 1.9299 -0.2982
5.8600 1.9366 -0.2940
5.8800 1.9433 -0.2968
5.9000 1.9500 -0.2956
5.9200 1.9566 -0.2953
5.9400 1.9633 -0.2959
5.9600 1.9700 -0.2996
5.9800 1.9766 -0.2991
6.0000 1.9832 -0.2953
6.0200 1.9899 -0.2987
6.0400 1.9966 -0.2986
6.0600 2.0033 -0.2950
6.0800 2.0100 -0.3021
6.1000 2.0167 -0.3007
6.1200 2.0234 -0.2940
6.1400 2.0300 -0.3022
6.1600 2.0366 -0.2967
6.1800 2.0432 -0.2953
6.2000 2.0499 -0.3077
6.2200 2.0566 -0.2990
6.2400 2.0633 -0.2930
6.2600 2.0700 -0.3115
6.2800 2.0767 -0.2932
6.3000 2.0834 -0.2969
6.3200 2.0900 -0.3145
6.3400 2.0966 -0.2974
6.3600 2.1032 -0.2932
6.3800 2.1099 -0.3113
6.4000 2.1167 -0.2941
6.4200 2.1234 -0.3055
6.4400 2.1300 -0.3114
6.4600 2.1367 -0.3010
6.4800 2.1433 -0.3010
6.5000 2.1500 -0.3123
6.5200 2.1566 -0.2985
6.5400 2.1633 -0.3042
6.5600 2.1699 -0.3137
6.5800 2.1766 -0.2978
6.6000 2.1833 -0.3036
6.6200 2.1900 -0.3177
6.6400 2.1967 -0.3033
6.6600 2.2034 -0.3043
6.6800 2.2100 -0.3157
6.7000 2.2166 -0.3042
6.7200 2.2232 -0.3064
6.7400 2.2299 -0.3125
6.7600 2.2366 -0.3047
6.7800 2.2433 -0.3100
6.8000 2.2500 -0.3178
6.8200 2.2567 -0.3054
6.8400 2.2633 -0.3132
6.8600 2.2700 -0.3175
6.8800 2.2766 -0.3104
6.9000 2.2833 -0.3082
6.9200 2.2899 -0.3146
6.9400 2.2966 -0.3091
6.9600 2.3033 -0.3142
6.9800 2.3100 -0.3143
7.0000 2.3167 -0.3143
7.0200 2.3234 -0.3101
7.0400 2.3300 -0.3186
7.0600 2.3366 -0.3170
7.0800 2.3433 -0.3126
7.1000 2.3499 -0.3191
7.1200 2.3566 -0.3160
7.1400 2.3633 -0.3093
7.1600 2.3700 -0.3210
7.1800 2.3767 -0.3159
7.2000 2.3834 -0.3089
7.2200 2.3901 -0.3235
7.2400 2.3967 -0.3167
7.2600 2.4032 -0.3066
7.2800 2.4099 -0.3275
7.3000 2.4166 -0.3171
7.3200 2.4233 -0.3093
7.3400 2.4300 -0.3335
7.3600 2.4367 -0.3121
7.3800 2.4434 -0.3136
7.4000 2.4500 -0.3324
7.4200 2.4566 -0.3169
7.4400 2.4632 -0.3128
7.4600 2.4699 -0.3281
7.4800 2.4766 -0.3135
7.5000 2.4833 -0.3194
7.5200 2.4900 -0.3283
7.5400 2.4966 -0.3143
7.5600 2.5033 -0.3194
7.5800 2.5100 -0.3280
7.6000 2.5166 -0.3099
7.6200 2.5233 -0.3254
7.6400 2.5299 -0.3281
7.6600 2.5366 -0.3137
7.6800 2.5433 -0.3260
7.7000 2.5500 -0.3267
7.7200 2.5567 -0.3145
7.7400 2.5634 -0.3249
7.7600 2.5701 -0.3267
7.7800 2.5767 -0.3170
7.8000 2.5833 -0.3291
7.8200 2.5899 -0.3254
7.8400 2.5966 -0.3189
7.8600 2.6033 -0.3323
7.8800 2.6100 -0.3251
7.9000 2.6167 -0.3184
7.9200 2.6234 -0.3336
7.9400 2.6300 -0.3305
7.9600 2.6367 -0.3252
7.9800 2.6433 -0.3287
8.0000 2.6499 -0.3287
8.0200 2.6566 -0.3229
8.0400 2.6633 -0.3316
8.0600 2.6700 -0.3264
8.0800 2.6767 -0.3313
8.1000 2.6833 -0.3286
8.1200 2.6900 -0.3269
8.1400 2.6966 -0.3329
8.1600 2.7032 -0.3259
8.1800 2.7099 -0.3266
8.2000 2.7166 -0.3335
8.2200 2.7233 -0.3267
8.2400 2.7300 -0.3335
8.2600 2.7367 -0.3319
8.2800 2.7434 -0.3345
8.3000 2.7501 -0.3322
8.3200 2.7567 -0.3336
8.3400 2.7633 -0.3323
8.3600 2.7699 -0.3327
8.3800 2.7766 -0.3356
8.4000 2.7833 -0.3286
8.4200 2.7900 -0.3343
8.4400 2.7967 -0.3359
8.4600 2.8034 -0.3306
8.4800 2.8100 -0.3382
8.5000 2.8167 -0.3391
8.5200 2.8233 -0.3297
8.5400 2.8299 -0.3391
8.5600 2.8366 -0.3390
8.5800 2.8433 -0.3369
8.6000 2.8500 -0.3362
8.6200 2.8567 -0.3420
8.6400 2.8634 -0.3349
8.6600 2.8700 -0.3408
8.6800 2.8767 -0.3413
8.7000 2.8833 -0.3311
8.7200 2.8899 -0.3389
8.7400 2.8966 -0.3438
8.7600 2.9033 -0.3358
8.7800 2.9100 -0.3421
8.8000 2.9167 -0.3409
8.8200 2.9234 -0.3367
8.8400 2.9300 -0.3398
8.8600 2.9366 -0.3432
8.8800 2.9432 -0.3345
8.9000 2.9499 -0.3424
8.9200 2.9565 -0.3459
8.9400 2.9633 -0.3358
8.9600 2.9699 -0.3460
8.9800 2.9766 -0.3455
9.0000 2.9833 -0.3425
9.0200 2.9900 -0.3412
9.0400 2.9966 -0.3491
9.0600 3.0033 -0.3396
9.0800 3.0099 -0.3373
9.1000 3.0166 -0.3482
9.1200 3.0233 -0.3474
9.1400 3.0300 -0.3410
9.1600 3.0367 -0.3453
9.1800 3.0434 -0.3432
9.2000 3.0501 -0.3421
9.2200 3.0567 -0.3502
9.2400 3.0633 -0.3455
9.2600 3.0699 -0.3327
9.2800 3.0766 -0.3501
9.3000 3.0833 -0.3491
9.3200 3.0900 -0.3395
9.3400 3.0967 -0.3450
9.3600 3.1034 -0.3474
9.3800 3.1101 -0.3419
9.4000 3.1167 -0.3514
9.4200 3.1232 -0.3469
9.4400 3.1299 -0.3395
9.4600 3.1366 -0.3505
9.4800 3.1433 -0.3467
9.5000 3.1500 -0.3386
9.5200 3.1567 -0.3535
9.5400 3.1634 -0.3504
9.5600 3.1701 -0.3375
9.5800 3.1767 -0.3535
9.6000 3.1833 -0.3506
9.6200 3.1899 -0.3398
9.6400 3.1966 -0.3493
9.6600 3.2033 -0.3551
9.6800 3.2100 -0.3378
9.7000 3.2166 -0.3559
9.7200 3.2233 -0.3560
9.7400 3.2300 -0.3416
9.7600 3.2366 -0.3515
9.7800 3.2432 -0.3579
9.8000 3.2499 -0.3425
9.8200 3.2566 -0.3473
9.8400 3.2633 -0.3499
9.8600 3.2700 -0.3445
9.8800 3.2767 -0.3454
9.9000 3.2834 -0.3574
9.9200 3.2901 -0.3450
9.9400 3.2967 -0.3472
9.9600 3.3033 -0.3548
9.9800 3.3099 -0.3428
10.0000 3.3166 -0.3509
10.0200 3.3234 -0.3586
10.0400 3.3301 -0.3424
10.0600 3.3367 -0.3529
10.0800 3.3434 -0.3554
10.1000 3.3500 -0.3452
10.1200 3.3567 -0.3577
10.1400 3.3633 -0.3520
10.1600 3.3699 -0.3444
10.1800 3.3766 -0.3575
10.2000 3.3833 -0.3537
10.2200 3.3899 -0.3451
10.2400 3.3966 -0.3613
10.2600 3.4033 -0.3502
10.2800 3.4100 -0.3489
10.3000 3.4166 -0.3584
10.3200 3.4232 -0.3510
10.3400 3.4299 -0.3461
10.3600 3.4366 -0.3611
10.3800 3.4433 -0.3492
10.4000 3.4500 -0.3528
10.4200 3.4567 -0.3605
10.4400 3.4633 -0.3505
10.4600 3.4700 -0.3534
10.4800 3.4767 -0.3597
10.5000 3.4833 -0.3483
10.5200 3.4899 -0.3524
10.5400 3.4966 -0.3543
10.5600 3.5033 -0.3533
10.5800 3.5100 -0.3542
10.6000 3.5167 -0.3522
10.6200 3.5234 -0.3512
10.6400 3.5300 -0.3554
10.6600 3.5367 -0.3570
10.6800 3.5433 -0.3588
10.7000 3.5499 -0.3460
10.7200 3.5566 -0.3531
10.7400 3.5633 -0.3577
10.7600 3.5700 -0.3487
10.7800 3.5767 -0.3614
10.8000 3.5834 -0.3554
10.8200 3.5900 -0.3470
10.8400 3.5967 -0.3595
10.8600 3.6033 -0.3600
10.8800 3.6099 -0.3437
10.9000 3.6166 -0.3633
10.9200 3.6233 -0.3607
10.9400 3.6300 -0.3481
10.9600 3.6367 -0.3596
10.9800 3.6434 -0.3657
11.0000 3.6500 -0.3511
11.0200 3.6567 -0.3620
11.0400 3.6633 -0.3573
11.0600 3.6698 -0.3555
11.0800 3.6765 -0.3567
11.1000 3.6832 -0.3571
11.1200 3.6899 -0.3525
11.1400 3.6966 -0.3595
11.1600 3.7033 -0.3586
11.1800 3.7100 -0.3528
11.2000 3.7167 -0.3604
11.2200 3.7233 -0.3619
11.2400 3.7299 -0.3535
11.2600 3.7366 -0.3582
11.2800 3.7433 -0.3663
11.3000 3.7500 -0.3575
11.3200 3.7567 -0.3574
11.3400 3.7634 -0.3623
11.3600 3.7701 -0.3583
11.3800 3.7767 -0.3594
11.4000 3.7833 -0.3659
11.4200 3.7899 -0.3493
11.4400 3.7966 -0.3576
11.4600 3.8033 -0.3661
11.4800 3.8100 -0.3585
11.5000 3.8167 -0.3628
11.5200 3.8234 -0.3658
11.5400 3.8301 -0.3528
11.5600 3.8367 -0.3656
11.5800 3.8433 -0.3632
11.6000 3.8499 -0.3524
11.6200 3.8566 -0.3661
11.6400 3.8633 -0.3667
11.6600 3.8700 -0.3555
11.6800 3.8766 -0.3641
11.7000 3.8833 -0.3627
11.7200 3.8900 -0.3590
11.7400 3.8967 -0.3643
11.7600 3.9033 -0.3644
11.7800 3.9099 -0.3573
11.8000 3.9165 -0.3595
11.8200 3.9232 -0.3629
11.8400 3.9299 -0.3666
11.8600 3.9366 -0.3659
11.8800 3.9433 -0.3620
11.9000 3.9499 -0.3659
11.9200 3.9566 -0.3632
11.9400 3.9632 -0.3629
11.9600 3.9699 -0.3664
11.9800 3.9766 -0.3662
12.0000 3.9833 -0.3609
12.0200 3.9900 -0.3705
12.0400 3.9967 -0.3642
12.0600 4.0034 -0.3611
12.0800 4.0100 -0.3698
12.1000 4.0167 -0.3694
12.1200 4.0233 -0.3586
12.1400 4.0300 -0.3657
12.1600 4.0366 -0.3717
12.1800 4.0433 -0.3611
12.2000 4.0500 -0.3651
12.2200 4.0567 -0.3733
12.2400 4.0634 -0.3617
12.2600 4.0701 -0.3644
12.2800 4.0767 -0.3774
12.3000 4.0833 -0.3705
12.3200 4.0899 -0.3571
12.3400 4.0965 -0.3732
12.3600 4.1032 -0.3691
12.3800 4.1100 -0.3621
12.4000 4.1167 -0.3779
12.4200 4.1234 -0.3640
12.4400 4.1300 -0.3633
12.4600 4.1367 -0.3770
12.4800 4.1433 -0.3666
12.5000 4.1499 -0.3666
12.5200 4.1565 -0.3755
12.5400 4.1632 -0.3664
12.5600 4.1700 -0.3699
12.5800 4.1766 -0.3738
12.6000 4.1833 -0.3704
12.6200 4.1900 -0.3695
12.6400 4.1967 -0.3765
12.6600 4.2033 -0.3656
12.6800 4.2099 -0.3672
12.7000 4.2166 -0.3762
12.7200 4.2232 -0.3704
12.7400 4.2300 -0.3683
12.7600 4.2367 -0.3760
12.7800 4.2434 -0.3676
12.8000 4.2501 -0.3731
12.8200 4.2568 -0.3742
12.8400 4.2633 -0.3668
12.8600 4.2699 -0.3728
12.8800 4.2766 -0.3682
12.9000 4.2833 -0.3717
12.9200 4.2900 -0.3802
12.9400 4.2967 -0.3655
12.9600 4.3034 -0.3722
12.9800 4.3101 -0.3798
13.0000 4.3167 -0.3711
13.0200 4.3233 -0.3734
13.0400 4.3299 -0.3773
13.0600 4.3366 -0.3648
13.0800 4.3433 -0.3734
13.1000 4.3500 -0.3805
13.1200 4.3567 -0.3670
13.1400 4.3633 -0.3740
13.1600 4.3700 -0.3733
13.1800 4.3767 -0.3773
13.2000 4.3833 -0.3771
13.2200 4.3899 -0.3712
13.2400 4.3965 -0.3729
13.2600 4.4032 -0.3803
13.2800 4.4099 -0.3706
13.3000 4.4166 -0.3785
13.3200 4.4233 -0.3779
13.3400 4.4300 -0.3761
13.3600 4.4367 -0.3788
13.3800 4.4433 -0.3788
13.4000 4.4499 -0.3719
13.4200 4.4566 -0.3801
13.4400 4.4632 -0.3772
13.4600 4.4700 -0.3732
13.4800 4.4767 -0.3773
13.5000 4.4834 -0.3820
13.5200 4.4900 -0.3763
13.5400 4.4967 -0.3783
13.5600 4.5033 -0.3812
13.5800 4.5100 -0.3767
13.6000 4.5166 -0.3785
13.6200 4.5233 -0.3766
13.6400 4.5300 -0.3809
13.6600 4.5367 -0.3780
13.6800 4.5433 -0.3802
13.7000 4.5500 -0.3805
13.7200 4.5567 -0.3812
13.7400 4.5633 -0.3776
13.7600 4.5699 -0.3796
13.7800 4.5766 -0.3801
13.8000 4.5833 -0.3818
13.8200 4.5900 -0.3838
13.8400 4.5967 -0.3805
13.8600 4.6033 -0.3761
13.8800 4.6100 -0.3847
13.9000 4.6167 -0.3826
13.9200 4.6233 -0.3787
13.9400 4.6299 -0.3824
13.9600 4.6365 -0.3835
13.9800 4.6432 -0.3756
14.0000 4.6499 -0.3872
14.0200 4.6566 -0.3796
14.0400 4.6633 -0.3810
14.0600 4.6700 -0.3873
14.0800 4.6767 -0.3847
14.1000 4.6833 -0.3830
14.1200 4.6899 -0.3840
14.1400 4.6966 -0.3853
14.1600 4.7033 -0.3761
14.1800 4.7100 -0.3889
14.2000 4.7167 -0.3879
14.2200 4.7234 -0.3815
14.2400 4.7300 -0.3881
14.2600 4.7367 -0.3905
14.2800 4.7433 -0.3809
14.3000 4.7499 -0.3855
14.3200 4.7565 -0.3883
14.3400 4.7632 -0.3827
14.3600 4.7700 -0.3856
14.3800 4.7767 -0.3876
14.4000 4.7834 -0.3763
14.4200 4.7901 -0.3937
14.4400 4.7968 -0.3872
14.4600 4.8034 -0.3808
14.4800 4.8100 -0.3897
14.5000 4.8165 -0.3863
14.5200 4.8232 -0.3825
14.5400 4.8300 -0.3908
14.5600 4.8366 -0.3866
14.5800 4.8433 -0.3858
14.6000 4.8500 -0.3930
14.6200 4.8567 -0.3846
14.6400 4.8633 -0.3817
14.6600 4.8699 -0.3961
14.6800 4.8765 -0.3914
14.7000 4.8832 -0.3821
14.7200 4.8899 -0.3916
14.7400 4.8966 -0.3902
14.7600 4.9033 -0.3843
14.7800 4.9100 -0.3882
14.8000 4.9167 -0.3957
14.8200 4.9233 -0.3856
14.8400 4.9300 -0.3919
14.8600 4.9366 -0.3930
14.8800 4.9433 -0.3850
14.9000 4.9500 -0.3924
14.9200 4.9567 -0.3938
14.9400 4.9634 -0.3834
14.9600 4.9701 -0.3956
14.9800 4.9767 -0.3895
15.0000 4.9834 -0.3863
15.0200 4.9899 -0.3919
15.0400 4.9966 -0.3906
15.0600 5.0032 -0.3851
15.0800 5.0099 -0.3968
15.1000 5.0166 -0.3906
15.1200 5.0233 -0.3880
15.1400 5.0300 -0.3938
15.1600 5.0367 -0.3889
15.1800 5.0434 -0.3906
15.2000 5.0500 -0.3936
15.2200 5.0566 -0.3898
15.2400 5.0633 -0.3917
15.2600 5.0700 -0.3951
15.2800 5.0767 -0.3886
15.3000 5.0833 -0.3961
15.3200 5.0900 -0.3944
15.3400 5.0967 -0.3904
15.3600 5.1034 -0.3979
15.3800 5.1100 -0.3958
15.4000 5.1166 -0.3914
15.4200 5.1232 -0.3946
15.4400 5.1299 -0.3936
15.4600 5.1366 -0.3957
15.4800 5.1433 -0.3983
15.5000 5.1500 -0.3934
15.5200 5.1567 -0.3927
15.5400 5.1633 -0.4018
15.5600 5.1699 -0.3920
15.5800 5.1766 -0.3945
15.6000 5.1833 -0.3955
15.6200 5.1900 -0.3954
15.6400 5.1967 -0.3983
15.6600 5.2034 -0.3898
15.6800 5.2100 -0.3962
15.7000 5.2167 -0.4037
15.7200 5.2234 -0.3935
15.7400 5.2300 -0.3986
15.7600 5.2366 -0.3997
15.7800 5.2433 -0.3908
15.8000 5.2500 -0.3977
15.8200 5.2567 -0.4002
15.8400 5.2634 -0.3925
15.8600 5.2700 -0.4001
15.8800 5.2767 -0.4044
15.9000 5.2833 -0.3938
15.9200 5.2899 -0.3971
15.9400 5.2965 -0.3995
15.9600 5.3032 -0.3982
15.9800 5.3099 -0.3970
16.0000 5.3167 -0.4048
16.0200 5.3234 -0.3949
16.0400 5.3300 -0.4011
16.0600 5.3367 -0.4017
16.0800 5.3433 -0.3995
16.1000 5.3499 -0.4045
16.1200 5.3565 -0.3935
16.1400 5.3632 -0.3903
16.1600 5.3700 -0.4111
16.1800 5.3767 -0.3941
16.2000 5.3834 -0.3961
16.2200 5.3900 -0.4109
16.2400 5.3967 -0.3963
16.2600 5.4033 -0.3886
16.2800 5.4100 -0.4132
16.3000 5.4166 -0.3977
16.3200 5.4233 -0.3914
16.3400 5.4300 -0.4141
16.3600 5.4367 -0.3998
16.3800 5.4433 -0.3902
16.4000 5.4500 -0.4093
16.4200 5.4567 -0.4043
16.4400 5.4634 -0.3960
16.4600 5.4700 -0.4092
16.4800 5.4766 -0.3982
16.5000 5.4832 -0.3974
16.5200 5.4899 -0.4020
16.5400 5.4967 -0.4055
16.5600 5.5034 -0.4007
16.5800 5.5100 -0.4050
16.6000 5.5167 -0.4035
16.6200 5.5233 -0.4028
16.6400 5.5300 -0.4047
16.6600 5.5366 -0.4048
16.6800 5.5432 -0.4017
16.7000 5.5499 -0.4087
16.7200 5.5566 -0.4008
16.7400 5.5632 -0.4033
16.7600 5.5699 -0.4070
16.7800 5.5767 -0.4045
16.8000 5.5834 -0.4030
16.8200 5.5900 -0.4073
16.8400 5.5966 -0.4021
16.8600 5.6033 -0.3982
16.8800 5.6099 -0.4139
16.9000 5.6166 -0.3992
16.9200 5.6233 -0.4001
16.9400 5.6300 -0.4123
16.9600 5.6367 -0.4021
16.9800 5.6434 -0.4025
17.0000 5.6500 -0.4135
17.0200 5.6566 -0.4012
17.0400 5.6633 -0.4036
17.0600 5.6700 -0.4065
17.0800 5.6767 -0.4034
17.1000 5.6834 -0.4086
17.1200 5.6900 -0.4126
17.1400 5.6967 -0.3952
17.1600 5.7034 -0.4093
17.1800 5.7100 -0.4095
17.2000 5.7166 -0.4008
17.2200 5.7232 -0.4076
17.2400 5.7300 -0.4085
17.2600 5.7367 -0.3987
17.2800 5.7434 -0.4078
17.3000 5.7500 -0.4067
17.3200 5.7567 -0.4015
17.3400 5.7634 -0.4102
17.3600 5.7700 -0.4136
17.3800 5.7766 -0.3988
17.4000 5.7832 -0.4113
17.4200 5.7899 -0.4093
17.4400 5.7966 -0.3995
17.4600 5.8033 -0.4123
17.4800 5.8100 -0.4039
17.5000 5.8167 -0.4057
17.5200 5.8233 -0.4155
17.5400 5.8299 -0.4049
17.5600 5.8365 -0.3990
17.5800 5.8431 -0.4100
17.6000 5.8499 -0.4110
17.6200 5.8566 -0.4078
17.6400 5.8634 -0.4097
17.6600 5.8700 -0.4073
17.6800 5.8767 -0.4098
17.7000 5.8833 -0.4096
17.7200 5.8900 -0.4069
17.7400 5.8966 -0.4121
17.7600 5.9033 -0.4047
17.7800 5.9100 -0.4091
17.8000 5.9167 -0.4084
17.8200 5.9234 -0.4136
17.8400 5.9300 -0.4083
17.8600 5.9367 -0.4112
17.8800 5.9434 -0.4081
17.9000 5.9501 -0.4114
17.9200 5.9566 -0.4110
17.9400 5.9633 -0.4072
17.9600 5.9700 -0.4113
17.9800 5.9767 -0.4088
18.0000 5.9834 -0.4047
18.0200 5.9901 -0.4196
18.0400 5.9967 -0.4099
18.0600 6.0034 -0.4069
18.0800 6.0100 -0.4156
18.1000 6.0166 -0.4043
18.1200 6.0232 -0.4086
18.1400 6.0299 -0.4145
18.1600 6.0366 -0.4084
18.1800 6.0433 -0.4131
18.2000 6.0500 -0.4128
18.2200 6.0567 -0.4078
18.2400 6.0634 -0.4202
18.2600 6.0700 -0.4092
18.2800 6.0766 -0.4058
18.3000 6.0832 -0.4178
18.3200 6.0899 -0.4164
18.3400 6.0966 -0.4035
18.3600 6.1033 -0.4214
18.3800 6.1099 -0.4090
18.4000 6.1167 -0.4083
18.4200 6.1234 -0.4180
18.4400 6.1301 -0.4120
18.4600 6.1366 -0.4141
18.4800 6.1433 -0.4155
18.5000 6.1499 -0.4053
18.5200 6.1566 -0.4164
18.5400 6.1633 -0.4170
18.5600 6.1700 -0.4032
18.5800 6.1767 -0.4180
18.6000 6.1834 -0.4180
18.6200 6.1900 -0.4068
18.6400 6.1966 -0.4173
18.6600 6.2032 -0.4116
18.6800 6.2099 -0.4075
18.7000 6.2167 -0.4216
18.7200 6.2234 -0.4100
18.7400 6.2301 -0.4178
18.7600 6.2367 -0.4179
18.7800 6.2434 -0.4125
18.8000 6.2500 -0.4192
18.8200 6.2566 -0.4153
18.8400 6.2632 -0.4085
18.8600 6.2699 -0.4206
18.8800 6.2766 -0.4156
18.9000 6.2833 -0.4099
18.9200 6.2900 -0.4135
18.9400 6.2967 -0.4208
18.9600 6.3034 -0.4159
18.9800 6.3100 -0.4143
19.0000 6.3166 -0.4165
19.0200 6.3232 -0.4242
19.0400 6.3299 -0.4153
19.0600 6.3366 -0.4119
19.0800 6.3433 -0.4259
19.1000 6.3500 -0.4140
19.1200 6.3567 -0.4143
19.1400 6.3633 -0.4241
19.1600 6.3700 -0.4138
19.1800 6.3766 -0.4151
19.2000 6.3832 -0.4252
19.2200 6.3900 -0.4070
19.2400 6.3967 -0.4165
19.2600 6.4034 -0.4330
19.2800 6.4101 -0.4091
19.3000 6.4167 -0.4157
19.3200 6.4234 -0.4334
19.3400 6.4300 -0.4113
19.3600 6.4366 -0.4170
19.3800 6.4432 -0.4230
19.4000 6.4499 -0.4132
19.4200 6.4566 -0.4223
19.4400 6.4633 -0.4255
19.4600 6.4700 -0.4090
19.4800 6.4767 -0.4250
19.5000 6.4834 -0.4245
19.5200 6.4900 -0.4140
19.5400 6.4966 -0.4251
19.5600 6.5032 -0.4224
19.5800 6.5099 -0.4126
19.6000 6.5166 -0.4280
19.6200 6.5233 -0.4234
19.6400 6.5300 -0.4138
19.6600 6.5367 -0.4273
19.6800 6.5434 -0.4235
19.7000 6.5500 -0.4154
19.7200 6.5566 -0.4245
19.7400 6.5632 -0.4227
19.7600 6.5699 -0.4173
19.7800 6.5766 -0.4261
19.8000 6.5833 -0.4190
19.8200 6.5900 -0.4283
19.8400 6.5966 -0.4221
19.8600 6.6033 -0.4181
19.8800 6.6100 -0.4316
19.9000 6.6166 -0.4231
19.9200 6.6232 -0.4165
19.9400 6.6299 -0.4312
19.9600 6.6366 -0.4234
19.9800 6.6433 -0.4222
20.0000 6.6500 -0.4275
20.0200 6.6567 -0.4213
20.0400 6.6634 -0.4201
20.0600 6.6701 -0.4357
20.0800 6.6767 -0.4217
20.1000 6.6833 -0.4169
20.1200 6.6899 -0.4313
20.1400 6.6966 -0.4224
20.1600 6.7034 -0.4204
20.1800 6.7101 -0.4336
20.2000 6.7167 -0.4294
20.2200 6.7234 -0.4247
20.2400 6.7300 -0.4285
20.2600 6.7366 -0.4263
20.2800 6.7432 -0.4270
20.3000 6.7499 -0.4303
20.3200 6.7566 -0.4302
20.3400 6.7633 -0.4243
20.3600 6.7700 -0.4315
20.3800 6.7766 -0.4257
20.4000 6.7833 -0.4239
20.4200 6.7900 -0.4303
20.4400 6.7966 -0.4323
20.4600 6.8032 -0.4205
20.4800 6.8099 -0.4289
20.5000 6.8166 -0.4278
20.5200 6.8233 -0.4289
20.5400 6.8300 -0.4320
20.5600 6.8367 -0.4266
20.5800 6.8434 -0.4252
20.6000 6.8500 -0.4367
20.6200 6.8567 -0.4239
20.6400 6.8633 -0.4292
20.6600 6.8699 -0.4340
20.6800 6.8766 -0.4209
20.7000 6.8833 -0.4308
20.7200 6.8900 -0.4369
20.7400 6.8967 -0.4195
20.7600 6.9034 -0.4330
20.7800 6.9100 -0.4333
20.8000 6.9166 -0.4228
20.8200 6.9232 -0.4335
20.8400 6.9299 -0.4296
20.8600 6.9366 -0.4235
20.8800 6.9433 -0.4335
20.9000 6.9500 -0.4269
20.9200 6.9567 -0.4236
20.9400 6.9634 -0.4391
20.9600 6.9701 -0.4233
20.9800 6.9767 -0.4263
21.0000 6.9833 -0.4385
21.0200 6.9899 -0.4235
21.0400 6.9966 -0.4234
21.0600 7.0033 -0.4416
21.0800 7.0100 -0.4222
21.1000 7.0167 -0.4328
21.1200 7.0234 -0.4413
21.1400 7.0300 -0.4210
21.1600 7.0366 -0.4322
21.1800 7.0432 -0.4366
21.2000 7.0498 -0.4193
21.2200 7.0566 -0.4339
21.2400 7.0633 -0.4359
21.2600 7.0700 -0.4293
21.2800 7.0766 -0.4330
21.3000 7.0833 -0.4357
21.3200 7.0900 -0.4274
21.3400 7.0966 -0.4352
21.3600 7.1032 -0.4343
21.3800 7.1099 -0.4275
21.4000 7.1166 -0.4397
21.4200 7.1233 -0.4288
21.4400 7.1300 -0.4256
21.4600 7.1367 -0.4412
21.4800 7.1434 -0.4299
21.5000 7.1500 -0.4295
21.5200 7.1567 -0.4442
21.5400 7.1633 -0.4266
21.5600 7.1699 -0.4286
21.5800 7.1766 -0.4428
21.6000 7.1833 -0.4260
21.6200 7.1900 -0.4304
21.6400 7.1967 -0.4451
21.6600 7.2034 -0.4246
21.6800 7.2101 -0.4360
21.7000 7.2167 -0.4405
21.7200 7.2232 -0.4228
21.7400 7.2299 -0.4385
21.7600 7.2366 -0.4392
21.7800 7.2433 -0.4256
21.8000 7.2500 -0.4368
21.8200 7.2567 -0.4405
21.8400 7.2633 -0.4253
21.8600 7.2700 -0.4395
21.8800 7.2766 -0.4350
21.9000 7.2832 -0.4245
21.9200 7.2899 -0.4388
21.9400 7.2966 -0.4363
21.9600 7.3033 -0.4342
21.9800 7.3100 -0.4349
22.0000 7.3166 -0.4345
22.0200 7.3233 -0.4361
22.0400 7.3300 -0.4376
22.0600 7.3366 -0.4386
22.0800 7.3432 -0.4334
22.1000 7.3499 -0.4297
22.1200 7.3566 -0.4338
22.1400 7.3633 -0.4399
22.1600 7.3700 -0.4368
22.1800 7.3767 -0.4373
22.2000 7.3834 -0.4328
22.2200 7.3901 -0.4368
22.2400 7.3967 -0.4362
22.2600 7.4033 -0.4366
22.2800 7.4099 -0.4353
22.3000 7.4166 -0.4364
22.3200 7.4233 -0.4310
22.3400 7.4300 -0.4462
22.3600 7.4367 -0.4351
22.3800 7.4433 -0.4322
22.4000 7.4500 -0.4437
22.4200 7.4566 -0.4363
22.4400 7.4633 -0.4324
22.4600 7.4699 -0.4395
22.4800 7.4766 -0.4395
22.5000 7.4833 -0.4363
22.5200 7.4900 -0.4397
22.5400 7.4967 -0.4385
22.5600 7.5034 -0.4320
22.5800 7.5100 -0.4407
22.6000 7.5166 -0.4389
22.6200 7.5232 -0.4339
22.6400 7.5298 -0.4417
22.6600 7.5365 -0.4329
22.6800 7.5433 -0.4390
22.7000 7.5500 -0.4426
22.7200 7.5567 -0.4394
22.7400 7.5634 -0.4359
22.7600 7.5700 -0.4416
22.7800 7.5767 -0.4357
22.8000 7.5833 -0.4370
22.8200 7.5899 -0.4412
22.8400 7.5966 -0.4394
22.8600 7.6033 -0.4375
22.8800 7.6100 -0.4426
22.9000 7.6167 -0.4363
22.9200 7.6233 -0.4426
22.9400 7.6300 -0.4400
22.9600 7.6367 -0.4361
22.9800 7.6433 -0.4419
23.0000 7.6500 -0.4370
23.0200 7.6566 -0.4377
23.0400 7.6633 -0.4424
23.0600 7.6700 -0.4386
23.0800 7.6767 -0.4387
23.1000 7.6834 -0.4414
23.1200 7.6901 -0.4390
23.1400 7.6967 -0.4421
23.1600 7.7033 -0.4396
23.1800 7.7099 -0.4396
23.2000 7.7166 -0.4423
23.2200 7.7233 -0.4427
23.2400 7.7300 -0.4381
23.2600 7.7367 -0.4457
23.2800 7.7434 -0.4366
23.3000 7.7500 -0.4422
23.3200 7.7566 -0.4524
23.3400 7.7632 -0.4405
23.3600 7.7699 -0.4390
23.3800 7.7766 -0.4483
23.4000 7.7833 -0.4379
23.4200 7.7900 -0.4447
23.4400 7.7966 -0.4462
23.4600 7.8033 -0.4409
23.4800 7.8100 -0.4445
23.5000 7.8166 -0.4502
23.5200 7.8233 -0.4400
23.5400 7.8299 -0.4494
23.5600 7.8366 -0.4446
23.5800 7.8433 -0.4358
23.6000 7.8500 -0.4554
23.6200 7.8567 -0.4449
23.6400 7.8634 -0.4407
23.6600 7.8701 -0.4544
23.6800 7.8767 -0.4464
23.7000 7.8833 -0.4378
23.7200 7.8899 -0.4556
23.7400 7.8966 -0.4441
23.7600 7.9033 -0.4424
23.7800 7.9100 -0.4571
23.8000 7.9167 -0.4468
23.8200 7.9234 -0.4420
23.8400 7.9301 -0.4600
23.8600 7.9367 -0.4452
23.8800 7.9433 -0.4447
23.9000 7.9499 -0.4544
23.9200 7.9566 -0.4434
23.9400 7.9633 -0.4454
23.9600 7.9700 -0.4563
23.9800 7.9767 -0.4438
24.0000 7.9833 -0.4510
24.0200 7.9900 -0.4518
24.0400 7.9967 -0.4448
24.0600 8.0033 -0.4499
24.0800 8.0099 -0.4535
24.1000 8.0166 -0.4429
24.1200 8.0233 -0.4493
24.1400 8.0300 -0.4530
24.1600 8.0366 -0.4459
24.1800 8.0433 -0.4449
24.2000 8.0500 -0.4550
24.2200 8.0566 -0.4522
24.2400 8.0632 -0.4475
24.2600 8.0699 -0.4518
24.2800 8.0766 -0.4490
24.3000 8.0833 -0.4482
24.3200 8.0900 -0.4533
24.3400 8.0967 -0.4504
24.3600 8.1034 -0.4443
24.3800 8.1101 -0.4523
24.4000 8.1167 -0.4526
24.4200 8.1233 -0.4480
24.4400 8.1299 -0.4519
24.4600 8.1366 -0.4540
24.4800 8.1433 -0.4407
24.5000 8.1501 -0.4599
24.5200 8.1567 -0.4476
24.5400 8.1634 -0.4455
24.5600 8.1701 -0.4602
24.5800 8.1767 -0.4419
24.6000 8.1833 -0.4415
24.6200 8.1899 -0.4617
24.6400 8.1966 -0.4415
24.6600 8.2033 -0.4455
24.6800 8.2100 -0.4637
24.7000 8.2166 -0.4412
24.7200 8.2233 -0.4464
24.7400 8.2300 -0.4627
24.7600 8.2367 -0.4422
24.7800 8.2433 -0.4523
24.8000 8.2499 -0.4561
24.8200 8.2566 -0.4397
24.8400 8.2633 -0.4561
24.8600 8.2700 -0.4543
24.8800 8.2767 -0.4404
24.9000 8.2833 -0.4564
24.9200 8.2900 -0.4571
24.9400 8.2967 -0.4437
24.9600 8.3033 -0.4595
24.9800 8.3099 -0.4498
25.0000 8.3166 -0.4451
25.0200 8.3233 -0.4557
25.0400 8.3300 -0.4528
25.0600 8.3367 -0.4534
25.0800 8.3434 -0.4542
25.1000 8.3500 -0.4490
25.1200 8.3567 -0.4595
25.1400 8.3633 -0.4511
25.1600 8.3699 -0.4486
25.1800 8.3766 -0.4581
25.2000 8.3833 -0.4518
25.2200 8.3900 -0.4503
25.2400 8.3967 -0.4598
25.2600 8.4034 -0.4512
25.2800 8.4100 -0.4574
25.3000 8.4167 -0.4586
25.3200 8.4233 -0.4483
25.3400 8.4299 -0.4555
25.3600 8.4366 -0.4560
25.3800 8.4433 -0.4484
25.4000 8.4500 -0.4575
25.4200 8.4567 -0.4571
25.4400 8.4633 -0.4494
25.4600 8.4700 -0.4587
25.4800 8.4767 -0.4533
25.5000 8.4833 -0.4560
25.5200 8.4899 -0.4600
25.5400 8.4965 -0.4521
25.5600 8.5032 -0.4503
25.5800 8.5099 -0.4641
25.6000 8.5166 -0.4562
25.6200 8.5233 -0.4527
25.6400 8.5300 -0.4655
25.6600 8.5367 -0.4557
25.6800 8.5433 -0.4526
25.7000 8.5499 -0.4628
25.7200 8.5566 -0.4557
25.7400 8.5633 -0.4549
25.7600 8.5700 -0.4609
25.7800 8.5767 -0.4608
25.8000 8.5834 -0.4565
25.8200 8.5901 -0.4646
25.8400 8.5967 -0.4604
25.8600 8.6033 -0.4600
25.8800 8.6099 -0.4648
25.9000 8.6166 -0.4565
25.9200 8.6233 -0.4587
25.9400 8.6300 -0.4585
25.9600 8.6367 -0.4638
25.9800 8.6434 -0.4626
26.0000 8.6501 -0.4560
26.0200 8.6567 -0.4645
26.0400 8.6633 -0.4647
26.0600 8.6699 -0.4485
26.0800 8.6766 -0.4635
26.1000 8.6833 -0.4641
26.1200 8.6900 -0.4574
26.1400 8.6966 -0.4598
26.1600 8.7033 -0.4628
26.1800 8.7100 -0.4609
26.2000 8.7167 -0.4681
26.2200 8.7233 -0.4600
26.2400 8.7299 -0.4632
26.2600 8.7365 -0.4631
26.2800 8.7432 -0.4529
26.3000 8.7499 -0.4659
26.3200 8.7566 -0.4659
26.3400 8.7633 -0.4549
26.3600 8.7700 -0.4710
26.3800 8.7767 -0.4601
26.4000 8.7833 -0.4587
26.4200 8.7899 -0.4754
26.4400 8.7966 -0.4609
26.4600 8.8033 -0.4572
26.4800 8.8100 -0.4754
26.5000 8.8167 -0.4671
26.5200 8.8234 -0.4597
26.5400 8.8300 -0.4750
26.5600 8.8367 -0.4649
26.5800 8.8434 -0.4618
26.6000 8.8500 -0.4677
26.6200 8.8566 -0.4707
26.6400 8.8633 -0.4638
26.6600 8.8700 -0.4681
26.6800 8.8767 -0.4654
26.7000 8.8834 -0.4673
26.7200 8.8901 -0.4627
26.7400 8.8967 -0.4702
26.7600 8.9033 -0.4652
26.7800 8.9099 -0.4631
26.8000 8.9166 -0.4675
26.8200 8.9233 -0.4682
26.8400 8.9300 -0.4638
26.8600 8.9367 -0.4730
26.8800 8.9433 -0.4671
26.9000 8.9500 -0.4611
26.9200 8.9567 -0.4706
26.9400 8.9633 -0.4702
26.9600 8.9699 -0.4635
26.9800 8.9765 -0.4692
27.0000 8.9832 -0.4661
27.0200 8.9899 -0.4618
27.0400 8.9966 -0.4718
27.0600 9.0033 -0.4681
27.0800 9.0100 -0.4654
27.1000 9.0167 -0.4691
27.1200 9.0233 -0.4678
27.1400 9.0299 -0.4667
27.1600 9.0366 -0.4696
27.1800 9.0433 -0.4700
27.2000 9.0500 -0.4716
27.2200 9.0566 -0.4662
27.2400 9.0633 -0.4736
27.2600 9.0700 -0.4654
27.2800 9.0767 -0.4669
27.3000 9.0834 -0.4741
27.3200 9.0899 -0.4674
27.3400 9.0966 -0.4637
27.3600 9.1033 -0.4770
27.3800 9.1100 -0.4681
27.4000 9.1167 -0.4687
27.4200 9.1234 -0.4710
27.4400 9.1301 -0.4654
27.4600 9.1367 -0.4690
27.4800 9.1433 -0.4795
27.5000 9.1499 -0.4652
27.5200 9.1566 -0.4676
27.5400 9.1633 -0.4780
27.5600 9.1700 -0.4663
27.5800 9.1767 -0.4709
27.6000 9.1833 -0.4778
27.6200 9.1900 -0.4663
27.6400 9.1967 -0.4726
27.6600 9.2033 -0.4733
27.6800 9.2099 -0.4613
27.7000 9.2165 -0.4771
27.7200 9.2232 -0.4740
27.7400 9.2299 -0.4675
27.7600 9.2366 -0.4694
27.7800 9.2433 -0.4759
27.8000 9.2500 -0.4658
27.8200 9.2567 -0.4768
27.8400 9.2633 -0.4750
27.8600 9.2699 -0.4654
27.8800 9.2766 -0.4739
27.9000 9.2833 -0.4762
27.9200 9.2900 -0.4674
27.9400 9.2967 -0.4766
27.9600 9.3034 -0.4720
27.9800 9.3101 -0.4661
28.0000 9.3167 -0.4763
28.0200 9.3234 -0.4726
28.0400 9.3300 -0.4694
28.0600 9.3366 -0.4793
28.0800 9.3433 -0.4692
28.1000 9.3500 -0.4697
28.1200 9.3567 -0.4813
28.1400 9.3633 -0.4701
28.1600 9.3700 -0.4718
28.1800 9.3767 -0.4786
28.2000 9.3833 -0.4775
28.2200 9.3899 -0.4691
28.2400 9.3966 -0.4777
28.2600 9.4032 -0.4742
28.2800 9.4099 -0.4763
28.3000 9.4166 -0.4747
28.3200 9.4233 -0.4743
28.3400 9.4300 -0.4758
28.3600 9.4367 -0.4781
28.3800 9.4433 -0.4751
28.4000 9.4499 -0.4714
28.4200 9.4565 -0.4743
28.4400 9.4632 -0.4785
28.4600 9.4700 -0.4679
28.4800 9.4767 -0.4798
28.5000 9.4833 -0.4784
28.5200 9.4900 -0.4669
28.5400 9.4967 -0.4731
28.5600 9.5033 -0.4859
28.5800 9.5099 -0.4718
28.6000 9.5166 -0.4725
28.6200 9.5233 -0.4817
28.6400 9.5300 -0.4744
28.6600 9.5367 -0.4762
28.6800 9.5433 -0.4803
28.7000 9.5500 -0.4773
28.7200 9.5567 -0.4729
28.7400 9.5634 -0.4801
28.7600 9.5700 -0.4743
28.7800 9.5766 -0.4790
28.8000 9.5833 -0.4819
28.8200 9.5900 -0.4736
28.8400 9.5967 -0.4756
28.8600 9.6034 -0.4801
28.8800 9.6101 -0.4757
28.9000 9.6168 -0.4777
28.9200 9.6234 -0.4812
28.9400 9.6300 -0.4780
28.9600 9.6366 -0.4715
28.9800 9.6432 -0.4841
29.0000 9.6499 -0.4761
29.0200 9.6566 -0.4723
29.0400 9.6633 -0.4831
29.0600 9.6700 -0.4795
29.0800 9.6767 -0.4715
29.1000 9.6833 -0.4828
29.1200 9.6900 -0.4835
29.1400 9.6966 -0.4713
29.1600 9.7032 -0.4809
29.1800 9.7099 -0.4795
29.2000 9.7166 -0.4752
29.2200 9.7233 -0.4886
29.2400 9.7300 -0.4788
29.2600 9.7367 -0.4733
29.2800 9.7433 -0.4873
29.3000 9.7500 -0.4771
29.3200 9.7566 -0.4695
29.3400 9.7633 -0.4857
29.3600 9.7700 -0.4843
29.3800 9.7767 -0.4720
29.4000 9.7833 -0.4848
29.4200 9.7900 -0.4779
29.4400 9.7967 -0.4813
29.4600 9.8034 -0.4841
29.4800 9.8100 -0.4774
29.5000 9.8166 -0.4797
29.5200 9.8232 -0.4849
29.5400 9.8299 -0.4780
29.5600 9.8367 -0.4810
29.5800 9.8434 -0.4865
29.6000 9.8500 -0.4817
29.6200 9.8567 -0.4790
29.6400 9.8634 -0.4848
29.6600 9.8700 -0.4850
29.6800 9.8766 -0.4820
29.7000 9.8833 -0.4811
29.7200 9.8899 -0.4847
29.7400 9.8966 -0.4783
29.7600 9.9033 -0.4826
29.7800 9.9100 -0.4877
29.8000 9.9167 -0.4785
29.8200 9.9233 -0.4843
29.8400 9.9299 -0.4838
29.8600 9.9365 -0.4788
29.8800 9.9432 -0.4832
29.9000 9.9499 -0.4875
29.9200 9.9566 -0.4798
29.9400 9.9633 -0.4868
29.9600 9.9700 -0.4774
29.9800 9.9766 -0.4854
30.0000 9.9833 -0.4917
30.0200 9.9899 -0.4773
30.0400 9.9966 -0.4815
30.0600 10.0032 -0.4953
30.0800 10.0100 -0.4761
30.1000 10.0167 -0.4801
30.1200 10.0234 -0.4968
30.1400 10.0300 -0.4813
30.1600 10.0367 -0.4757
30.1800 10.0434 -0.4947
30.2000 10.0500 -0.4848
30.2200 10.0566 -0.4751
30.2400 10.0633 -0.4876
30.2600 10.0700 -0.4863
30.2800 10.0767 -0.4818
30.3000 10.0834 -0.4840
30.3200 10.0900 -0.4906
30.3400 10.0967 -0.4773
30.3600 10.1034 -0.4916
30.3800 10.1100 -0.4879
30.4000 10.1166 -0.4800
30.4200 10.1232 -0.4876
30.4400 10.1299 -0.4897
30.4600 10.1366 -0.4801
30.4800 10.1433 -0.4912
30.5000 10.1500 -0.4875
30.5200 10.1567 -0.4770
30.5400 10.1633 -0.4932
30.5600 10.1700 -0.4922
30.5800 10.1766 -0.4739
30.6000 10.1832 -0.4903
30.6200 10.1899 -0.4880
30.6400 10.1967 -0.4843
30.6600 10.2033 -0.4894
30.6800 10.2100 -0.4882
30.7000 10.2167 -0.4805
30.7200 10.2233 -0.4904
30.7400 10.2300 -0.4907
30.7600 10.2366 -0.4796
30.7800 10.2433 -0.4863
30.8000 10.2500 -0.4877
30.8200 10.2566 -0.4828
30.8400 10.2633 -0.4892
30.8600 10.2700 -0.4904
30.8800 10.2767 -0.4848
30.9000 10.2834 -0.4878
30.9200 10.2900 -0.4923
30.9400 10.2966 -0.4861
30.9600 10.3032 -0.4846
30.9800 10.3099 -0.4925
31.0000 10.3167 -0.4883
31.0200 10.3234 -0.4857
31.0400 10.3300 -0.4896
31.0600 10.3367 -0.4939
31.0800 10.3434 -0.4873
31.1000 10.3500 -0.4962
31.1200 10.3566 -0.4878
31.1400 10.3632 -0.4848
31.1600 10.3699 -0.4876
31.1800 10.3766 -0.4953
31.2000 10.3833 -0.4860
31.2200 10.3900 -0.4957
31.2400 10.3967 -0.4939
31.2600 10.4033 -0.4846
31.2800 10.4100 -0.4938
31.3000 10.4166 -0.4917
31.3200 10.4232 -0.4850
31.3400 10.4299 -0.4963
31.3600 10.4366 -0.4917
31.3800 10.4433 -0.4850
31.4000 10.4500 -0.4994
31.4200 10.4567 -0.4927
31.4400 10.4634 -0.4843
31.4600 10.4700 -0.4986
31.4800 10.4766 -0.4915
31.5000 10.4832 -0.4824
31.5200 10.4899 -0.5014
31.5400 10.4967 -0.4920
31.5600 10.5034 -0.4890
31.5800 10.5100 -0.4984
31.6000 10.5167 -0.4880
31.6200 10.5234 -0.4935
31.6400 10.5300 -0.4967
31.6600 10.5366 -0.4895
31.6800 10.5432 -0.4919
31.7000 10.5499 -0.4931
31.7200 10.5567 -0.4913
31.7400 10.5634 -0.4915
31.7600 10.5700 -0.5000
31.7800 10.5767 -0.4873
31.8000 10.5834 -0.4938
31.8200 10.5900 -0.5013
31.8400 10.5966 -0.4856
31.8600 10.6032 -0.4902
31.8800 10.6099 -0.4964
31.9000 10.6166 -0.4939
31.9200 10.6233 -0.4965
31.9400 10.6300 -0.4930
31.9600 10.6367 -0.4930
31.9800 10.6434 -0.4997
32.0000 10.6500 -0.4951
32.0200 10.6566 -0.4891
32.0400 10.6632 -0.4957
32.0600 10.6699 -0.4966
32.0800 10.6766 -0.4946
32.1000 10.6833 -0.4947
32.1200 10.6900 -0.4943
32.1400 10.6967 -0.4998
32.1600 10.7033 -0.4924
32.1800 10.7100 -0.4983
32.2000 10.7166 -0.4983
32.2200 10.7232 -0.4951
32.2400 10.7299 -0.4914
32.2600 10.7367 -0.4986
32.2800 10.7433 -0.4947
32.3000 10.7500 -0.4994
32.3200 10.7567 -0.4956
32.3400 10.7634 -0.4927
32.3600 10.7701 -0.5019
32.3800 10.7767 -0.4951
32.4000 10.7833 -0.4939
32.4200 10.7899 -0.5041
32.4400 10.7966 -0.4963
32.4600 10.8033 -0.4950
32.4800 10.8100 -0.4995
32.5000 10.8167 -0.4947
32.5200 10.8234 -0.5014
32.5400 10.8300 -0.4968
32.5600 10.8366 -0.4978
32.5800 10.8432 -0.4997
32.6000 10.8499 -0.4913
32.6200 10.8566 -0.5006
32.6400 10.8633 -0.5089
32.6600 10.8700 -0.4928
32.6800 10.8767 -0.4983
32.7000 10.8834 -0.5007
32.7200 10.8900 -0.4919
32.7400 10.8966 -0.5017
32.7600 10.9032 -0.5052
32.7800 10.9099 -0.4887
32.8000 10.9166 -0.5100
32.8200 10.9233 -0.5013
32.8400 10.9300 -0.4872
32.8600 10.9367 -0.5073
32.8800 10.9434 -0.5041
32.9000 10.9500 -0.4946
32.9200 10.9566 -0.5076
32.9400 10.9632 -0.4974
32.9600 10.9699 -0.4917
32.9800 10.9766 -0.5047
33.0000 10.9833 -0.5015
33.0200 10.9900 -0.4988
33.0400 10.9967 -0.5062
33.0600 11.0034 -0.5004
33.0800 11.0100 -0.5012
33.1000 11.0166 -0.5102
33.1200 11.0232 -0.4994
33.1400 11.0299 -0.5008
33.1600 11.0367 -0.5028
33.1800 11.0434 -0.5016
33.2000 11.0500 -0.5057
33.2200 11.0567 -0.5031
33.2400 11.0634 -0.4981
33.2600 11.0700 -0.5071
33.2800 11.0766 -0.5023
33.3000 11.0832 -0.5012
33.3200 11.0899 -0.5028
33.3400 11.0966 -0.5074
33.3600 11.1033 -0.5039
33.3800 11.1100 -0.5038
33.4000 11.1167 -0.5016
33.4200 11.1233 -0.5081
33.4400 11.1300 -0.5027
33.4600 11.1366 -0.5022
33.4800 11.1432 -0.5139
33.5000 11.1499 -0.5001
33.5200 11.1566 -0.4990
33.5400 11.1633 -0.5128
33.5600 11.1700 -0.4954
33.5800 11.1767 -0.5082
33.6000 11.1834 -0.5102
33.6200 11.1900 -0.4983
33.6400 11.1966 -0.5101
33.6600 11.2033 -0.5109
33.6800 11.2099 -0.4978
33.7000 11.2167 -0.5116
33.7200 11.2234 -0.5085
33.7400 11.2301 -0.4958
33.7600 11.2367 -0.5155
33.7800 11.2434 -0.5088
33.8000 11.2500 -0.5011
33.8200 11.2566 -0.5127
33.8400 11.2632 -0.5019
33.8600 11.2699 -0.4997
33.8800 11.2766 -0.5174
33.9000 11.2833 -0.5036
33.9200 11.2900 -0.5040
33.9400 11.2967 -0.5122
33.9600 11.3034 -0.5041
33.9800 11.3100 -0.5076
34.0000 11.3166 -0.5163
34.0200 11.3232 -0.5008
34.0400 11.3299 -0.5016
34.0600 11.3366 -0.5140
34.0800 11.3433 -0.5067
34.1000 11.3500 -0.5030
34.1200 11.3567 -0.5121
34.1400 11.3634 -0.5091
34.1600 11.3700 -0.5081
34.1800 11.3766 -0.5069
34.2000 11.3832 -0.5048
34.2200 11.3899 -0.5084
34.2400 11.3966 -0.5074
34.2600 11.4033 -0.5120
34.2800 11.4100 -0.5036
34.3000 11.4166 -0.5055
34.3200 11.4233 -0.5123
34.3400 11.4300 -0.5069
34.3600 11.4366 -0.5029
34.3800 11.4432 -0.5140
34.4000 11.4499 -0.5048
34.4200 11.4566 -0.5031
34.4400 11.4633 -0.5156
34.4600 11.4700 -0.5048
34.4800 11.4767 -0.5047
34.5000 11.4834 -0.5168
34.5200 11.4901 -0.5025
34.5400 11.4967 -0.5060
34.5600 11.5033 -0.5148
34.5800 11.5099 -0.5029
34.6000 11.5166 -0.5036
34.6200 11.5233 -0.5148
34.6400 11.5300 -0.5022
34.6600 11.5367 -0.5066
34.6800 11.5434 -0.5106
34.7000 11.5500 -0.5034
34.7200 11.5566 -0.5130
34.7400 11.5632 -0.5108
34.7600 11.5699 -0.4988
34.7800 11.5766 -0.5076
34.8000 11.5833 -0.5227
34.8200 11.5900 -0.4996
34.8400 11.5966 -0.5044
34.8600 11.6033 -0.5183
34.8800 11.6100 -0.5006
34.9000 11.6166 -0.5124
34.9200 11.6232 -0.5155
34.9400 11.6299 -0.4986
34.9600 11.6366 -0.5160
34.9800 11.6433 -0.5165
35.0000 11.6500 -0.4984
35.0200 11.6567 -0.5083
35.0400 11.6634 -0.5276
35.0600 11.6701 -0.5026
35.0800 11.6767 -0.5063
35.1000 11.6833 -0.5155
35.1200 11.6899 -0.4997
35.1400 11.6966 -0.5102
35.1600 11.7033 -0.5235
35.1800 11.7100 -0.5018
35.2000 11.7167 -0.5047
35.2200 11.7234 -0.5151
35.2400 11.7300 -0.5125
35.2600 11.7367 -0.5187
35.2800 11.7433 -0.5141
35.3000 11.7499 -0.4991
35.3200 11.7566 -0.5133
35.3400 11.7633 -0.5197
35.3600 11.7700 -0.5052
35.3800 11.7767 -0.5180
35.4000 11.7834 -0.5084
35.4200 11.7901 -0.5067
35.4400 11.7967 -0.5146
35.4600 11.8033 -0.5185
35.4800 11.8099 -0.5068
35.5000 11.8166 -0.5116
35.5200 11.8233 -0.5117
35.5400 11.8300 -0.5114
35.5600 11.8367 -0.5172
35.5800 11.8434 -0.5093
35.6000 11.8501 -0.5074
35.6200 11.8567 -0.5143
35.6400 11.8632 -0.5088
35.6600 11.8699 -0.5223
35.6800 11.8765 -0.5070
35.7000 11.8833 -0.5060
35.7200 11.8900 -0.5200
35.7400 11.8967 -0.5132
35.7600 11.9033 -0.5163
35.7800 11.9100 -0.5122
35.8000 11.9166 -0.5088
35.8200 11.9232 -0.5185
35.8400 11.9299 -0.5254
35.8600 11.9366 -0.5019
35.8800 11.9433 -0.5032
35.9000 11.9500 -0.5197
35.9200 11.9567 -0.5155
35.9400 11.9634 -0.5206
35.9600 11.9700 -0.5126
35.9800 11.9767 -0.4991
36.0000 11.9833 -0.5175
36.0200 11.9899 -0.5220
36.0400 11.9966 -0.5202
36.0600 12.0033 -0.5121
36.0800 12.0100 -0.5118
36.1000 12.0167 -0.5051
36.1200 12.0234 -0.5183
36.1400 12.0301 -0.5303
36.1600 12.0367 -0.5183
36.1800 12.0433 -0.4946
36.2000 12.0499 -0.5038
36.2200 12.0566 -0.5215
36.2400 12.0633 -0.5259
36.2600 12.0700 -0.5118
36.2800 12.0767 -0.5080
36.3000 12.0833 -0.5082
36.3200 12.0900 -0.5240
36.3400 12.0967 -0.5212
36.3600 12.1033 -0.5084
36.3800 12.1099 -0.5142
36.4000 12.1166 -0.5147
36.4200 12.1233 -0.5136
36.4400 12.1300 -0.5174
36.4600 12.1366 -0.5139
36.4800 12.1433 -0.5086
36.5000 12.1500 -0.5222
36.5200 12.1567 -0.5213
36.5400 12.1633 -0.5045
36.5600 12.1699 -0.5199
36.5800 12.1766 -0.5213
36.6000 12.1833 -0.5048
36.6200 12.1900 -0.5232
36.6400 12.1967 -0.5184
36.6600 12.2034 -0.5104
36.6800 12.2101 -0.5180
36.7000 12.2167 -0.5189
36.7200 12.2233 -0.5108
36.7400 12.2299 -0.5265
36.7600 12.2366 -0.5155
36.7800 12.2433 -0.5098
36.8000 12.2500 -0.5248
36.8200 12.2567 -0.5200
36.8400 12.2634 -0.5096
36.8600 12.2700 -0.5267
36.8800 12.2766 -0.5203
36.9000 12.2832 -0.5031
36.9200 12.2899 -0.5213
36.9400 12.2966 -0.5234
36.9600 12.3033 -0.5128
36.9800 12.3100 -0.5250
37.0000 12.3167 -0.5162
37.0200 12.3233 -0.5067
37.0400 12.3300 -0.5333
37.0600 12.3366 -0.5196
37.0800 12.3432 -0.5098
37.1000 12.3499 -0.5292
37.1200 12.3565 -0.5182
37.1400 12.3633 -0.5118
37.1600 12.3700 -0.5291
37.1800 12.3767 -0.5180
37.2000 12.3834 -0.5169
37.2200 12.3900 -0.5290
37.2400 12.3967 -0.5161
37.2600 12.4033 -0.5159
37.2800 12.4099 -0.5321
37.3000 12.4166 -0.5129
37.3200 12.4233 -0.5224
37.3400 12.4300 -0.5308
37.3600 12.4367 -0.5094
37.3800 12.4434 -0.5197
37.4000 12.4501 -0.5376
37.4200 12.4567 -0.5136
37.4400 12.4633 -0.5194
37.4600 12.4699 -0.5340
37.4800 12.4766 -0.5086
37.5000 12.4833 -0.5268
37.5200 12.4900 -0.5314
37.5400 12.4967 -0.5132
37.5600 12.5034 -0.5229
37.5800 12.5101 -0.5354
37.6000 12.5167 -0.5155
37.6200 12.5233 -0.5219
37.6400 12.5299 -0.5301
37.6600 12.5366 -0.5199
37.6800 12.5433 -0.5275
37.7000 12.5500 -0.5289
37.7200 12.5567 -0.5193
37.7400 12.5633 -0.5308
37.7600 12.5700 -0.5255
37.7800 12.5766 -0.5215
37.8000 12.5832 -0.5293
37.8200 12.5898 -0.5310
37.8400 12.5965 -0.5135
37.8600 12.6032 -0.5248
37.8800 12.6099 -0.5322
37.9000 12.6166 -0.5251
37.9200 12.6233 -0.5221
37.9400 12.6300 -0.5263
37.9600 12.6367 -0.5268
37.9800 12.6433 -0.5224
38.0000 12.6499 -0.5286
38.0200 12.6566 -0.5284
38.0400 12.6633 -0.5232
38.0600 12.6700 -0.5309
38.0800 12.6767 -0.5232
38.1000 12.6834 -0.5264
38.1200 12.6901 -0.5383
38.1400 12.6967 -0.5273
38.1600 12.7033 -0.5207
38.1800 12.7099 -0.5327
38.2000 12.7166 -0.5267
38.2200 12.7233 -0.5246
38.2400 12.7300 -0.5432
38.2600 12.7367 -0.5163
38.2800 12.7434 -0.5222
38.3000 12.7501 -0.5485
38.3200 12.7567 -0.5216
38.3400 12.7633 -0.5172
38.3600 12.7699 -0.5478
38.3800 12.7766 -0.5167
38.4000 12.7833 -0.5232
38.4200 12.7900 -0.5417
38.4400 12.7967 -0.5210
38.4600 12.8033 -0.5265
38.4800 12.8100 -0.5434
38.5000 12.8167 -0.5271
38.5200 12.8233 -0.5254
38.5400 12.8299 -0.5418
38.5600 12.8366 -0.5213
38.5800 12.8433 -0.5226
38.6000 12.8500 -0.5493
38.6200 12.8566 -0.5273
38.6400 12.8633 -0.5162
38.6600 12.8699 -0.5406
38.6800 12.8766 -0.5325
38.7000 12.8832 -0.5278
38.7200 12.8899 -0.5387
38.7400 12.8966 -0.5258
38.7600 12.9033 -0.5230
38.7800 12.9100 -0.5488
38.8000 12.9167 -0.5259
38.8200 12.9234 -0.5267
38.8400 12.9300 -0.5411
38.8600 12.9367 -0.5262
38.8800 12.9433 -0.5238
38.9000 12.9499 -0.5471
38.9200 12.9566 -0.5279
38.9400 12.9633 -0.5226
38.9600 12.9701 -0.5447
38.9800 12.9767 -0.5344
39.0000 12.9834 -0.5206
39.0200 12.9900 -0.5391
39.0400 12.9967 -0.5342
39.0600 13.0033 -0.5228
39.0800 13.0099 -0.5450
39.1000 13.0166 -0.5360
39.1200 13.0233 -0.5193
39.1400 13.0300 -0.5355
39.1600 13.0366 -0.5374
39.1800 13.0433 -0.5306
39.2000 13.0500 -0.5391
39.2200 13.0567 -0.5279
39.2400 13.0633 -0.5269
39.2600 13.0699 -0.5441
39.2800 13.0765 -0.5399
39.3000 13.0832 -0.5279
39.3200 13.0900 -0.5350
39.3400 13.0967 -0.5254
39.3600 13.1033 -0.5349
39.3800 13.1100 -0.5466
39.4000 13.1167 -0.5367
39.4200 13.1233 -0.5186
39.4400 13.1299 -0.5334
39.4600 13.1366 -0.5456
39.4800 13.1433 -0.5334
39.5000 13.1500 -0.5298
39.5200 13.1567 -0.5377
39.5400 13.1634 -0.5299
39.5600 13.1700 -0.5393
39.5800 13.1767 -0.5393
39.6000 13.1833 -0.5298
39.6200 13.1899 -0.5287
39.6400 13.1966 -0.5337
39.6600 13.2032 -0.5369
39.6800 13.2100 -0.5420
39.7000 13.2167 -0.5325
39.7200 13.2234 -0.5272
39.7400 13.2300 -0.5326
39.7600 13.2367 -0.5406
39.7800 13.2433 -0.5474
39.8000 13.2499 -0.5276
39.8200 13.2566 -0.5262
39.8400 13.2633 -0.5322
39.8600 13.2700 -0.5458
39.8800 13.2767 -0.5416
39.9000 13.2834 -0.5238
39.9200 13.2901 -0.5296
39.9400 13.2967 -0.5498
39.9600 13.3033 -0.5334
39.9800 13.3099 -0.5302
40.0000 13.3165 -0.5355
40.0200 13.3232 -0.5318
40.0400 13.3299 -0.5351
40.0600 13.3366 -0.5450
40.0800 13.3433 -0.5305
40.1000 13.3500 -0.5315
40.1200 13.3567 -0.5383
40.1400 13.3633 -0.5361
40.1600 13.3699 -0.5440
40.1800 13.3766 -0.5310
40.2000 13.3832 -0.5271
40.2200 13.3900 -0.5428
40.2400 13.3967 -0.5359
40.2600 13.4034 -0.5495
40.2800 13.4101 -0.5396
40.3000 13.4167 -0.5164
40.3200 13.4233 -0.5421
40.3400 13.4299 -0.5473
40.3600 13.4366 -0.5273
40.3800 13.4433 -0.5459
40.4000 13.4500 -0.5494
40.4200 13.4567 -0.5116
40.4400 13.4634 -0.5407
40.4600 13.4700 -0.5476
40.4800 13.4767 -0.5394
40.5000 13.4833 -0.5447
40.5200 13.4899 -0.5253
40.5400 13.4966 -0.5283
40.5600 13.5033 -0.5541
40.5800 13.5100 -0.5361
40.6000 13.5166 -0.5423
40.6200 13.5233 -0.5436
40.6400 13.5300 -0.5205
40.6600 13.5367 -0.5407
40.6800 13.5433 -0.5556
40.7000 13.5499 -0.5240
40.7200 13.5565 -0.5427
40.7400 13.5632 -0.5431
40.7600 13.5699 -0.5185
40.7800 13.5766 -0.5518
40.8000 13.5833 -0.5458
40.8200 13.5900 -0.5247
40.8400 13.5967 -0.5479
40.8600 13.6033 -0.5451
40.8800 13.6099 -0.5260
40.9000 13.6166 -0.5477
40.9200 13.6233 -0.5398
40.9400 13.6300 -0.5288
40.9600 13.6367 -0.5525
40.9800 13.6434 -0.5432
41.0000 13.6500 -0.5261
41.0200 13.6567 -0.5496
41.0400 13.6634 -0.5422
41.0600 13.6700 -0.5379
41.0800 13.6766 -0.5476
41.1000 13.6833 -0.5348
41.1200 13.6899 -0.5334
41.1400 13.6966 -0.5503
41.1600 13.7033 -0.5400
41.1800 13.7101 -0.5419
41.2000 13.7168 -0.5434
41.2200 13.7234 -0.5403
41.2400 13.7299 -0.5404
41.2600 13.7365 -0.5416
41.2800 13.7432 -0.5471
41.3000 13.7499 -0.5377
41.3200 13.7567 -0.5318
41.3400 13.7634 -0.5479
41.3600 13.7700 -0.5448
41.3800 13.7767 -0.5399
41.4000 13.7833 -0.5514
41.4200 13.7899 -0.5345
41.4400 13.7965 -0.5403
41.4600 13.8032 -0.5599
41.4800 13.8099 -0.5338
41.5000 13.8166 -0.5415
41.5200 13.8233 -0.5601
41.5400 13.8300 -0.5302
41.5600 13.8367 -0.5453
41.5800 13.8433 -0.5646
41.6000 13.8500 -0.5361
41.6200 13.8566 -0.5369
41.6400 13.8633 -0.5596
41.6600 13.8699 -0.5358
41.6800 13.8766 -0.5467
41.7000 13.8833 -0.5544
41.7200 13.8900 -0.5314
41.7400 13.8967 -0.5522
41.7600 13.9034 -0.5557
41.7800 13.9100 -0.5322
41.8000 13.9166 -0.5534
41.8200 13.9233 -0.5522
41.8400 13.9300 -0.5392
41.8600 13.9367 -0.5520
41.8800 13.9434 -0.5532
41.9000 13.9500 -0.5384
41.9200 13.9567 -0.5507
41.9400 13.9633 -0.5545
41.9600 13.9699 -0.5363
41.9800 13.9766 -0.5532
42.0000 13.9833 -0.5488
42.0200 13.9900 -0.5437
42.0400 13.9967 -0.5538
42.0600 14.0033 -0.5496
42.0800 14.0100 -0.5448
42.1000 14.0167 -0.5489
42.1200 14.0234 -0.5493
42.1400 14.0300 -0.5511
42.1600 14.0365 -0.5464
42.1800 14.0432 -0.5515
42.2000 14.0499 -0.5459
42.2200 14.0566 -0.5407
42.2400 14.0633 -0.5531
42.2600 14.0700 -0.5559
42.2800 14.0767 -0.5435
42.3000 14.0833 -0.5530
42.3200 14.0899 -0.5497
42.3400 14.0966 -0.5433
42.3600 14.1033 -0.5614
42.3800 14.1100 -0.5484
42.4000 14.1167 -0.5400
42.4200 14.1234 -0.5625
42.4400 14.1301 -0.5518
42.4600 14.1367 -0.5447
42.4800 14.1434 -0.5634
42.5000 14.1500 -0.5504
42.5200 14.1566 -0.5406
42.5400 14.1633 -0.5612
42.5600 14.1700 -0.5480
42.5800 14.1767 -0.5411
42.6000 14.1834 -0.5679
42.6200 14.1900 -0.5472
42.6400 14.1967 -0.5448
42.6600 14.2033 -0.5654
42.6800 14.2099 -0.5450
42.7000 14.2165 -0.5441
42.7200 14.2232 -0.5697
42.7400 14.2299 -0.5428
42.7600 14.2366 -0.5414
42.7800 14.2433 -0.5669
42.8000 14.2500 -0.5493
42.8200 14.2567 -0.5427
42.8400 14.2634 -0.5643
42.8600 14.2699 -0.5480
42.8800 14.2765 -0.5512
42.9000 14.2832 -0.5595
42.9200 14.2899 -0.5478
42.9400 14.2967 -0.5553
42.9600 14.3033 -0.5605
42.9800 14.3100 -0.5474
43.0000 14.3167 -0.5555
43.0200 14.3233 -0.5553
43.0400 14.3299 -0.5469
43.0600 14.3366 -0.5596
43.0800 14.3433 -0.5569
43.1000 14.3500 -0.5544
43.1200 14.3567 -0.5560
43.1400 14.3634 -0.5480
43.1600 14.3700 -0.5570
43.1800 14.3767 -0.5620
43.2000 14.3834 -0.5478
43.2200 14.3900 -0.5630
43.2400 14.3966 -0.5550
43.2600 14.4033 -0.5486
43.2800 14.4100 -0.5594
43.3000 14.4167 -0.5554
43.3200 14.4234 -0.5516
43.3400 14.4301 -0.5658
43.3600 14.4367 -0.5529
43.3800 14.4434 -0.5517
43.4000 14.4500 -0.5642
43.4200 14.4566 -0.5532
43.4400 14.4632 -0.5590
43.4600 14.4699 -0.5628
43.4800 14.4766 -0.5465
43.5000 14.4833 -0.5618
43.5200 14.4899 -0.5640
43.5400 14.4966 -0.5496
43.5600 14.5033 -0.5663
43.5800 14.5100 -0.5632
43.6000 14.5166 -0.5499
43.6200 14.5232 -0.5610
43.6400 14.5299 -0.5649
43.6600 14.5366 -0.5566
43.6800 14.5433 -0.5661
43.7000 14.5499 -0.5557
43.7200 14.5567 -0.5529
43.7400 14.5634 -0.5629
43.7600 14.5700 -0.5638
43.7800 14.5766 -0.5572
43.8000 14.5833 -0.5635
43.8200 14.5899 -0.5547
43.8400 14.5967 -0.5567
43.8600 14.6033 -0.5652
43.8800 14.6100 -0.5662
43.9000 14.6167 -0.5589
43.9200 14.6234 -0.5582
43.9400 14.6300 -0.5662
43.9600 14.6366 -0.5568
43.9800 14.6432 -0.5576
44.0000 14.6500 -0.5683
44.0200 14.6567 -0.5552
44.0400 14.6634 -0.5613
44.0600 14.6700 -0.5730
44.0800 14.6767 -0.5563
44.1000 14.6834 -0.5600
44.1200 14.6900 -0.5704
44.1400 14.6966 -0.5589
44.1600 14.7032 -0.5584
44.1800 14.7099 -0.5677
44.2000 14.7166 -0.5585
44.2200 14.7233 -0.5632
44.2400 14.7300 -0.5675
44.2600 14.7367 -0.5627
44.2800 14.7433 -0.5582
44.3000 14.7499 -0.5652
44.3200 14.7565 -0.5553
44.3400 14.7631 -0.5592
44.3600 14.7699 -0.5704
44.3800 14.7766 -0.5650
44.4000 14.7833 -0.5493
44.4200 14.7900 -0.5614
44.4400 14.7966 -0.5761
44.4600 14.8033 -0.5602
44.4800 14.8099 -0.5587
44.5000 14.8166 -0.5660
44.5200 14.8232 -0.5466
44.5400 14.8300 -0.5753
44.5600 14.8367 -0.5766
44.5800 14.8434 -0.5386
44.6000 14.8500 -0.5629
44.6200 14.8567 -0.5784
44.6400 14.8634 -0.5444
44.6600 14.8700 -0.5757
44.6800 14.8767 -0.5710
44.7000 14.8833 -0.5336
44.7200 14.8900 -0.5731
44.7400 14.8967 -0.5706
44.7600 14.9034 -0.5481
44.7800 14.9100 -0.5754
44.8000 14.9167 -0.5560
44.8200 14.9234 -0.5478
44.8400 14.9300 -0.5835
44.8600 14.9366 -0.5524
44.8800 14.9432 -0.5510
44.9000 14.9499 -0.5752
44.9200 14.9566 -0.5551
44.9400 14.9633 -0.5595
44.9600 14.9700 -0.5774
44.9800 14.9767 -0.5441
45.0000 14.9833 -0.5587
45.0200 14.9900 -0.5802
45.0400 14.9966 -0.5660
45.0600 15.0032 -0.5497
45.0800 15.0099 -0.5590
45.1000 15.0166 -0.5609
45.1200 15.0233 -0.5667
45.1400 15.0299 -0.5695
45.1600 15.0366 -0.5634
45.1800 15.0433 -0.5502
45.2000 15.0500 -0.5516
45.2200 15.0566 -0.5746
45.2400 15.0633 -0.5765
45.2600 15.0700 -0.5641
45.2800 15.0767 -0.5547
45.3000 15.0834 -0.5389
45.3200 15.0900 -0.5778
45.3400 15.0967 -0.6025
45.3600 15.1034 -0.5349
45.3800 15.1100 -0.5466
45.4000 15.1166 -0.5877
45.4200 15.1232 -0.5472
45.4400 15.1299 -0.5626
45.4600 15.1367 -0.5979
45.4800 15.1434 -0.5349
45.5000 15.1501 -0.5584
45.5200 15.1567 -0.5978
45.5400 15.1634 -0.5384
45.5600 15.1700 -0.5664
45.5800 15.1766 -0.5913
45.6000 15.1832 -0.5347
45.6200 15.1899 -0.5781
45.6400 15.1967 -0.5849
45.6600 15.2034 -0.5352
45.6800 15.2100 -0.5738
45.7000 15.2167 -0.5857
45.7200 15.2233 -0.5427
45.7400 15.2300 -0.5727
45.7600 15.2366 -0.5690
45.7800 15.2432 -0.5407
45.8000 15.2499 -0.5889
45.8200 15.2566 -0.5730
45.8400 15.2633 -0.5433
45.8600 15.2700 -0.5760
45.8800 15.2767 -0.5701
45.9000 15.2834 -0.5584
45.9200 15.2900 -0.5838
45.9400 15.2966 -0.5644
45.9600 15.3032 -0.5530
45.9800 15.3099 -0.5720
46.0000 15.3166 -0.5707
46.0200 15.3233 -0.5683
46.0400 15.3300 -0.5752
46.0600 15.3367 -0.5606
46.0800 15.3434 -0.5643
46.1000 15.3500 -0.5742
46.1200 15.3566 -0.5708
46.1400 15.3633 -0.5713
46.1600 15.3700 -0.5672
46.1800 15.3767 -0.5666
46.2000 15.3834 -0.5675
46.2200 15.3900 -0.5693
46.2400 15.3967 -0.5668
46.2600 15.4034 -0.5675
46.2800 15.4100 -0.5670
46.3000 15.4166 -0.5645
46.3200 15.4232 -0.5694
46.3400 15.4299 -0.5669
46.3600 15.4366 -0.5735
46.3800 15.4433 -0.5696
46.4000 15.4500 -0.5627
46.4200 15.4567 -0.5690
46.4400 15.4634 -0.5705
46.4600 15.4700 -0.5740
46.4800 15.4766 -0.5655
46.5000 15.4832 -0.5631
46.5200 15.4898 -0.5692
46.5400 15.4966 -0.5717
46.5600 15.5033 -0.5690
46.5800 15.5100 -0.5705
46.6000 15.5166 -0.5678
46.6200 15.5233 -0.5637
46.6400 15.5300 -0.5719
46.6600 15.5366 -0.5784
46.6800 15.5432 -0.5631
46.7000 15.5499 -0.5680
46.7200 15.5566 -0.5688
46.7400 15.5633 -0.5661
46.7600 15.5700 -0.5735
46.7800 15.5767 -0.5728
46.8000 15.5834 -0.5657
46.8200 15.5901 -0.5713
46.8400 15.5967 -0.5688
46.8600 15.6033 -0.5670
46.8800 15.6100 -0.5694
46.9000 15.6167 -0.5701
46.9200 15.6234 -0.5706
46.9400 15.6300 -0.5718
46.9600 15.6367 -0.5706
46.9800 15.6434 -0.5678
47.0000 15.6500 -0.5751
47.0200 15.6566 -0.5675
47.0400 15.6632 -0.5710
47.0600 15.6699 -0.5731
47.0800 15.6766 -0.5681
47.1000 15.6833 -0.5674
47.1200 15.6900 -0.5691
47.1400 15.6967 -0.5771
47.1600 15.7034 -0.5739
47.1800 15.7100 -0.5640
47.2000 15.7166 -0.5747
47.2200 15.7232 -0.5673
47.2400 15.7299 -0.5689
47.2600 15.7366 -0.5758
47.2800 15.7433 -0.5726
47.3000 15.7500 -0.5615
47.3200 15.7566 -0.5767
47.3400 15.7633 -0.5732
47.3600 15.7700 -0.5658
47.3800 15.7767 -0.5794
47.4000 15.7833 -0.5613
47.4200 15.7899 -0.5626
47.4400 15.7966 -0.5812
47.4600 15.8033 -0.5662
47.4800 15.8100 -0.5683
47.5000 15.8167 -0.5765
47.5200 15.8234 -0.5624
47.5400 15.8300 -0.5719
47.5600 15.8366 -0.5748
47.5800 15.8432 -0.5622
47.6000 15.8499 -0.5689
47.6200 15.8566 -0.5771
47.6400 15.8634 -0.5617
47.6600 15.8701 -0.5773
47.6800 15.8767 -0.5740
47.7000 15.8834 -0.5680
47.7200 15.8900 -0.5687
47.7400 15.8966 -0.5700
47.7600 15.9033 -0.5715
47.7800 15.9099 -0.5779
47.8000 15.9166 -0.5697
47.8200 15.9233 -0.5673
47.8400 15.9300 -0.5747
47.8600 15.9367 -0.5750
47.8800 15.9434 -0.5690
47.9000 15.9500 -0.5750
47.9200 15.9566 -0.5713
47.9400 15.9632 -0.5700
47.9600 15.9699 -0.5689
47.9800 15.9766 -0.5724
48.0000 15.9833 -0.5787
48.0200 15.9900 -0.5667
48.0400 15.9967 -0.5724
48.0600 16.0034 -0.5810
48.0800 16.0100 -0.5743
48.1000 16.0166 -0.5664
48.1200 16.0232 -0.5773
48.1400 16.0299 -0.5682
48.1600 16.0367 -0.5688
48.1800 16.0434 -0.5817
48.2000 16.0501 -0.5711
48.2200 16.0567 -0.5693
48.2400 16.0634 -0.5849
48.2600 16.0700 -0.5676
48.2800 16.0766 -0.5771
48.3000 16.0832 -0.5805
48.3200 16.0899 -0.5674
48.3400 16.0966 -0.5708
48.3600 16.1033 -0.5876
48.3800 16.1100 -0.5694
48.4000 16.1167 -0.5691
48.4200 16.1234 -0.5826
48.4400 16.1301 -0.5694
48.4600 16.1367 -0.5736
48.4800 16.1432 -0.5844
48.5000 16.1499 -0.5645
48.5200 16.1566 -0.5704
48.5400 16.1633 -0.5896
48.5600 16.1700 -0.5723
48.5800 16.1767 -0.5764
48.6000 16.1834 -0.5817
48.6200 16.1900 -0.5677
48.6400 16.1966 -0.5792
48.6600 16.2032 -0.5854
48.6800 16.2099 -0.5673
48.7000 16.2166 -0.5825
48.7200 16.2233 -0.5760
48.7400 16.2300 -0.5643
48.7600 16.2366 -0.5864
48.7800 16.2433 -0.5867
48.8000 16.2500 -0.5672
48.8200 16.2566 -0.5756
48.8400 16.2633 -0.5754
48.8600 16.2699 -0.5785
48.8800 16.2766 -0.5817
48.9000 16.2833 -0.5811
48.9200 16.2900 -0.5704
48.9400 16.2967 -0.5735
48.9600 16.3034 -0.5801
48.9800 16.3101 -0.5816
49.0000 16.3167 -0.5828
49.0200 16.3233 -0.5762
49.0400 16.3299 -0.5767
49.0600 16.3366 -0.5734
49.0800 16.3433 -0.5797
49.1000 16.3500 -0.5876
49.1200 16.3567 -0.5701
49.1400 16.3634 -0.5767
49.1600 16.3700 -0.5933
49.1800 16.3766 -0.5724
49.2000 16.3832 -0.5721
49.2200 16.3899 -0.5864
49.2400 16.3966 -0.5800
49.2600 16.4033 -0.5762
49.2800 16.4100 -0.5842
49.3000 16.4166 -0.5674
49.3200 16.4233 -0.5846
49.3400 16.4300 -0.5887
49.3600 16.4366 -0.5695
49.3800 16.4432 -0.5798
49.4000 16.4499 -0.5854
49.4200 16.4566 -0.5695
49.4400 16.4633 -0.5847
49.4600 16.4700 -0.5867
49.4800 16.4767 -0.5673
49.5000 16.4834 -0.5862
49.5200 16.4900 -0.5835
49.5400 16.4967 -0.5659
49.5600 16.5033 -0.6020
49.5800 16.5099 -0.5791
49.6000 16.5166 -0.5576
49.6200 16.5233 -0.5955
49.6400 16.5300 -0.5872
49.6600 16.5367 -0.5755
49.6800 16.5434 -0.5850
49.7000 16.5500 -0.5685
49.7200 16.5567 -0.5744
49.7400 16.5633 -0.6056
49.7600 16.5699 -0.5744
49.7800 16.5766 -0.5667
49.8000 16.5833 -0.5923
49.8200 16.5900 -0.5760
49.8400 16.5967 -0.5762
49.8600 16.6033 -0.5937
49.8800 16.6100 -0.5840
49.9000 16.6167 -0.5721
49.9200 16.6233 -0.5705
49.9400 16.6300 -0.5863
49.9600 16.6366 -0.5895
49.9800 16.6433 -0.5832
50.0000 16.6500 -0.5671
50.0200 16.6567 -0.5751
50.0400 16.6634 -0.5988
50.0600 16.6701 -0.5791
50.0800 16.6767 -0.5701
50.1000 16.6832 -0.5952
50.1200 16.6899 -0.5763
50.1400 16.6965 -0.5628
50.1600 16.7033 -0.6025
50.1800 16.7100 -0.5844
50.2000 16.7167 -0.5638
50.2200 16.7233 -0.5916
50.2400 16.7300 -0.5821
50.2600 16.7367 -0.5733
50.2800 16.7433 -0.5948
50.3000 16.7499 -0.5822
50.3200 16.7566 -0.5683
50.3400 16.7633 -0.5859
50.3600 16.7700 -0.5896
50.3800 16.7767 -0.5789
50.4000 16.7834 -0.5851
50.4200 16.7900 -0.5775
50.4400 16.7967 -0.5840
50.4600 16.8033 -0.5881
50.4800 16.8099 -0.5798
50.5000 16.8166 -0.5765
50.5200 16.8233 -0.5975
50.5400 16.8300 -0.5785
50.5600 16.8367 -0.5719
50.5800 16.8434 -0.5903
50.6000 16.8501 -0.5940
50.6200 16.8567 -0.5777
50.6400 16.8633 -0.5851
50.6600 16.8699 -0.5887
50.6800 16.8766 -0.5769
50.7000 16.8833 -0.5824
50.7200 16.8900 -0.5956
50.7400 16.8967 -0.5824
50.7600 16.9034 -0.5839
50.7800 16.9100 -0.5918
50.8000 16.9167 -0.5697
50.8200 16.9233 -0.5935
50.8400 16.9299 -0.5958
50.8600 16.9366 -0.5694
50.8800 16.9433 -0.5886
50.9000 16.9499 -0.5921
50.9200 16.9566 -0.5743
50.9400 16.9633 -0.6008
50.9600 16.9700 -0.5832
50.9800 16.9766 -0.5735
51.0000 16.9832 -0.5969
51.0200 16.9899 -0.5864
51.0400 16.9965 -0.5735
51.0600 17.0033 -0.5990
51.0800 17.0100 -0.5863
51.1000 17.0167 -0.5729
51.1200 17.0234 -0.5982
51.1400 17.0301 -0.5906
51.1600 17.0367 -0.5786
51.1800 17.0433 -0.5954
51.2000 17.0499 -0.5817
51.2200 17.0566 -0.5827
51.2400 17.0633 -0.5965
51.2600 17.0700 -0.5848
51.2800 17.0767 -0.5863
51.3000 17.0833 -0.5879
51.3200 17.0900 -0.5860
51.3400 17.0967 -0.5898
51.3600 17.1033 -0.5884
51.3800 17.1099 -0.5835
51.4000 17.1166 -0.5944
51.4200 17.1233 -0.5853
51.4400 17.1300 -0.5851
51.4600 17.1367 -0.6007
51.4800 17.1433 -0.5849
51.5000 17.1500 -0.5798
51.5200 17.1567 -0.5985
51.5400 17.1633 -0.5854
51.5600 17.1699 -0.5941
51.5800 17.1765 -0.5947
51.6000 17.1833 -0.5812
51.6200 17.1900 -0.5939
51.6400 17.1967 -0.5913
51.6600 17.2034 -0.5823
51.6800 17.2101 -0.6016
51.7000 17.2167 -0.5890
51.7200 17.2233 -0.5841
51.7400 17.2299 -0.5971
51.7600 17.2366 -0.5880
51.7800 17.2433 -0.5890
51.8000 17.2500 -0.5971
51.8200 17.2567 -0.5884
51.8400 17.2634 -0.5891
51.8600 17.2700 -0.6010
51.8800 17.2767 -0.5870
51.9000 17.2833 -0.5896
51.9200 17.2899 -0.5966
51.9400 17.2966 -0.5940
51.9600 17.3033 -0.5904
51.9800 17.3100 -0.5892
52.0000 17.3167 -0.5905
52.0200 17.3234 -0.6004
52.0400 17.3301 -0.5847
52.0600 17.3367 -0.5889
52.0800 17.3433 -0.6007
52.1000 17.3499 -0.5936
52.1200 17.3565 -0.5865
52.1400 17.3632 -0.5949
52.1600 17.3700 -0.5964
52.1800 17.3767 -0.5932
52.2000 17.3834 -0.5875
52.2200 17.3900 -0.5901
52.2400 17.3967 -0.5996
52.2600 17.4033 -0.5909
52.2800 17.4099 -0.5894
52.3000 17.4165 -0.5944
52.3200 17.4232 -0.5881
52.3400 17.4299 -0.5997
52.3600 17.4366 -0.5984
52.3800 17.4433 -0.5849
52.4000 17.4500 -0.5958
52.4200 17.4566 -0.6022
52.4400 17.4633 -0.5865
52.4600 17.4699 -0.5927
52.4800 17.4766 -0.6029
52.5000 17.4833 -0.5854
52.5200 17.4900 -0.5931
52.5400 17.4967 -0.6024
52.5600 17.5034 -0.5895
52.5800 17.5101 -0.5931
52.6000 17.5167 -0.6042
52.6200 17.5233 -0.5866
52.6400 17.5299 -0.5954
52.6600 17.5366 -0.6031
52.6800 17.5433 -0.5853
52.7000 17.5500 -0.5932
52.7200 17.5567 -0.6064
52.7400 17.5634 -0.5861
52.7600 17.5701 -0.5952
52.7800 17.5767 -0.6057
52.8000 17.5833 -0.5892
52.8200 17.5899 -0.5919
52.8400 17.5966 -0.6007
52.8600 17.6033 -0.5888
52.8800 17.6100 -0.5951
52.9000 17.6167 -0.6051
52.9200 17.6233 -0.5853
52.9400 17.6300 -0.6025
52.9600 17.6367 -0.6076
52.9800 17.6433 -0.5848
53.0000 17.6499 -0.5986
53.0200 17.6566 -0.6067
53.0400 17.6633 -0.5871
53.0600 17.6700 -0.5996
53.0800 17.6766 -0.6053
53.1000 17.6833 -0.5881
53.1200 17.6900 -0.5966
53.1400 17.6966 -0.6087
53.1600 17.7033 -0.5883
53.1800 17.7099 -0.5986
53.2000 17.7166 -0.5995
53.2200 17.7233 -0.5912
53.2400 17.7300 -0.6033
53.2600 17.7367 -0.6052
53.2800 17.7434 -0.5893
53.3000 17.7501 -0.5986
53.3200 17.7567 -0.6045
53.3400 17.7633 -0.5967
53.3600 17.7699 -0.6009
53.3800 17.7766 -0.6017
53.4000 17.7833 -0.5915
53.4200 17.7900 -0.6017
53.4400 17.7967 -0.6012
53.4600 17.8034 -0.5949
53.4800 17.8101 -0.6060
53.5000 17.8167 -0.5980
53.5200 17.8233 -0.5933
53.5400 17.8299 -0.6025
53.5600 17.8366 -0.6064
53.5800 17.8432 -0.5920
53.6000 17.8499 -0.6034
53.6200 17.8566 -0.6051
53.6400 17.8633 -0.5951
53.6600 17.8700 -0.6030
53.6800 17.8767 -0.6111
53.7000 17.8833 -0.5962
53.7200 17.8899 -0.5971
53.7400 17.8965 -0.6077
53.7600 17.9032 -0.6009
53.7800 17.9100 -0.5929
53.8000 17.9166 -0.6067
53.8200 17.9233 -0.6049
53.8400 17.9300 -0.5987
53.8600 17.9367 -0.5995
53.8800 17.9433 -0.6011
53.9000 17.9499 -0.6037
53.9200 17.9566 -0.6052
53.9400 17.9633 -0.5915
53.9600 17.9700 -0.6027
53.9800 17.9767 -0.6110
54.0000 17.9833 -0.5910
54.0200 17.9900 -0.6029
54.0400 17.9967 -0.6126
54.0600 18.0034 -0.5972
54.0800 18.0100 -0.5965
54.1000 18.0166 -0.6087
54.1200 18.0233 -0.5972
54.1400 18.0300 -0.5998
54.1600 18.0367 -0.6028
54.1800 18.0433 -0.5983
54.2000 18.0500 -0.5995
54.2200 18.0567 -0.6148
54.2400 18.0633 -0.6008
54.2600 18.0699 -0.5904
54.2800 18.0766 -0.6094
54.3000 18.0833 -0.5957
54.3200 18.0900 -0.5973
54.3400 18.0967 -0.6171
54.3600 18.1034 -0.5952
54.3800 18.1100 -0.6006
54.4000 18.1167 -0.6108
54.4200 18.1233 -0.5997
54.4400 18.1299 -0.6022
54.4600 18.1365 -0.6120
54.4800 18.1432 -0.5922
54.5000 18.1499 -0.6039
54.5200 18.1566 -0.6183
54.5400 18.1633 -0.5860
54.5600 18.1700 -0.6080
54.5800 18.1767 -0.6156
54.6000 18.1833 -0.5925
54.6200 18.1899 -0.6059
54.6400 18.1966 -0.6130
54.6600 18.2032 -0.5958
54.6800 18.2100 -0.6070
54.7000 18.2167 -0.6112
54.7200 18.2234 -0.5971
54.7400 18.2301 -0.6075
54.7600 18.2368 -0.6094
54.7800 18.2434 -0.5977
54.8000 18.2500 -0.6132
54.8200 18.2566 -0.6012
54.8400 18.2633 -0.6013
54.8600 18.2700 -0.6085
54.8800 18.2767 -0.6105
54.9000 18.2834 -0.6053
54.9200 18.2900 -0.6027
54.9400 18.2967 -0.6056
54.9600 18.3033 -0.6078
54.9800 18.3099 -0.6031
55.0000 18.3165 -0.6080
55.0200 18.3232 -0.6086
55.0400 18.3299 -0.6010
55.0600 18.3366 -0.6087
55.0800 18.3433 -0.6157
55.1000 18.3500 -0.5985
55.1200 18.3567 -0.6088
55.1400 18.3633 -0.6117
55.1600 18.3699 -0.5964
55.1800 18.3765 -0.6101
55.2000 18.3832 -0.6073
55.2200 18.3899 -0.6045
55.2400 18.3966 -0.6089
55.2600 18.4033 -0.6045
55.2800 18.4100 -0.5970
55.3000 18.4167 -0.6073
55.3200 18.4233 -0.6052
55.3400 18.4299 -0.6054
55.3600 18.4366 -0.6057
55.3800 18.4433 -0.6059
55.4000 18.4500 -0.6074
55.4200 18.4567 -0.6079
55.4400 18.4634 -0.6024
55.4600 18.4700 -0.6062
55.4800 18.4767 -0.6107
55.5000 18.4834 -0.6043
55.5200 18.4900 -0.6049
55.5400 18.4966 -0.6060
55.5600 18.5033 -0.6038
55.5800 18.5100 -0.6059
55.6000 18.5167 -0.6076
55.6200 18.5233 -0.6025
55.6400 18.5300 -0.6017
55.6600 18.5367 -0.6086
55.6800 18.5434 -0.6045
55.7000 18.5500 -0.6084
55.7200 18.5566 -0.6062
55.7400 18.5632 -0.6030
55.7600 18.5700 -0.6067
55.7800 18.5767 -0.6063
55.8000 18.5833 -0.6051
55.8200 18.5900 -0.6043
55.8400 18.5967 -0.6123
55.8600 18.6033 -0.6034
55.8800 18.6099 -0.6109
55.9000 18.6165 -0.6049
55.9200 18.6232 -0.6065
55.9400 18.6299 -0.6081
55.9600 18.6366 -0.6078
55.9800 18.6433 -0.6096
56.0000 18.6500 -0.6074
56.0200 18.6567 -0.6032
56.0400 18.6633 -0.6121
56.0600 18.6700 -0.6102
56.0800 18.6766 -0.5988
56.1000 18.6832 -0.6104
56.1200 18.6900 -0.6096
56.1400 18.6967 -0.5998
56.1600 18.7034 -0.6132
56.1800 18.7101 -0.6091
56.2000 18.7167 -0.5980
56.2200 18.7234 -0.6187
56.2400 18.7300 -0.6121
56.2600 18.7366 -0.5990
56.2800 18.7432 -0.6161
56.3000 18.7500 -0.6097
56.3200 18.7567 -0.6017
56.3400 18.7634 -0.6188
56.3600 18.7701 -0.6072
56.3800 18.7767 -0.6097
56.4000 18.7834 -0.6150
56.4200 18.7900 -0.6050
56.4400 18.7966 -0.6051
56.4600 18.8033 -0.6176
56.4800 18.8100 -0.6085
56.5000 18.8167 -0.6081
56.5200 18.8233 -0.6144
56.5400 18.8300 -0.6065
56.5600 18.8367 -0.6086
56.5800 18.8433 -0.6183
56.6000 18.8499 -0.6061
56.6200 18.8565 -0.6090
56.6400 18.8632 -0.6115
56.6600 18.8699 -0.6055
56.6800 18.8766 -0.6107
56.7000 18.8833 -0.6178
56.7200 18.8900 -0.6108
56.7400 18.8967 -0.6019
56.7600 18.9033 -0.6210
56.7800 18.9100 -0.6166
56.8000 18.9166 -0.6046
56.8200 18.9232 -0.6134
56.8400 18.9300 -0.6093
56.8600 18.9367 -0.6071
56.8800 18.9434 -0.6275
56.9000 18.9501 -0.6077
56.9200 18.9567 -0.5949
56.9400 18.9634 -0.6259
56.9600 18.9700 -0.6176
56.9800 18.9766 -0.5930
57.0000 18.9833 -0.6214
57.0200 18.9900 -0.6165
57.0400 18.9967 -0.6016
57.0600 19.0034 -0.6190
57.0800 19.0100 -0.6114
57.1000 19.0167 -0.6016
57.1200 19.0234 -0.6246
57.1400 19.0300 -0.6060
57.1600 19.0366 -0.5999
57.1800 19.0432 -0.6272
57.2000 19.0499 -0.6135
57.2200 19.0566 -0.5970
57.2400 19.0633 -0.6239
57.2600 19.0700 -0.6126
57.2800 19.0767 -0.6005
57.3000 19.0833 -0.6251
57.3200 19.0899 -0.6151
57.3400 19.0965 -0.6053
57.3600 19.1032 -0.6180
57.3800 19.1099 -0.6074
57.4000 19.1166 -0.6041
57.4200 19.1233 -0.6257
57.4400 19.1300 -0.6096
57.4600 19.1367 -0.6064
57.4800 19.1433 -0.6214
57.5000 19.1500 -0.6098
57.5200 19.1566 -0.6054
57.5400 19.1632 -0.6209
57.5600 19.1700 -0.6138
57.5800 19.1767 -0.6099
57.6000 19.1834 -0.6175
57.6200 19.1900 -0.6151
57.6400 19.1967 -0.6120
57.6600 19.2034 -0.6201
57.6800 19.2100 -0.6120
57.7000 19.2166 -0.6120
57.7200 19.2233 -0.6161
57.7400 19.2300 -0.6153
57.7600 19.2367 -0.6131
57.7800 19.2434 -0.6194
57.8000 19.2501 -0.6144
57.8200 19.2568 -0.6158
57.8400 19.2634 -0.6173
57.8600 19.2700 -0.6194
57.8800 19.2766 -0.6123
57.9000 19.2832 -0.6125
57.9200 19.2899 -0.6222
57.9400 19.2966 -0.6143
57.9600 19.3033 -0.6198
57.9800 19.3100 -0.6168
58.0000 19.3167 -0.6134
58.0200 19.3233 -0.6229
58.0400 19.3300 -0.6233
58.0600 19.3366 -0.6107
58.0800 19.3432 -0.6226
58.1000 19.3499 -0.6225
58.1200 19.3566 -0.6086
58.1400 19.3633 -0.6213
58.1600 19.3700 -0.6256
58.1800 19.3766 -0.6082
58.2000 19.3833 -0.6271
58.2200 19.3900 -0.6219
58.2400 19.3966 -0.6062
58.2600 19.4033 -0.6252
58.2800 19.4100 -0.6244
58.3000 19.4166 -0.6098
58.3200 19.4233 -0.6264
58.3400 19.4300 -0.6217
58.3600 19.4367 -0.6103
58.3800 19.4434 -0.6271
58.4000 19.4500 -0.6242
58.4200 19.4566 -0.6159
58.4400 19.4632 -0.6179
58.4600 19.4699 -0.6202
58.4800 19.4767 -0.6183
58.5000 19.4834 -0.6286
58.5200 19.4900 -0.6183
58.5400 19.4967 -0.6116
58.5600 19.5034 -0.6268
58.5800 19.5100 -0.6223
58.6000 19.5166 -0.6148
58.6200 19.5232 -0.6232
58.6400 19.5299 -0.6193
58.6600 19.5366 -0.6178
58.6800 19.5433 -0.6222
58.7000 19.5500 -0.6232
58.7200 19.5567 -0.6175
58.7400 19.5634 -0.6266
58.7600 19.5700 -0.6224
58.7800 19.5766 -0.6151
58.8000 19.5832 -0.6255
58.8200 19.5899 -0.6253
58.8400 19.5966 -0.6167
58.8600 19.6033 -0.6265
58.8800 19.6100 -0.6291
58.9000 19.6167 -0.6160
58.9200 19.6233 -0.6249
58.9400 19.6299 -0.6329
58.9600 19.6366 -0.6197
58.9800 19.6432 -0.6208
59.0000 19.6499 -0.6312
59.0200 19.6567 -0.6196
59.0400 19.6634 -0.6294
59.0600 19.6700 -0.6320
59.0800 19.6767 -0.6227
59.1000 19.6834 -0.6244
59.1200 19.6900 -0.6342
59.1400 19.6966 -0.6225
59.1600 19.7033 -0.6279
59.1800 19.7100 -0.6320
59.2000 19.7167 -0.6235
59.2200 19.7234 -0.6286
59.2400 19.7300 -0.6318
59.2600 19.7367 -0.6216
59.2800 19.7434 -0.6336
59.3000 19.7499 -0.6386
59.3010 19.7503 -0.6398
