Raw Data
Time Displacement Force
(s) (mm) (N)
0.0000 0.0001 -0.7497
0.0200 0.0002 -0.7419
0.0400 0.0010 -0.7092
0.0600 0.0044 -0.6692
0.0800 0.0100 -0.6868
0.1000 0.0158 -0.6756
0.1200 0.0218 -0.6147
0.1400 0.0285 -0.5932
0.1600 0.0358 -0.5876
0.1800 0.0432 -0.5356
0.2000 0.0504 -0.5097
0.2200 0.0572 -0.4953
0.2400 0.0639 -0.4475
0.2600 0.0705 -0.4257
0.2800 0.0772 -0.4152
0.3000 0.0839 -0.3848
0.3200 0.0906 -0.3556
0.3400 0.0974 -0.3403
0.3600 0.1040 -0.3024
0.3800 0.1107 -0.2703
0.4000 0.1173 -0.2553
0.4200 0.1240 -0.2459
0.4400 0.1307 -0.2382
0.4600 0.1374 -0.2542
0.4800 0.1441 -0.2446
0.5000 0.1508 -0.2364
0.5200 0.1574 -0.2493
0.5400 0.1641 -0.2468
0.5600 0.1707 -0.2319
0.5800 0.1773 -0.2471
0.6000 0.1840 -0.2415
0.6200 0.1907 -0.2315
0.6400 0.1974 -0.2416
0.6600 0.2041 -0.2437
0.6800 0.2107 -0.2298
0.7000 0.2174 -0.2398
0.7200 0.2241 -0.2390
0.7400 0.2307 -0.2289
0.7600 0.2373 -0.2371
0.7800 0.2440 -0.2307
0.8000 0.2507 -0.2294
0.8200 0.2573 -0.2318
0.8400 0.2640 -0.2301
0.8600 0.2707 -0.2297
0.8800 0.2774 -0.2294
0.9000 0.2840 -0.2283
0.9200 0.2906 -0.2306
0.9400 0.2972 -0.2206
0.9600 0.3039 -0.2284
0.9800 0.3106 -0.2252
1.0000 0.3173 -0.2205
1.0200 0.3240 -0.2245
1.0400 0.3307 -0.2279
1.0600 0.3374 -0.2159
1.0800 0.3440 -0.2243
1.1000 0.3506 -0.2202
1.1200 0.3573 -0.2106
1.1400 0.3640 -0.2298
1.1600 0.3707 -0.2201
1.1800 0.3774 -0.2103
1.2000 0.3841 -0.2348
1.2200 0.3908 -0.2194
1.2400 0.3974 -0.2109
1.2600 0.4041 -0.2369
1.2800 0.4107 -0.2174
1.3000 0.4173 -0.2086
1.3200 0.4240 -0.2386
1.3400 0.4307 -0.2185
1.3600 0.4374 -0.2163
1.3800 0.4441 -0.2356
1.4000 0.4508 -0.2104
1.4200 0.4575 -0.2229
1.4400 0.4641 -0.2366
1.4600 0.4707 -0.2177
1.4800 0.4773 -0.2187
1.5000 0.4839 -0.2344
1.5200 0.4906 -0.2229
1.5400 0.4973 -0.2270
1.5600 0.5040 -0.2316
1.5800 0.5107 -0.2270
1.6000 0.5174 -0.2313
1.6200 0.5240 -0.2315
1.6400 0.5306 -0.2232
1.6600 0.5373 -0.2380
1.6800 0.5440 -0.2361
1.7000 0.5507 -0.2283
1.7200 0.5574 -0.2410
1.7400 0.5640 -0.2339
1.7600 0.5707 -0.2258
1.7800 0.5774 -0.2448
1.8000 0.5841 -0.2375
1.8200 0.5907 -0.2325
1.8400 0.5973 -0.2434
1.8600 0.6040 -0.2368
1.8800 0.6107 -0.2411
1.9000 0.6174 -0.2411
1.9200 0.6241 -0.2424
1.9400 0.6308 -0.2433
1.9600 0.6374 -0.2449
1.9800 0.6441 -0.2418
2.0000 0.6507 -0.2471
2.0200 0.6573 -0.2448
2.0400 0.6640 -0.2491
2.0600 0.6707 -0.2457
2.0800 0.6774 -0.2460
2.1000 0.6841 -0.2513
2.1200 0.6907 -0.2521
2.1400 0.6974 -0.2451
2.1600 0.7040 -0.2530
2.1800 0.7106 -0.2501
2.2000 0.7173 -0.2485
2.2200 0.7240 -0.2540
2.2400 0.7307 -0.2564
2.2600 0.7374 -0.2501
2.2800 0.7441 -0.2525
2.3000 0.7507 -0.2539
2.3200 0.7574 -0.2577
2.3400 0.7641 -0.2510
2.3600 0.7707 -0.2528
2.3800 0.7773 -0.2633
2.4000 0.7839 -0.2540
2.4200 0.7906 -0.2581
2.4400 0.7973 -0.2619
2.4600 0.8040 -0.2554
2.4800 0.8107 -0.2580
2.5000 0.8174 -0.2594
2.5200 0.8241 -0.2580
2.5400 0.8307 -0.2595
2.5600 0.8373 -0.2610
2.5800 0.8440 -0.2576
2.6000 0.8507 -0.2617
2.6200 0.8574 -0.2719
2.6400 0.8641 -0.2586
2.6600 0.8708 -0.2694
2.6800 0.8774 -0.2670
2.7000 0.8841 -0.2572
2.7200 0.8907 -0.2623
2.7400 0.8973 -0.2677
2.7600 0.9040 -0.2623
2.7800 0.9107 -0.2701
2.8000 0.9174 -0.2699
2.8200 0.9241 -0.2601
2.8400 0.9308 -0.2707
2.8600 0.9374 -0.2720
2.8800 0.9441 -0.2623
2.9000 0.9507 -0.2699
2.9200 0.9573 -0.2691
2.9400 0.9639 -0.2598
2.9600 0.9706 -0.2759
2.9800 0.9773 -0.2751
3.0000 0.9840 -0.2678
3.0200 0.9907 -0.2716
3.0400 0.9974 -0.2738
3.0600 1.0041 -0.2657
3.0800 1.0107 -0.2803
3.1000 1.0173 -0.2716
3.1200 1.0239 -0.2636
3.1400 1.0306 -0.2734
3.1600 1.0374 -0.2774
3.1800 1.0440 -0.2653
3.2000 1.0507 -0.2796
3.2200 1.0574 -0.2788
3.2400 1.0641 -0.2662
3.2600 1.0707 -0.2755
3.2800 1.0773 -0.2805
3.3000 1.0840 -0.2675
3.3200 1.0907 -0.2794
3.3400 1.0974 -0.2807
3.3600 1.1041 -0.2679
3.3800 1.1108 -0.2744
3.4000 1.1175 -0.2826
3.4200 1.1241 -0.2778
3.4400 1.1307 -0.2789
3.4600 1.1373 -0.2794
3.4800 1.1440 -0.2719
3.5000 1.1507 -0.2814
3.5200 1.1574 -0.2832
3.5400 1.1641 -0.2774
3.5600 1.1708 -0.2798
3.5800 1.1774 -0.2850
3.6000 1.1841 -0.2737
3.6200 1.1907 -0.2804
3.6400 1.1973 -0.2826
3.6600 1.2039 -0.2806
3.6800 1.2107 -0.2836
3.7000 1.2174 -0.2855
3.7200 1.2241 -0.2746
3.7400 1.2307 -0.2845
3.7600 1.2374 -0.2863
3.7800 1.2441 -0.2810
3.8000 1.2507 -0.2813
3.8200 1.2573 -0.2828
3.8400 1.2640 -0.2796
3.8600 1.2707 -0.2877
3.8800 1.2774 -0.2915
3.9000 1.2840 -0.2805
3.9200 1.2907 -0.2855
3.9400 1.2974 -0.2915
3.9600 1.3041 -0.2836
3.9800 1.3107 -0.2847
4.0000 1.3173 -0.2914
4.0200 1.3239 -0.2816
4.0400 1.3306 -0.2829
4.0600 1.3373 -0.2936
4.0800 1.3441 -0.2885
4.1000 1.3507 -0.2822
4.1200 1.3574 -0.3008
4.1400 1.3641 -0.2850
4.1600 1.3707 -0.2868
4.1800 1.3773 -0.2984
4.2000 1.3840 -0.2845
4.2200 1.3907 -0.2860
4.2400 1.3974 -0.2976
4.2600 1.4041 -0.2882
4.2800 1.4108 -0.2880
4.3000 1.4174 -0.2994
4.3200 1.4241 -0.2908
4.3400 1.4307 -0.2874
4.3600 1.4373 -0.3010
4.3800 1.4440 -0.2884
4.4000 1.4507 -0.2933
4.4200 1.4574 -0.2999
4.4400 1.4640 -0.2810
4.4600 1.4707 -0.2900
4.4800 1.4774 -0.3026
4.5000 1.4841 -0.2929
4.5200 1.4907 -0.2889
4.5400 1.4973 -0.3022
4.5600 1.5039 -0.2883
4.5800 1.5106 -0.2924
4.6000 1.5173 -0.3045
4.6200 1.5240 -0.2936
4.6400 1.5307 -0.2942
4.6600 1.5374 -0.2987
4.6800 1.5441 -0.2924
4.7000 1.5507 -0.2989
4.7200 1.5573 -0.3030
4.7400 1.5640 -0.2988
4.7600 1.5707 -0.2966
4.7800 1.5774 -0.3066
4.8000 1.5841 -0.3024
4.8200 1.5908 -0.3041
4.8400 1.5974 -0.3037
4.8600 1.6041 -0.2982
4.8800 1.6107 -0.2969
4.9000 1.6173 -0.3023
4.9200 1.6239 -0.3085
4.9400 1.6306 -0.3018
4.9600 1.6374 -0.3020
4.9800 1.6441 -0.3097
5.0000 1.6508 -0.2994
5.0200 1.6574 -0.3106
5.0400 1.6641 -0.3107
5.0600 1.6707 -0.2987
5.0800 1.6773 -0.3060
5.1000 1.6839 -0.3011
5.1200 1.6906 -0.3057
5.1400 1.6973 -0.3115
5.1600 1.7040 -0.3116
5.1800 1.7107 -0.3038
5.2000 1.7174 -0.3084
5.2200 1.7241 -0.3063
5.2400 1.7307 -0.3105
5.2600 1.7373 -0.3124
5.2800 1.7439 -0.3034
5.3000 1.7506 -0.3067
5.3200 1.7573 -0.3120
5.3400 1.7640 -0.3057
5.3600 1.7707 -0.3131
5.3800 1.7774 -0.3113
5.4000 1.7840 -0.3107
5.4200 1.7907 -0.3084
5.4400 1.7973 -0.3152
5.4600 1.8040 -0.3107
5.4800 1.8106 -0.3055
5.5000 1.8174 -0.3087
5.5200 1.8241 -0.3095
5.5400 1.8308 -0.3084
5.5600 1.8375 -0.3095
5.5800 1.8441 -0.3155
5.6000 1.8508 -0.3076
5.6200 1.8573 -0.3121
5.6400 1.8640 -0.3084
5.6600 1.8706 -0.3062
5.6800 1.8774 -0.3141
5.7000 1.8841 -0.3122
5.7200 1.8907 -0.3046
5.7400 1.8974 -0.3143
5.7600 1.9041 -0.3155
5.7800 1.9107 -0.3090
5.8000 1.9173 -0.3137
5.8200 1.9240 -0.3148
5.8400 1.9306 -0.3096
5.8600 1.9373 -0.3155
5.8800 1.9440 -0.3176
5.9000 1.9507 -0.3087
5.9200 1.9574 -0.3125
5.9400 1.9640 -0.3163
5.9600 1.9707 -0.3058
5.9800 1.9773 -0.3142
6.0000 1.9839 -0.3212
6.0200 1.9906 -0.3064
6.0400 1.9973 -0.3115
6.0600 2.0040 -0.3240
6.0800 2.0107 -0.3074
6.1000 2.0174 -0.3166
6.1200 2.0241 -0.3229
6.1400 2.0307 -0.3083
6.1600 2.0374 -0.3185
6.1800 2.0440 -0.3212
6.2000 2.0507 -0.3127
6.2200 2.0574 -0.3179
6.2400 2.0641 -0.3288
6.2600 2.0707 -0.3110
6.2800 2.0774 -0.3211
6.3000 2.0841 -0.3290
6.3200 2.0907 -0.3172
6.3400 2.0973 -0.3213
6.3600 2.1040 -0.3224
6.3800 2.1107 -0.3109
6.4000 2.1174 -0.3293
6.4200 2.1241 -0.3276
6.4400 2.1307 -0.3121
6.4600 2.1374 -0.3277
6.4800 2.1441 -0.3334
6.5000 2.1508 -0.3151
6.5200 2.1574 -0.3290
6.5400 2.1640 -0.3318
6.5600 2.1706 -0.3140
6.5800 2.1773 -0.3296
6.6000 2.1840 -0.3252
6.6200 2.1907 -0.3138
6.6400 2.1974 -0.3320
6.6600 2.2041 -0.3328
6.6800 2.2108 -0.3188
6.7000 2.2173 -0.3300
6.7200 2.2239 -0.3291
6.7400 2.2306 -0.3186
6.7600 2.2373 -0.3311
6.7800 2.2440 -0.3291
6.8000 2.2507 -0.3143
6.8200 2.2574 -0.3353
6.8400 2.2641 -0.3325
6.8600 2.2707 -0.3252
6.8800 2.2773 -0.3332
6.9000 2.2840 -0.3338
6.9200 2.2906 -0.3187
6.9400 2.2973 -0.3363
6.9600 2.3040 -0.3333
6.9800 2.3107 -0.3211
7.0000 2.3174 -0.3319
7.0200 2.3241 -0.3327
7.0400 2.3307 -0.3278
7.0600 2.3374 -0.3329
7.0800 2.3440 -0.3320
7.1000 2.3506 -0.3297
7.1200 2.3573 -0.3285
7.1400 2.3640 -0.3335
7.1600 2.3707 -0.3287
7.1800 2.3774 -0.3357
7.2000 2.3841 -0.3339
7.2200 2.3908 -0.3236
7.2400 2.3974 -0.3338
7.2600 2.4040 -0.3378
7.2800 2.4106 -0.3282
7.3000 2.4173 -0.3350
7.3200 2.4241 -0.3404
7.3400 2.4307 -0.3313
7.3600 2.4374 -0.3368
7.3800 2.4440 -0.3397
7.4000 2.4507 -0.3322
7.4200 2.4574 -0.3386
7.4400 2.4640 -0.3384
7.4600 2.4706 -0.3310
7.4800 2.4773 -0.3395
7.5000 2.4840 -0.3386
7.5200 2.4907 -0.3406
7.5400 2.4973 -0.3381
7.5600 2.5040 -0.3358
7.5800 2.5107 -0.3338
7.6000 2.5174 -0.3412
7.6200 2.5240 -0.3406
7.6400 2.5306 -0.3300
7.6600 2.5374 -0.3432
7.6800 2.5441 -0.3424
7.7000 2.5508 -0.3391
7.7200 2.5574 -0.3379
7.7400 2.5641 -0.3446
7.7600 2.5708 -0.3392
7.7800 2.5774 -0.3363
7.8000 2.5840 -0.3484
7.8200 2.5907 -0.3379
7.8400 2.5974 -0.3328
7.8600 2.6041 -0.3533
7.8800 2.6108 -0.3384
7.9000 2.6174 -0.3389
7.9200 2.6241 -0.3524
7.9400 2.6307 -0.3407
7.9600 2.6374 -0.3383
7.9800 2.6440 -0.3550
8.0000 2.6506 -0.3375
8.0200 2.6573 -0.3402
8.0400 2.6640 -0.3515
8.0600 2.6707 -0.3431
8.0800 2.6774 -0.3435
8.1000 2.6841 -0.3526
8.1200 2.6907 -0.3413
8.1400 2.6973 -0.3524
8.1600 2.7039 -0.3526
8.1800 2.7105 -0.3376
8.2000 2.7173 -0.3501
8.2200 2.7240 -0.3568
8.2400 2.7308 -0.3391
8.2600 2.7375 -0.3520
8.2800 2.7441 -0.3573
8.3000 2.7508 -0.3407
8.3200 2.7574 -0.3550
8.3400 2.7640 -0.3544
8.3600 2.7706 -0.3406
8.3800 2.7773 -0.3529
8.4000 2.7840 -0.3572
8.4200 2.7907 -0.3468
8.4400 2.7974 -0.3560
8.4600 2.8041 -0.3511
8.4800 2.8108 -0.3459
8.5000 2.8174 -0.3516
8.5200 2.8240 -0.3570
8.5400 2.8306 -0.3454
8.5600 2.8373 -0.3564
8.5800 2.8441 -0.3536
8.6000 2.8507 -0.3476
8.6200 2.8574 -0.3607
8.6400 2.8641 -0.3568
8.6600 2.8708 -0.3525
8.6800 2.8774 -0.3556
8.7000 2.8840 -0.3470
8.7200 2.8906 -0.3557
8.7400 2.8973 -0.3578
8.7600 2.9040 -0.3553
8.7800 2.9107 -0.3641
8.8000 2.9174 -0.3506
8.8200 2.9241 -0.3531
8.8400 2.9307 -0.3633
8.8600 2.9373 -0.3552
8.8800 2.9439 -0.3526
8.9000 2.9506 -0.3598
8.9200 2.9573 -0.3513
8.9400 2.9640 -0.3584
8.9600 2.9707 -0.3650
8.9800 2.9773 -0.3531
9.0000 2.9840 -0.3600
9.0200 2.9907 -0.3653
9.0400 2.9974 -0.3477
9.0600 3.0040 -0.3653
9.0800 3.0106 -0.3673
9.1000 3.0173 -0.3500
9.1200 3.0241 -0.3593
9.1400 3.0307 -0.3679
9.1600 3.0374 -0.3512
9.1800 3.0441 -0.3633
9.2000 3.0508 -0.3652
9.2200 3.0574 -0.3517
9.2400 3.0640 -0.3651
9.2600 3.0706 -0.3647
9.2800 3.0773 -0.3564
9.3000 3.0841 -0.3638
9.3200 3.0908 -0.3618
9.3400 3.0974 -0.3556
9.3600 3.1041 -0.3621
9.3800 3.1108 -0.3680
9.4000 3.1174 -0.3587
9.4200 3.1240 -0.3582
9.4400 3.1306 -0.3667
9.4600 3.1373 -0.3561
9.4800 3.1440 -0.3624
9.5000 3.1507 -0.3685
9.5200 3.1574 -0.3587
9.5400 3.1641 -0.3569
9.5600 3.1708 -0.3673
9.5800 3.1774 -0.3581
9.6000 3.1840 -0.3622
9.6200 3.1906 -0.3702
9.6400 3.1973 -0.3624
9.6600 3.2040 -0.3564
9.6800 3.2107 -0.3731
9.7000 3.2174 -0.3600
9.7200 3.2240 -0.3609
9.7400 3.2307 -0.3734
9.7600 3.2373 -0.3579
9.7800 3.2439 -0.3556
9.8000 3.2506 -0.3718
9.8200 3.2573 -0.3575
9.8400 3.2640 -0.3644
9.8600 3.2708 -0.3753
9.8800 3.2775 -0.3587
9.9000 3.2841 -0.3646
9.9200 3.2908 -0.3749
9.9400 3.2974 -0.3626
9.9600 3.3040 -0.3650
9.9800 3.3106 -0.3746
10.0000 3.3174 -0.3572
10.0200 3.3241 -0.3679
10.0400 3.3308 -0.3771
10.0600 3.3375 -0.3644
10.0800 3.3441 -0.3665
10.1000 3.3508 -0.3737
10.1200 3.3574 -0.3619
10.1400 3.3640 -0.3753
10.1600 3.3706 -0.3698
10.1800 3.3773 -0.3652
10.2000 3.3840 -0.3683
10.2200 3.3907 -0.3728
10.2400 3.3973 -0.3670
10.2600 3.4040 -0.3720
10.2800 3.4107 -0.3754
10.3000 3.4174 -0.3740
10.3200 3.4240 -0.3703
10.3400 3.4306 -0.3715
10.3600 3.4373 -0.3725
10.3800 3.4440 -0.3733
10.4000 3.4507 -0.3734
10.4200 3.4574 -0.3712
10.4400 3.4641 -0.3667
10.4600 3.4707 -0.3788
10.4800 3.4774 -0.3717
10.5000 3.4840 -0.3675
10.5200 3.4906 -0.3836
10.5400 3.4973 -0.3724
10.5600 3.5040 -0.3706
10.5800 3.5107 -0.3814
10.6000 3.5174 -0.3732
10.6200 3.5241 -0.3680
10.6400 3.5308 -0.3830
10.6600 3.5374 -0.3797
10.6800 3.5440 -0.3711
10.7000 3.5507 -0.3786
10.7200 3.5573 -0.3745
10.7400 3.5640 -0.3696
10.7600 3.5707 -0.3877
10.7800 3.5774 -0.3750
10.8000 3.5841 -0.3699
10.8200 3.5908 -0.3875
10.8400 3.5974 -0.3783
10.8600 3.6040 -0.3707
10.8800 3.6106 -0.3855
10.9000 3.6173 -0.3785
10.9200 3.6240 -0.3698
10.9400 3.6307 -0.3900
10.9600 3.6374 -0.3763
10.9800 3.6441 -0.3715
11.0000 3.6507 -0.3939
11.0200 3.6574 -0.3752
11.0400 3.6640 -0.3662
11.0600 3.6706 -0.3931
11.0800 3.6773 -0.3820
11.1000 3.6840 -0.3687
11.1200 3.6907 -0.3915
11.1400 3.6973 -0.3828
11.1600 3.7040 -0.3690
11.1800 3.7107 -0.3925
11.2000 3.7174 -0.3798
11.2200 3.7240 -0.3750
11.2400 3.7306 -0.3886
11.2600 3.7373 -0.3745
11.2800 3.7440 -0.3719
11.3000 3.7507 -0.3966
11.3200 3.7574 -0.3772
11.3400 3.7641 -0.3730
11.3600 3.7708 -0.3952
11.3800 3.7774 -0.3786
11.4000 3.7840 -0.3767
11.4200 3.7906 -0.3956
11.4400 3.7973 -0.3730
11.4600 3.8040 -0.3765
11.4800 3.8108 -0.3947
11.5000 3.8175 -0.3766
11.5200 3.8241 -0.3819
11.5400 3.8308 -0.3949
11.5600 3.8374 -0.3796
11.5800 3.8440 -0.3801
11.6000 3.8506 -0.3897
11.6200 3.8573 -0.3829
11.6400 3.8640 -0.3832
11.6600 3.8707 -0.3859
11.6800 3.8774 -0.3794
11.7000 3.8840 -0.3783
11.7200 3.8907 -0.3923
11.7400 3.8974 -0.3858
11.7600 3.9040 -0.3862
11.7800 3.9106 -0.3851
11.8000 3.9172 -0.3865
11.8200 3.9240 -0.3788
11.8400 3.9307 -0.3908
11.8600 3.9374 -0.3915
11.8800 3.9440 -0.3754
11.9000 3.9507 -0.3859
11.9200 3.9574 -0.3888
11.9400 3.9640 -0.3797
11.9600 3.9706 -0.3916
11.9800 3.9773 -0.3850
12.0000 3.9840 -0.3821
12.0200 3.9907 -0.3919
12.0400 3.9974 -0.3872
12.0600 4.0041 -0.3809
12.0800 4.0108 -0.3953
12.1000 4.0174 -0.3898
12.1200 4.0241 -0.3791
12.1400 4.0307 -0.3928
12.1600 4.0374 -0.3873
12.1800 4.0440 -0.3875
12.2000 4.0507 -0.3927
12.2200 4.0574 -0.3856
12.2400 4.0641 -0.3904
12.2600 4.0708 -0.3922
12.2800 4.0775 -0.3863
12.3000 4.0841 -0.3902
12.3200 4.0906 -0.3927
12.3400 4.0973 -0.3889
12.3600 4.1040 -0.3863
12.3800 4.1107 -0.3974
12.4000 4.1174 -0.3878
12.4200 4.1241 -0.3932
12.4400 4.1308 -0.3935
12.4600 4.1374 -0.3908
12.4800 4.1440 -0.3958
12.5000 4.1506 -0.3892
12.5200 4.1573 -0.3881
12.5400 4.1640 -0.3922
12.5600 4.1707 -0.3898
12.5800 4.1774 -0.3946
12.6000 4.1840 -0.3943
12.6200 4.1907 -0.3915
12.6400 4.1974 -0.3985
12.6600 4.2040 -0.3965
12.6800 4.2107 -0.3883
12.7000 4.2173 -0.3978
12.7200 4.2240 -0.3976
12.7400 4.2307 -0.3887
12.7600 4.2374 -0.4000
12.7800 4.2441 -0.3945
12.8000 4.2508 -0.3904
12.8200 4.2575 -0.3983
12.8400 4.2641 -0.3971
12.8600 4.2707 -0.3908
12.8800 4.2773 -0.4011
12.9000 4.2840 -0.3941
12.9200 4.2907 -0.3909
12.9400 4.2974 -0.3986
12.9600 4.3041 -0.3978
12.9800 4.3108 -0.3945
13.0000 4.3174 -0.4026
13.0200 4.3240 -0.3968
13.0400 4.3306 -0.3947
13.0600 4.3373 -0.3978
13.0800 4.3440 -0.4017
13.1000 4.3508 -0.3985
13.1200 4.3574 -0.4010
13.1400 4.3641 -0.3986
13.1600 4.3708 -0.3924
13.1800 4.3774 -0.4057
13.2000 4.3840 -0.4026
13.2200 4.3906 -0.3927
13.2400 4.3973 -0.4021
13.2600 4.4039 -0.4045
13.2800 4.4107 -0.3941
13.3000 4.4174 -0.4042
13.3200 4.4241 -0.4042
13.3400 4.4308 -0.3944
13.3600 4.4374 -0.4058
13.3800 4.4441 -0.4057
13.4000 4.4506 -0.3915
13.4200 4.4573 -0.4089
13.4400 4.4640 -0.4008
13.4600 4.4707 -0.3976
13.4800 4.4774 -0.4115
13.5000 4.4841 -0.4057
13.5200 4.4908 -0.4007
13.5400 4.4975 -0.4102
13.5600 4.5041 -0.3972
13.5800 4.5107 -0.4020
13.6000 4.5173 -0.4118
13.6200 4.5240 -0.3982
13.6400 4.5307 -0.4041
13.6600 4.5374 -0.4059
13.6800 4.5441 -0.4028
13.7000 4.5507 -0.4078
13.7200 4.5574 -0.4045
13.7400 4.5640 -0.4027
13.7600 4.5706 -0.4065
13.7800 4.5772 -0.4018
13.8000 4.5839 -0.4028
13.8200 4.5906 -0.4054
13.8400 4.5973 -0.4101
13.8600 4.6041 -0.4076
13.8800 4.6108 -0.4015
13.9000 4.6175 -0.4066
13.9200 4.6241 -0.4134
13.9400 4.6306 -0.3981
13.9600 4.6373 -0.4040
13.9800 4.6440 -0.4099
14.0000 4.6507 -0.4009
14.0200 4.6574 -0.4033
14.0400 4.6641 -0.4123
14.0600 4.6707 -0.3994
14.0800 4.6774 -0.4075
14.1000 4.6840 -0.4125
14.1200 4.6906 -0.3974
14.1400 4.6973 -0.4031
14.1600 4.7040 -0.4164
14.1800 4.7107 -0.3951
14.2000 4.7174 -0.4061
14.2200 4.7241 -0.4143
14.2400 4.7308 -0.3932
14.2600 4.7374 -0.4139
14.2800 4.7441 -0.4147
14.3000 4.7507 -0.3944
14.3200 4.7573 -0.4138
14.3400 4.7640 -0.4144
14.3600 4.7707 -0.3993
14.3800 4.7774 -0.4138
14.4000 4.7841 -0.4090
14.4200 4.7908 -0.4035
14.4400 4.7975 -0.4174
14.4600 4.8041 -0.4103
14.4800 4.8107 -0.4000
14.5000 4.8173 -0.4167
14.5200 4.8240 -0.4098
14.5400 4.8307 -0.4042
14.5600 4.8373 -0.4159
14.5800 4.8440 -0.4121
14.6000 4.8506 -0.3989
14.6200 4.8573 -0.4126
14.6400 4.8639 -0.4111
14.6600 4.8706 -0.4045
14.6800 4.8773 -0.4125
14.7000 4.8840 -0.4172
14.7200 4.8907 -0.4028
14.7400 4.8974 -0.4125
14.7600 4.9040 -0.4171
14.7800 4.9107 -0.4037
14.8000 4.9174 -0.4126
14.8200 4.9241 -0.4190
14.8400 4.9307 -0.4033
14.8600 4.9373 -0.4127
14.8800 4.9440 -0.4172
14.9000 4.9507 -0.4059
14.9200 4.9574 -0.4159
14.9400 4.9641 -0.4168
14.9600 4.9708 -0.4083
14.9800 4.9775 -0.4136
15.0000 4.9841 -0.4201
15.0200 4.9907 -0.4051
15.0400 4.9973 -0.4154
15.0600 5.0040 -0.4153
15.0800 5.0107 -0.4092
15.1000 5.0174 -0.4129
15.1200 5.0241 -0.4185
15.1400 5.0308 -0.4073
15.1600 5.0374 -0.4125
15.1800 5.0441 -0.4130
15.2000 5.0507 -0.4119
15.2200 5.0573 -0.4137
15.2400 5.0640 -0.4136
15.2600 5.0707 -0.4089
15.2800 5.0774 -0.4139
15.3000 5.0841 -0.4170
15.3200 5.0907 -0.4148
15.3400 5.0974 -0.4132
15.3600 5.1041 -0.4183
15.3800 5.1107 -0.4175
15.4000 5.1172 -0.4076
15.4200 5.1239 -0.4167
15.4400 5.1306 -0.4140
15.4600 5.1373 -0.4102
15.4800 5.1440 -0.4155
15.5000 5.1507 -0.4200
15.5200 5.1574 -0.4090
15.5400 5.1641 -0.4246
15.5600 5.1706 -0.4176
15.5800 5.1773 -0.4104
15.6000 5.1840 -0.4160
15.6200 5.1907 -0.4192
15.6400 5.1974 -0.4111
15.6600 5.2041 -0.4251
15.6800 5.2108 -0.4144
15.7000 5.2175 -0.4092
15.7200 5.2241 -0.4264
15.7400 5.2307 -0.4130
15.7600 5.2374 -0.4132
15.7800 5.2440 -0.4260
15.8000 5.2507 -0.4128
15.8200 5.2574 -0.4176
15.8400 5.2641 -0.4228
15.8600 5.2708 -0.4147
15.8800 5.2775 -0.4196
15.9000 5.2841 -0.4223
15.9200 5.2907 -0.4113
15.9400 5.2973 -0.4178
15.9600 5.3039 -0.4206
15.9800 5.3106 -0.4119
16.0000 5.3174 -0.4238
16.0200 5.3240 -0.4159
16.0400 5.3307 -0.4159
16.0600 5.3374 -0.4250
16.0800 5.3440 -0.4199
16.1000 5.3506 -0.4038
16.1200 5.3573 -0.4284
16.1400 5.3640 -0.4223
16.1600 5.3707 -0.4117
16.1800 5.3774 -0.4278
16.2000 5.3840 -0.4232
16.2200 5.3906 -0.4137
16.2400 5.3973 -0.4182
16.2600 5.4040 -0.4204
16.2800 5.4107 -0.4239
16.3000 5.4174 -0.4199
16.3200 5.4241 -0.4185
16.3400 5.4307 -0.4215
16.3600 5.4374 -0.4209
16.3800 5.4441 -0.4232
16.4000 5.4508 -0.4238
16.4200 5.4575 -0.4186
16.4400 5.4641 -0.4256
16.4600 5.4707 -0.4269
16.4800 5.4773 -0.4137
16.5000 5.4840 -0.4242
16.5200 5.4907 -0.4275
16.5400 5.4974 -0.4156
16.5600 5.5041 -0.4218
16.5800 5.5108 -0.4308
16.6000 5.5174 -0.4186
16.6200 5.5241 -0.4202
16.6400 5.5307 -0.4305
16.6600 5.5373 -0.4221
16.6800 5.5439 -0.4192
16.7000 5.5506 -0.4306
16.7200 5.5574 -0.4161
16.7400 5.5641 -0.4234
16.7600 5.5707 -0.4284
16.7800 5.5774 -0.4183
16.8000 5.5841 -0.4202
16.8200 5.5907 -0.4368
16.8400 5.5973 -0.4178
16.8600 5.6039 -0.4206
16.8800 5.6106 -0.4350
16.9000 5.6173 -0.4193
16.9200 5.6240 -0.4249
16.9400 5.6307 -0.4329
16.9600 5.6374 -0.4219
16.9800 5.6441 -0.4250
17.0000 5.6507 -0.4312
17.0200 5.6573 -0.4181
17.0400 5.6639 -0.4256
17.0600 5.6706 -0.4328
17.0800 5.6773 -0.4214
17.1000 5.6841 -0.4218
17.1200 5.6908 -0.4359
17.1400 5.6975 -0.4177
17.1600 5.7041 -0.4276
17.1800 5.7107 -0.4343
17.2000 5.7173 -0.4210
17.2200 5.7240 -0.4241
17.2400 5.7307 -0.4361
17.2600 5.7374 -0.4198
17.2800 5.7441 -0.4264
17.3000 5.7508 -0.4398
17.3200 5.7574 -0.4207
17.3400 5.7641 -0.4237
17.3600 5.7707 -0.4375
17.3800 5.7773 -0.4186
17.4000 5.7839 -0.4291
17.4200 5.7906 -0.4307
17.4400 5.7973 -0.4254
17.4600 5.8040 -0.4232
17.4800 5.8107 -0.4279
17.5000 5.8174 -0.4282
17.5200 5.8241 -0.4268
17.5400 5.8307 -0.4310
17.5600 5.8373 -0.4267
17.5800 5.8439 -0.4224
17.6000 5.8506 -0.4278
17.6200 5.8574 -0.4319
17.6400 5.8640 -0.4218
17.6600 5.8707 -0.4344
17.6800 5.8774 -0.4308
17.7000 5.8841 -0.4281
17.7200 5.8907 -0.4356
17.7400 5.8973 -0.4257
17.7600 5.9040 -0.4279
17.7800 5.9107 -0.4350
17.8000 5.9174 -0.4246
17.8200 5.9240 -0.4318
17.8400 5.9307 -0.4347
17.8600 5.9374 -0.4244
17.8800 5.9441 -0.4275
17.9000 5.9508 -0.4366
17.9200 5.9574 -0.4285
17.9400 5.9640 -0.4342
17.9600 5.9707 -0.4305
17.9800 5.9774 -0.4264
18.0000 5.9841 -0.4324
18.0200 5.9908 -0.4286
18.0400 5.9975 -0.4331
18.0600 6.0041 -0.4361
18.0800 6.0107 -0.4305
18.1000 6.0173 -0.4320
18.1200 6.0239 -0.4283
18.1400 6.0306 -0.4305
18.1600 6.0374 -0.4409
18.1800 6.0441 -0.4320
18.2000 6.0507 -0.4302
18.2200 6.0574 -0.4349
18.2400 6.0641 -0.4311
18.2600 6.0707 -0.4313
18.2800 6.0773 -0.4434
18.3000 6.0840 -0.4273
18.3200 6.0906 -0.4326
18.3400 6.0973 -0.4398
18.3600 6.1040 -0.4293
18.3800 6.1107 -0.4375
18.4000 6.1174 -0.4394
18.4200 6.1241 -0.4197
18.4400 6.1307 -0.4354
18.4600 6.1373 -0.4448
18.4800 6.1440 -0.4239
18.5000 6.1506 -0.4388
18.5200 6.1574 -0.4450
18.5400 6.1641 -0.4235
18.5600 6.1708 -0.4355
18.5800 6.1774 -0.4490
18.6000 6.1841 -0.4250
18.6200 6.1907 -0.4346
18.6400 6.1973 -0.4429
18.6600 6.2039 -0.4257
18.6800 6.2106 -0.4354
18.7000 6.2174 -0.4450
18.7200 6.2241 -0.4298
18.7400 6.2308 -0.4421
18.7600 6.2374 -0.4390
18.7800 6.2441 -0.4330
18.8000 6.2507 -0.4447
18.8200 6.2573 -0.4388
18.8400 6.2640 -0.4234
18.8600 6.2707 -0.4493
18.8800 6.2774 -0.4415
18.9000 6.2840 -0.4276
18.9200 6.2907 -0.4479
18.9400 6.2974 -0.4413
18.9600 6.3041 -0.4305
18.9800 6.3107 -0.4465
19.0000 6.3173 -0.4409
19.0200 6.3239 -0.4332
19.0400 6.3306 -0.4391
19.0600 6.3373 -0.4402
19.0800 6.3440 -0.4383
19.1000 6.3507 -0.4469
19.1200 6.3574 -0.4416
19.1400 6.3641 -0.4410
19.1600 6.3707 -0.4467
19.1800 6.3773 -0.4411
19.2000 6.3840 -0.4435
19.2200 6.3907 -0.4412
19.2400 6.3974 -0.4408
19.2600 6.4041 -0.4405
19.2800 6.4108 -0.4465
19.3000 6.4174 -0.4369
19.3200 6.4241 -0.4432
19.3400 6.4307 -0.4488
19.3600 6.4373 -0.4404
19.3800 6.4440 -0.4379
19.4000 6.4506 -0.4455
19.4200 6.4573 -0.4440
19.4400 6.4640 -0.4405
19.4600 6.4707 -0.4437
19.4800 6.4774 -0.4400
19.5000 6.4841 -0.4404
19.5200 6.4908 -0.4522
19.5400 6.4974 -0.4401
19.5600 6.5040 -0.4385
19.5800 6.5106 -0.4464
19.6000 6.5173 -0.4429
19.6200 6.5240 -0.4444
19.6400 6.5307 -0.4467
19.6600 6.5374 -0.4432
19.6800 6.5441 -0.4422
19.7000 6.5507 -0.4451
19.7200 6.5573 -0.4462
19.7400 6.5639 -0.4454
19.7600 6.5706 -0.4428
19.7800 6.5773 -0.4496
19.8000 6.5840 -0.4433
19.8200 6.5907 -0.4466
19.8400 6.5974 -0.4438
19.8600 6.6040 -0.4495
19.8800 6.6107 -0.4447
19.9000 6.6173 -0.4424
19.9200 6.6240 -0.4470
19.9400 6.6306 -0.4472
19.9600 6.6373 -0.4420
19.9800 6.6440 -0.4486
20.0000 6.6507 -0.4424
20.0200 6.6574 -0.4495
20.0400 6.6641 -0.4453
20.0600 6.6708 -0.4460
20.0800 6.6774 -0.4434
20.1000 6.6840 -0.4428
20.1200 6.6907 -0.4421
20.1400 6.6974 -0.4487
20.1600 6.7041 -0.4466
20.1800 6.7108 -0.4492
20.2000 6.7175 -0.4451
20.2200 6.7241 -0.4429
20.2400 6.7307 -0.4515
20.2600 6.7373 -0.4474
20.2800 6.7439 -0.4406
20.3000 6.7506 -0.4474
20.3200 6.7573 -0.4446
20.3400 6.7640 -0.4439
20.3600 6.7707 -0.4475
20.3800 6.7774 -0.4468
20.4000 6.7841 -0.4450
20.4200 6.7907 -0.4463
20.4400 6.7973 -0.4470
20.4600 6.8039 -0.4445
20.4800 6.8106 -0.4514
20.5000 6.8173 -0.4435
20.5200 6.8240 -0.4452
20.5400 6.8307 -0.4457
20.5600 6.8374 -0.4434
20.5800 6.8441 -0.4479
20.6000 6.8508 -0.4524
20.6200 6.8574 -0.4393
20.6400 6.8640 -0.4478
20.6600 6.8706 -0.4509
20.6800 6.8774 -0.4424
20.7000 6.8841 -0.4515
20.7200 6.8908 -0.4519
20.7400 6.8975 -0.4423
20.7600 6.9041 -0.4517
20.7800 6.9108 -0.4536
20.8000 6.9173 -0.4462
20.8200 6.9240 -0.4502
20.8400 6.9306 -0.4473
20.8600 6.9373 -0.4463
20.8800 6.9441 -0.4575
20.9000 6.9507 -0.4524
20.9200 6.9574 -0.4383
20.9400 6.9641 -0.4579
20.9600 6.9708 -0.4503
20.9800 6.9774 -0.4431
21.0000 6.9840 -0.4567
21.0200 6.9907 -0.4502
21.0400 6.9973 -0.4480
21.0600 7.0040 -0.4589
21.0800 7.0107 -0.4462
21.1000 7.0174 -0.4479
21.1200 7.0241 -0.4558
21.1400 7.0308 -0.4474
21.1600 7.0373 -0.4504
21.1800 7.0439 -0.4579
21.2000 7.0506 -0.4446
21.2200 7.0573 -0.4511
21.2400 7.0640 -0.4656
21.2600 7.0707 -0.4479
21.2800 7.0774 -0.4472
21.3000 7.0840 -0.4575
21.3200 7.0907 -0.4496
21.3400 7.0973 -0.4493
21.3600 7.1039 -0.4580
21.3800 7.1106 -0.4486
21.4000 7.1173 -0.4506
21.4200 7.1240 -0.4555
21.4400 7.1307 -0.4493
21.4600 7.1374 -0.4559
21.4800 7.1441 -0.4610
21.5000 7.1508 -0.4486
21.5200 7.1574 -0.4556
21.5400 7.1640 -0.4535
21.5600 7.1706 -0.4525
21.5800 7.1773 -0.4541
21.6000 7.1840 -0.4549
21.6200 7.1907 -0.4509
21.6400 7.1974 -0.4539
21.6600 7.2041 -0.4536
21.6800 7.2108 -0.4588
21.7000 7.2174 -0.4563
21.7200 7.2240 -0.4525
21.7400 7.2306 -0.4550
21.7600 7.2373 -0.4500
21.7800 7.2441 -0.4587
21.8000 7.2508 -0.4570
21.8200 7.2574 -0.4497
21.8400 7.2641 -0.4582
21.8600 7.2707 -0.4584
21.8800 7.2773 -0.4520
21.9000 7.2839 -0.4559
21.9200 7.2906 -0.4549
21.9400 7.2973 -0.4514
21.9600 7.3040 -0.4563
21.9800 7.3107 -0.4546
22.0000 7.3173 -0.4500
22.0200 7.3240 -0.4637
22.0400 7.3307 -0.4554
22.0600 7.3374 -0.4526
22.0800 7.3440 -0.4578
22.1000 7.3506 -0.4554
22.1200 7.3573 -0.4509
22.1400 7.3640 -0.4662
22.1600 7.3707 -0.4514
22.1800 7.3774 -0.4543
22.2000 7.3841 -0.4603
22.2200 7.3908 -0.4541
22.2400 7.3974 -0.4544
22.2600 7.4040 -0.4622
22.2800 7.4106 -0.4546
22.3000 7.4174 -0.4547
22.3200 7.4241 -0.4598
22.3400 7.4308 -0.4569
22.3600 7.4374 -0.4545
22.3800 7.4441 -0.4570
22.4000 7.4507 -0.4568
22.4200 7.4573 -0.4600
22.4400 7.4640 -0.4600
22.4600 7.4706 -0.4533
22.4800 7.4773 -0.4576
22.5000 7.4840 -0.4589
22.5200 7.4907 -0.4621
22.5400 7.4974 -0.4567
22.5600 7.5041 -0.4608
22.5800 7.5107 -0.4588
22.6000 7.5174 -0.4549
22.6200 7.5240 -0.4559
22.6400 7.5306 -0.4618
22.6600 7.5373 -0.4573
22.6800 7.5440 -0.4619
22.7000 7.5507 -0.4619
22.7200 7.5574 -0.4575
22.7400 7.5641 -0.4588
22.7600 7.5708 -0.4658
22.7800 7.5774 -0.4584
22.8000 7.5840 -0.4590
22.8200 7.5906 -0.4598
22.8400 7.5973 -0.4603
22.8600 7.6040 -0.4628
22.8800 7.6107 -0.4684
22.9000 7.6174 -0.4612
22.9200 7.6241 -0.4620
22.9400 7.6308 -0.4645
22.9600 7.6374 -0.4632
22.9800 7.6440 -0.4639
23.0000 7.6507 -0.4594
23.0200 7.6573 -0.4583
23.0400 7.6640 -0.4695
23.0600 7.6707 -0.4651
23.0800 7.6774 -0.4561
23.1000 7.6841 -0.4705
23.1200 7.6908 -0.4615
23.1400 7.6974 -0.4602
23.1600 7.7040 -0.4663
23.1800 7.7106 -0.4625
23.2000 7.7173 -0.4622
23.2200 7.7240 -0.4702
23.2400 7.7307 -0.4610
23.2600 7.7374 -0.4618
23.2800 7.7441 -0.4735
23.3000 7.7507 -0.4654
23.3200 7.7574 -0.4578
23.3400 7.7640 -0.4724
23.3600 7.7706 -0.4590
23.3800 7.7773 -0.4644
23.4000 7.7840 -0.4697
23.4200 7.7907 -0.4569
23.4400 7.7973 -0.4635
23.4600 7.8040 -0.4705
23.4800 7.8107 -0.4610
23.5000 7.8174 -0.4669
23.5200 7.8240 -0.4710
23.5400 7.8306 -0.4598
23.5600 7.8373 -0.4650
23.5800 7.8440 -0.4668
23.6000 7.8507 -0.4660
23.6200 7.8574 -0.4654
23.6400 7.8641 -0.4678
23.6600 7.8708 -0.4619
23.6800 7.8774 -0.4696
23.7000 7.8840 -0.4653
23.7200 7.8906 -0.4642
23.7400 7.8973 -0.4711
23.7600 7.9040 -0.4654
23.7800 7.9107 -0.4665
23.8000 7.9174 -0.4696
23.8200 7.9241 -0.4639
23.8400 7.9308 -0.4726
23.8600 7.9374 -0.4675
23.8800 7.9440 -0.4636
23.9000 7.9506 -0.4657
23.9200 7.9573 -0.4731
23.9400 7.9640 -0.4679
23.9600 7.9707 -0.4707
23.9800 7.9774 -0.4695
24.0000 7.9841 -0.4650
24.0200 7.9908 -0.4722
24.0400 7.9974 -0.4685
24.0600 8.0040 -0.4649
24.0800 8.0106 -0.4721
24.1000 8.0173 -0.4739
24.1200 8.0240 -0.4657
24.1400 8.0307 -0.4691
24.1600 8.0374 -0.4694
24.1800 8.0440 -0.4688
24.2000 8.0507 -0.4677
24.2200 8.0574 -0.4694
24.2400 8.0640 -0.4733
24.2600 8.0706 -0.4673
24.2800 8.0773 -0.4684
24.3000 8.0840 -0.4744
24.3200 8.0907 -0.4648
24.3400 8.0974 -0.4761
24.3600 8.1041 -0.4679
24.3800 8.1108 -0.4658
24.4000 8.1174 -0.4793
24.4200 8.1240 -0.4661
24.4400 8.1306 -0.4663
24.4600 8.1373 -0.4789
24.4800 8.1441 -0.4640
24.5000 8.1508 -0.4666
24.5200 8.1574 -0.4809
24.5400 8.1641 -0.4667
24.5600 8.1708 -0.4702
24.5800 8.1774 -0.4745
24.6000 8.1840 -0.4625
24.6200 8.1906 -0.4741
24.6400 8.1973 -0.4735
24.6600 8.2040 -0.4623
24.6800 8.2107 -0.4727
24.7000 8.2174 -0.4692
24.7200 8.2240 -0.4663
24.7400 8.2307 -0.4732
24.7600 8.2374 -0.4700
24.7800 8.2440 -0.4678
24.8000 8.2506 -0.4756
24.8200 8.2573 -0.4637
24.8400 8.2640 -0.4706
24.8600 8.2707 -0.4769
24.8800 8.2774 -0.4647
24.9000 8.2840 -0.4678
24.9200 8.2907 -0.4788
24.9400 8.2974 -0.4672
24.9600 8.3040 -0.4748
24.9800 8.3106 -0.4741
25.0000 8.3173 -0.4689
25.0200 8.3240 -0.4775
25.0400 8.3307 -0.4735
25.0600 8.3374 -0.4676
25.0800 8.3441 -0.4776
25.1000 8.3508 -0.4725
25.1200 8.3574 -0.4733
25.1400 8.3640 -0.4759
25.1600 8.3706 -0.4673
25.1800 8.3773 -0.4737
25.2000 8.3840 -0.4767
25.2200 8.3907 -0.4669
25.2400 8.3974 -0.4720
25.2600 8.4041 -0.4801
25.2800 8.4108 -0.4654
25.3000 8.4174 -0.4749
25.3200 8.4240 -0.4741
25.3400 8.4306 -0.4701
25.3600 8.4373 -0.4789
25.3800 8.4440 -0.4735
25.4000 8.4507 -0.4699
25.4200 8.4574 -0.4798
25.4400 8.4641 -0.4671
25.4600 8.4707 -0.4765
25.4800 8.4774 -0.4812
25.5000 8.4840 -0.4671
25.5200 8.4906 -0.4731
25.5400 8.4972 -0.4818
25.5600 8.5039 -0.4657
25.5800 8.5106 -0.4798
25.6000 8.5173 -0.4824
25.6200 8.5240 -0.4631
25.6400 8.5307 -0.4802
25.6600 8.5374 -0.4798
25.6800 8.5440 -0.4656
25.7000 8.5506 -0.4792
25.7200 8.5573 -0.4759
25.7400 8.5640 -0.4654
25.7600 8.5707 -0.4857
25.7800 8.5774 -0.4787
25.8000 8.5841 -0.4680
25.8200 8.5908 -0.4848
25.8400 8.5975 -0.4809
25.8600 8.6040 -0.4632
25.8800 8.6106 -0.4862
25.9000 8.6173 -0.4778
25.9200 8.6240 -0.4708
25.9400 8.6308 -0.4788
25.9600 8.6374 -0.4777
25.9800 8.6441 -0.4719
26.0000 8.6508 -0.4824
26.0200 8.6574 -0.4784
26.0400 8.6640 -0.4764
26.0600 8.6706 -0.4799
26.0800 8.6773 -0.4787
26.1000 8.6840 -0.4718
26.1200 8.6907 -0.4833
26.1400 8.6974 -0.4749
26.1600 8.7040 -0.4723
26.1800 8.7107 -0.4858
26.2000 8.7174 -0.4769
26.2200 8.7240 -0.4790
26.2400 8.7306 -0.4824
26.2600 8.7372 -0.4767
26.2800 8.7439 -0.4754
26.3000 8.7507 -0.4870
26.3200 8.7573 -0.4817
26.3400 8.7640 -0.4751
26.3600 8.7707 -0.4813
26.3800 8.7774 -0.4824
26.4000 8.7840 -0.4748
26.4200 8.7906 -0.4841
26.4400 8.7973 -0.4815
26.4600 8.8040 -0.4805
26.4800 8.8107 -0.4812
26.5000 8.8174 -0.4844
26.5200 8.8241 -0.4764
26.5400 8.8308 -0.4852
26.5600 8.8375 -0.4796
26.5800 8.8441 -0.4803
26.6000 8.8507 -0.4836
26.6200 8.8573 -0.4798
26.6400 8.8640 -0.4788
26.6600 8.8707 -0.4844
26.6800 8.8774 -0.4783
26.7000 8.8841 -0.4826
26.7200 8.8908 -0.4832
26.7400 8.8975 -0.4820
26.7600 8.9041 -0.4859
26.7800 8.9107 -0.4780
26.8000 8.9173 -0.4802
26.8200 8.9240 -0.4882
26.8400 8.9307 -0.4848
26.8600 8.9374 -0.4772
26.8800 8.9441 -0.4864
26.9000 8.9507 -0.4823
26.9200 8.9574 -0.4841
26.9400 8.9640 -0.4850
26.9600 8.9706 -0.4785
26.9800 8.9773 -0.4818
27.0000 8.9840 -0.4893
27.0200 8.9907 -0.4801
27.0400 8.9974 -0.4846
27.0600 9.0040 -0.4863
27.0800 9.0107 -0.4835
27.1000 9.0174 -0.4829
27.1200 9.0240 -0.4868
27.1400 9.0307 -0.4820
27.1600 9.0373 -0.4866
27.1800 9.0440 -0.4883
27.2000 9.0507 -0.4814
27.2200 9.0574 -0.4904
27.2400 9.0641 -0.4891
27.2600 9.0708 -0.4825
27.2800 9.0775 -0.4961
27.3000 9.0841 -0.4898
27.3200 9.0907 -0.4801
27.3400 9.0973 -0.4926
27.3600 9.1040 -0.4871
27.3800 9.1107 -0.4809
27.4000 9.1174 -0.4923
27.4200 9.1241 -0.4921
27.4400 9.1308 -0.4781
27.4600 9.1374 -0.4979
27.4800 9.1440 -0.4817
27.5000 9.1507 -0.4853
27.5200 9.1573 -0.4943
27.5400 9.1640 -0.4802
27.5600 9.1707 -0.4944
27.5800 9.1774 -0.4924
27.6000 9.1841 -0.4770
27.6200 9.1907 -0.4934
27.6400 9.1974 -0.4903
27.6600 9.2040 -0.4858
27.6800 9.2106 -0.4948
27.7000 9.2172 -0.4905
27.7200 9.2239 -0.4823
27.7400 9.2306 -0.5024
27.7600 9.2373 -0.4879
27.7800 9.2440 -0.4823
27.8000 9.2507 -0.5014
27.8200 9.2574 -0.4872
27.8400 9.2640 -0.4919
27.8600 9.2706 -0.4930
27.8800 9.2773 -0.4836
27.9000 9.2840 -0.4961
27.9200 9.2907 -0.4954
27.9400 9.2974 -0.4806
27.9600 9.3041 -0.4972
27.9800 9.3108 -0.4976
28.0000 9.3175 -0.4874
28.0200 9.3241 -0.4944
28.0400 9.3307 -0.4971
28.0600 9.3373 -0.4832
28.0800 9.3440 -0.4992
28.1000 9.3507 -0.4972
28.1200 9.3574 -0.4878
28.1400 9.3641 -0.4984
28.1600 9.3707 -0.4962
28.1800 9.3774 -0.4893
28.2000 9.3841 -0.5004
28.2200 9.3907 -0.4955
28.2400 9.3973 -0.4892
28.2600 9.4040 -0.4952
28.2800 9.4107 -0.4925
28.3000 9.4174 -0.4936
28.3200 9.4241 -0.4950
28.3400 9.4307 -0.4888
28.3600 9.4374 -0.4971
28.3800 9.4441 -0.4925
28.4000 9.4506 -0.4915
28.4200 9.4573 -0.5007
28.4400 9.4639 -0.4812
28.4600 9.4707 -0.4964
28.4800 9.4774 -0.5010
28.5000 9.4841 -0.4890
28.5200 9.4907 -0.4948
28.5400 9.4974 -0.4998
28.5600 9.5040 -0.4832
28.5800 9.5107 -0.4993
28.6000 9.5173 -0.4996
28.6200 9.5240 -0.4803
28.6400 9.5307 -0.4982
28.6600 9.5374 -0.5007
28.6800 9.5441 -0.4779
28.7000 9.5508 -0.5045
28.7200 9.5575 -0.4975
28.7400 9.5641 -0.4813
28.7600 9.5707 -0.5010
28.7800 9.5773 -0.4985
28.8000 9.5840 -0.4877
28.8200 9.5907 -0.5026
28.8400 9.5974 -0.4892
28.8600 9.6041 -0.4936
28.8800 9.6108 -0.5040
28.9000 9.6175 -0.4859
28.9200 9.6241 -0.4980
28.9400 9.6307 -0.4994
28.9600 9.6373 -0.4826
28.9800 9.6439 -0.5003
29.0000 9.6506 -0.5032
29.0200 9.6573 -0.4751
29.0400 9.6640 -0.5065
29.0600 9.6707 -0.4977
29.0800 9.6774 -0.4791
29.1000 9.6840 -0.5092
29.1200 9.6907 -0.4978
29.1400 9.6973 -0.4786
29.1600 9.7040 -0.5074
29.1800 9.7107 -0.4903
29.2000 9.7173 -0.4840
29.2200 9.7240 -0.5062
29.2400 9.7307 -0.4952
29.2600 9.7374 -0.4828
29.2800 9.7441 -0.5068
29.3000 9.7507 -0.4962
29.3200 9.7573 -0.4893
29.3400 9.7640 -0.4986
29.3600 9.7707 -0.4981
29.3800 9.7774 -0.4930
29.4000 9.7841 -0.4953
29.4200 9.7908 -0.5030
29.4400 9.7975 -0.4978
29.4600 9.8041 -0.4943
29.4800 9.8107 -0.4974
29.5000 9.8173 -0.4970
29.5200 9.8239 -0.4953
29.5400 9.8307 -0.4977
29.5600 9.8374 -0.4987
29.5800 9.8441 -0.4959
29.6000 9.8508 -0.4980
29.6200 9.8574 -0.4998
29.6400 9.8641 -0.4942
29.6600 9.8707 -0.5040
29.6800 9.8773 -0.4996
29.7000 9.8840 -0.4993
29.7200 9.8907 -0.5001
29.7400 9.8974 -0.4978
29.7600 9.9040 -0.5029
29.7800 9.9107 -0.5025
29.8000 9.9174 -0.4986
29.8200 9.9241 -0.5030
29.8400 9.9306 -0.5014
29.8600 9.9372 -0.4993
29.8800 9.9439 -0.4998
29.9000 9.9506 -0.5061
29.9200 9.9573 -0.5008
29.9400 9.9640 -0.5048
29.9600 9.9707 -0.5038
29.9800 9.9774 -0.4993
30.0000 9.9840 -0.5063
30.0200 9.9906 -0.5030
30.0400 9.9973 -0.4981
30.0600 10.0040 -0.5065
30.0800 10.0107 -0.5048
30.1000 10.0174 -0.4975
30.1200 10.0241 -0.5080
30.1400 10.0307 -0.5048
30.1600 10.0374 -0.4992
30.1800 10.0441 -0.5133
30.2000 10.0507 -0.5044
30.2200 10.0574 -0.4995
30.2400 10.0640 -0.5165
30.2600 10.0707 -0.4984
30.2800 10.0774 -0.5023
30.3000 10.0841 -0.5144
30.3200 10.0908 -0.5032
30.3400 10.0975 -0.5030
30.3600 10.1041 -0.5150
30.3800 10.1107 -0.5004
30.4000 10.1173 -0.5052
30.4200 10.1239 -0.5132
30.4400 10.1306 -0.4996
30.4600 10.1373 -0.5106
30.4800 10.1440 -0.5093
30.5000 10.1507 -0.5002
30.5200 10.1574 -0.5136
30.5400 10.1641 -0.5068
30.5600 10.1707 -0.5054
30.5800 10.1773 -0.5116
30.6000 10.1839 -0.5006
30.6200 10.1907 -0.5083
30.6400 10.1974 -0.5127
30.6600 10.2041 -0.5016
30.6800 10.2107 -0.5116
30.7000 10.2174 -0.5117
30.7200 10.2241 -0.5008
30.7400 10.2307 -0.5143
30.7600 10.2373 -0.5041
30.7800 10.2440 -0.5050
30.8000 10.2507 -0.5136
30.8200 10.2574 -0.4984
30.8400 10.2641 -0.5125
30.8600 10.2708 -0.5186
30.8800 10.2775 -0.4943
30.9000 10.2841 -0.5141
30.9200 10.2907 -0.5154
30.9400 10.2973 -0.5015
30.9600 10.3039 -0.5126
30.9800 10.3107 -0.5083
31.0000 10.3174 -0.5022
31.0200 10.3241 -0.5175
31.0400 10.3308 -0.5065
31.0600 10.3374 -0.5064
31.0800 10.3441 -0.5202
31.1000 10.3507 -0.5008
31.1200 10.3573 -0.5017
31.1400 10.3639 -0.5191
31.1600 10.3706 -0.5009
31.1800 10.3774 -0.5085
31.2000 10.3840 -0.5217
31.2200 10.3907 -0.4982
31.2400 10.3974 -0.5079
31.2600 10.4041 -0.5199
31.2800 10.4107 -0.5080
31.3000 10.4173 -0.5069
31.3200 10.4240 -0.5142
31.3400 10.4306 -0.5078
31.3600 10.4373 -0.5083
31.3800 10.4440 -0.5092
31.4000 10.4507 -0.5127
31.4200 10.4574 -0.5110
31.4400 10.4641 -0.5050
31.4600 10.4707 -0.5082
31.4800 10.4773 -0.5176
31.5000 10.4839 -0.5051
31.5200 10.4907 -0.5097
31.5400 10.4974 -0.5124
31.5600 10.5041 -0.5079
31.5800 10.5108 -0.5173
31.6000 10.5175 -0.5070
31.6200 10.5241 -0.5025
31.6400 10.5307 -0.5216
31.6600 10.5373 -0.5097
31.6800 10.5440 -0.5000
31.7000 10.5507 -0.5205
31.7200 10.5574 -0.5062
31.7400 10.5641 -0.5046
31.7600 10.5708 -0.5212
31.7800 10.5774 -0.5006
31.8000 10.5841 -0.5125
31.8200 10.5907 -0.5227
31.8400 10.5973 -0.4945
31.8600 10.6040 -0.5119
31.8800 10.6106 -0.5246
31.9000 10.6174 -0.5004
31.9200 10.6240 -0.5055
31.9400 10.6307 -0.5241
31.9600 10.6374 -0.5006
31.9800 10.6441 -0.5141
32.0000 10.6507 -0.5191
32.0200 10.6573 -0.5005
32.0400 10.6639 -0.5155
32.0600 10.6706 -0.5155
32.0800 10.6773 -0.5050
32.1000 10.6840 -0.5179
32.1200 10.6907 -0.5151
32.1400 10.6974 -0.5078
32.1600 10.7041 -0.5171
32.1800 10.7107 -0.5119
32.2000 10.7173 -0.5131
32.2200 10.7240 -0.5196
32.2400 10.7307 -0.5078
32.2600 10.7374 -0.5076
32.2800 10.7441 -0.5204
32.3000 10.7508 -0.5078
32.3200 10.7575 -0.5115
32.3400 10.7641 -0.5198
32.3600 10.7708 -0.5178
32.3800 10.7774 -0.5110
32.4000 10.7840 -0.5115
32.4200 10.7906 -0.5144
32.4400 10.7974 -0.5254
32.4600 10.8041 -0.5134
32.4800 10.8108 -0.5080
32.5000 10.8174 -0.5145
32.5200 10.8241 -0.5197
32.5400 10.8307 -0.5196
32.5600 10.8373 -0.5171
32.5800 10.8439 -0.5105
32.6000 10.8506 -0.5241
32.6200 10.8574 -0.5209
32.6400 10.8641 -0.5080
32.6600 10.8707 -0.5244
32.6800 10.8774 -0.5203
32.7000 10.8841 -0.5040
32.7200 10.8907 -0.5175
32.7400 10.8973 -0.5221
32.7600 10.9040 -0.5154
32.7800 10.9106 -0.5264
32.8000 10.9174 -0.5078
32.8200 10.9240 -0.5070
32.8400 10.9307 -0.5383
32.8600 10.9374 -0.5194
32.8800 10.9441 -0.5048
32.9000 10.9507 -0.5325
32.9200 10.9573 -0.5183
32.9400 10.9640 -0.5081
32.9600 10.9706 -0.5290
32.9800 10.9774 -0.5246
33.0000 10.9840 -0.5128
33.0200 10.9907 -0.5257
33.0400 10.9974 -0.5167
33.0600 11.0041 -0.5197
33.0800 11.0107 -0.5369
33.1000 11.0173 -0.5155
33.1200 11.0240 -0.5095
33.1400 11.0306 -0.5284
33.1600 11.0374 -0.5172
33.1800 11.0441 -0.5249
33.2000 11.0508 -0.5238
33.2200 11.0575 -0.5221
33.2400 11.0641 -0.5178
33.2600 11.0707 -0.5200
33.2800 11.0773 -0.5260
33.3000 11.0840 -0.5249
33.3200 11.0906 -0.5174
33.3400 11.0973 -0.5176
33.3600 11.1040 -0.5222
33.3800 11.1107 -0.5237
33.4000 11.1174 -0.5304
33.4200 11.1241 -0.5204
33.4400 11.1307 -0.5162
33.4600 11.1373 -0.5315
33.4800 11.1439 -0.5207
33.5000 11.1506 -0.5177
33.5200 11.1573 -0.5337
33.5400 11.1640 -0.5209
33.5600 11.1707 -0.5171
33.5800 11.1774 -0.5276
33.6000 11.1841 -0.5274
33.6200 11.1907 -0.5213
33.6400 11.1973 -0.5296
33.6600 11.2040 -0.5176
33.6800 11.2107 -0.5221
33.7000 11.2174 -0.5324
33.7200 11.2241 -0.5241
33.7400 11.2308 -0.5188
33.7600 11.2375 -0.5242
33.7800 11.2441 -0.5238
33.8000 11.2507 -0.5244
33.8200 11.2573 -0.5248
33.8400 11.2639 -0.5235
33.8600 11.2706 -0.5217
33.8800 11.2773 -0.5249
33.9000 11.2840 -0.5206
33.9200 11.2907 -0.5225
33.9400 11.2974 -0.5281
33.9600 11.3041 -0.5178
33.9800 11.3108 -0.5249
34.0000 11.3174 -0.5273
34.0200 11.3239 -0.5208
34.0400 11.3306 -0.5217
34.0600 11.3373 -0.5306
34.0800 11.3440 -0.5160
34.1000 11.3507 -0.5224
34.1200 11.3574 -0.5345
34.1400 11.3641 -0.5235
34.1600 11.3708 -0.5198
34.1800 11.3773 -0.5287
34.2000 11.3839 -0.5165
34.2200 11.3906 -0.5226
34.2400 11.3973 -0.5306
34.2600 11.4040 -0.5190
34.2800 11.4107 -0.5266
34.3000 11.4174 -0.5320
34.3200 11.4240 -0.5148
34.3400 11.4307 -0.5307
34.3600 11.4373 -0.5343
34.3800 11.4440 -0.5161
34.4000 11.4506 -0.5307
34.4200 11.4574 -0.5258
34.4400 11.4641 -0.5198
34.4600 11.4707 -0.5358
34.4800 11.4774 -0.5286
34.5000 11.4841 -0.5171
34.5200 11.4908 -0.5323
34.5400 11.4974 -0.5241
34.5600 11.5040 -0.5276
34.5800 11.5106 -0.5274
34.6000 11.5173 -0.5164
34.6200 11.5241 -0.5249
34.6400 11.5307 -0.5358
34.6600 11.5374 -0.5219
34.6800 11.5441 -0.5207
34.7000 11.5507 -0.5281
34.7200 11.5573 -0.5329
34.7400 11.5639 -0.5240
34.7600 11.5706 -0.5148
34.7800 11.5773 -0.5327
34.8000 11.5840 -0.5349
34.8200 11.5907 -0.5146
34.8400 11.5974 -0.5291
34.8600 11.6040 -0.5306
34.8800 11.6107 -0.5262
34.9000 11.6173 -0.5272
34.9200 11.6239 -0.5252
34.9400 11.6306 -0.5295
34.9600 11.6373 -0.5362
34.9800 11.6440 -0.5160
35.0000 11.6507 -0.5183
35.0200 11.6574 -0.5420
35.0400 11.6641 -0.5362
35.0600 11.6708 -0.5108
35.0800 11.6774 -0.5236
35.1000 11.6840 -0.5489
35.1200 11.6906 -0.5187
35.1400 11.6974 -0.5283
35.1600 11.7041 -0.5281
35.1800 11.7107 -0.5221
35.2000 11.7174 -0.5360
35.2200 11.7241 -0.5365
35.2400 11.7308 -0.5135
35.2600 11.7374 -0.5376
35.2800 11.7440 -0.5428
35.3000 11.7506 -0.5162
35.3200 11.7573 -0.5286
35.3400 11.7641 -0.5407
35.3600 11.7708 -0.5202
35.3800 11.7774 -0.5336
35.4000 11.7841 -0.5298
35.4200 11.7908 -0.5257
35.4400 11.7974 -0.5331
35.4600 11.8040 -0.5271
35.4800 11.8107 -0.5258
35.5000 11.8173 -0.5450
35.5200 11.8240 -0.5308
35.5400 11.8307 -0.5198
35.5600 11.8374 -0.5318
35.5800 11.8441 -0.5318
35.6000 11.8508 -0.5319
35.6200 11.8574 -0.5326
35.6400 11.8639 -0.5222
35.6600 11.8706 -0.5322
35.6800 11.8773 -0.5355
35.7000 11.8840 -0.5275
35.7200 11.8907 -0.5370
35.7400 11.8974 -0.5333
35.7600 11.9040 -0.5296
35.7800 11.9107 -0.5368
35.8000 11.9173 -0.5307
35.8200 11.9240 -0.5206
35.8400 11.9306 -0.5321
35.8600 11.9373 -0.5286
35.8800 11.9440 -0.5285
35.9000 11.9507 -0.5361
35.9200 11.9574 -0.5305
35.9400 11.9641 -0.5219
35.9600 11.9708 -0.5414
35.9800 11.9774 -0.5339
36.0000 11.9840 -0.5246
36.0200 11.9906 -0.5379
36.0400 11.9973 -0.5315
36.0600 12.0040 -0.5282
36.0800 12.0107 -0.5394
36.1000 12.0174 -0.5274
36.1200 12.0241 -0.5251
36.1400 12.0308 -0.5394
36.1600 12.0374 -0.5358
36.1800 12.0440 -0.5272
36.2000 12.0506 -0.5291
36.2200 12.0573 -0.5318
36.2400 12.0640 -0.5306
36.2600 12.0707 -0.5401
36.2800 12.0774 -0.5312
36.3000 12.0841 -0.5315
36.3200 12.0907 -0.5358
36.3400 12.0973 -0.5353
36.3600 12.1039 -0.5278
36.3800 12.1106 -0.5356
36.4000 12.1173 -0.5295
36.4200 12.1240 -0.5283
36.4400 12.1307 -0.5351
36.4600 12.1374 -0.5352
36.4800 12.1440 -0.5320
36.5000 12.1507 -0.5332
36.5200 12.1574 -0.5343
36.5400 12.1640 -0.5294
36.5600 12.1706 -0.5330
36.5800 12.1773 -0.5393
36.6000 12.1840 -0.5311
36.6200 12.1907 -0.5372
36.6400 12.1974 -0.5352
36.6600 12.2041 -0.5283
36.6800 12.2108 -0.5372
36.7000 12.2174 -0.5351
36.7200 12.2240 -0.5356
36.7400 12.2306 -0.5346
36.7600 12.2374 -0.5329
36.7800 12.2441 -0.5350
36.8000 12.2508 -0.5350
36.8200 12.2574 -0.5372
36.8400 12.2641 -0.5351
36.8600 12.2707 -0.5354
36.8800 12.2774 -0.5383
36.9000 12.2840 -0.5350
36.9200 12.2906 -0.5372
36.9400 12.2973 -0.5370
36.9600 12.3040 -0.5439
36.9800 12.3107 -0.5271
37.0000 12.3174 -0.5427
37.0200 12.3241 -0.5457
37.0400 12.3308 -0.5318
37.0600 12.3374 -0.5401
37.0800 12.3440 -0.5453
37.1000 12.3506 -0.5321
37.1200 12.3573 -0.5402
37.1400 12.3640 -0.5472
37.1600 12.3707 -0.5360
37.1800 12.3774 -0.5393
37.2000 12.3841 -0.5432
37.2200 12.3908 -0.5354
37.2400 12.3974 -0.5436
37.2600 12.4040 -0.5405
37.2800 12.4106 -0.5342
37.3000 12.4173 -0.5441
37.3200 12.4240 -0.5418
37.3400 12.4307 -0.5395
37.3600 12.4374 -0.5410
37.3800 12.4441 -0.5436
37.4000 12.4508 -0.5347
37.4200 12.4574 -0.5386
37.4400 12.4640 -0.5472
37.4600 12.4707 -0.5365
37.4800 12.4773 -0.5411
37.5000 12.4840 -0.5486
37.5200 12.4907 -0.5307
37.5400 12.4974 -0.5445
37.5600 12.5041 -0.5484
37.5800 12.5108 -0.5370
37.6000 12.5174 -0.5370
37.6200 12.5240 -0.5469
37.6400 12.5306 -0.5383
37.6600 12.5373 -0.5384
37.6800 12.5440 -0.5438
37.7000 12.5507 -0.5358
37.7200 12.5574 -0.5464
37.7400 12.5641 -0.5477
37.7600 12.5707 -0.5402
37.7800 12.5774 -0.5407
37.8000 12.5840 -0.5436
37.8200 12.5906 -0.5389
37.8400 12.5973 -0.5447
37.8600 12.6040 -0.5461
37.8800 12.6107 -0.5391
37.9000 12.6174 -0.5394
37.9200 12.6240 -0.5433
37.9400 12.6307 -0.5446
37.9600 12.6374 -0.5496
37.9800 12.6440 -0.5366
38.0000 12.6506 -0.5406
38.0200 12.6573 -0.5449
38.0400 12.6640 -0.5447
38.0600 12.6707 -0.5366
38.0800 12.6774 -0.5384
38.1000 12.6841 -0.5481
38.1200 12.6908 -0.5423
38.1400 12.6974 -0.5392
38.1600 12.7040 -0.5515
38.1800 12.7106 -0.5411
38.2000 12.7173 -0.5364
38.2200 12.7240 -0.5450
38.2400 12.7307 -0.5397
38.2600 12.7374 -0.5411
38.2800 12.7441 -0.5424
38.3000 12.7508 -0.5424
38.3200 12.7574 -0.5418
38.3400 12.7640 -0.5504
38.3600 12.7706 -0.5449
38.3800 12.7773 -0.5371
38.4000 12.7840 -0.5450
38.4200 12.7907 -0.5512
38.4400 12.7974 -0.5385
38.4600 12.8041 -0.5414
38.4800 12.8108 -0.5434
38.5000 12.8174 -0.5456
38.5200 12.8240 -0.5501
38.5400 12.8306 -0.5452
38.5600 12.8373 -0.5379
38.5800 12.8440 -0.5480
38.6000 12.8507 -0.5477
38.6200 12.8574 -0.5478
38.6400 12.8640 -0.5471
38.6600 12.8707 -0.5375
38.6800 12.8774 -0.5344
38.7000 12.8840 -0.5522
38.7200 12.8906 -0.5422
38.7400 12.8973 -0.5457
38.7600 12.9040 -0.5445
38.7800 12.9107 -0.5386
38.8000 12.9174 -0.5491
38.8200 12.9241 -0.5525
38.8400 12.9308 -0.5394
38.8600 12.9374 -0.5371
38.8800 12.9440 -0.5520
38.9000 12.9506 -0.5470
38.9200 12.9573 -0.5385
38.9400 12.9640 -0.5440
38.9600 12.9707 -0.5536
38.9800 12.9774 -0.5424
39.0000 12.9841 -0.5461
39.0200 12.9908 -0.5540
39.0400 12.9974 -0.5440
39.0600 13.0040 -0.5329
39.0800 13.0107 -0.5535
39.1000 13.0173 -0.5501
39.1200 13.0240 -0.5424
39.1400 13.0307 -0.5416
39.1600 13.0373 -0.5462
39.1800 13.0440 -0.5457
39.2000 13.0507 -0.5511
39.2200 13.0574 -0.5457
39.2400 13.0640 -0.5420
39.2600 13.0706 -0.5418
39.2800 13.0773 -0.5440
39.3000 13.0840 -0.5519
39.3200 13.0907 -0.5471
39.3400 13.0974 -0.5377
39.3600 13.1041 -0.5496
39.3800 13.1107 -0.5499
39.4000 13.1174 -0.5471
39.4200 13.1240 -0.5501
39.4400 13.1306 -0.5412
39.4600 13.1373 -0.5447
39.4800 13.1440 -0.5529
39.5000 13.1507 -0.5500
39.5200 13.1574 -0.5377
39.5400 13.1641 -0.5417
39.5600 13.1707 -0.5562
39.5800 13.1774 -0.5518
39.6000 13.1840 -0.5460
39.6200 13.1906 -0.5476
39.6400 13.1973 -0.5431
39.6600 13.2040 -0.5484
39.6800 13.2107 -0.5470
39.7000 13.2174 -0.5494
39.7200 13.2241 -0.5488
39.7400 13.2307 -0.5441
39.7600 13.2374 -0.5406
39.7800 13.2440 -0.5564
39.8000 13.2506 -0.5436
39.8200 13.2573 -0.5498
39.8400 13.2640 -0.5547
39.8600 13.2708 -0.5381
39.8800 13.2774 -0.5396
39.9000 13.2841 -0.5540
39.9200 13.2908 -0.5509
39.9400 13.2974 -0.5491
39.9600 13.3040 -0.5527
39.9800 13.3106 -0.5422
40.0000 13.3173 -0.5438
40.0200 13.3240 -0.5503
40.0400 13.3307 -0.5627
40.0600 13.3373 -0.5517
40.0800 13.3440 -0.5348
40.1000 13.3507 -0.5398
40.1200 13.3574 -0.5627
40.1400 13.3640 -0.5597
40.1600 13.3706 -0.5449
40.1800 13.3773 -0.5451
40.2000 13.3840 -0.5495
40.2200 13.3907 -0.5542
40.2400 13.3974 -0.5559
40.2600 13.4041 -0.5537
40.2800 13.4108 -0.5520
40.3000 13.4175 -0.5425
40.3200 13.4241 -0.5502
40.3400 13.4307 -0.5632
40.3600 13.4373 -0.5534
40.3800 13.4440 -0.5456
40.4000 13.4507 -0.5528
40.4200 13.4574 -0.5509
40.4400 13.4641 -0.5581
40.4600 13.4708 -0.5595
40.4800 13.4774 -0.5382
40.5000 13.4840 -0.5538
40.5200 13.4906 -0.5617
40.5400 13.4972 -0.5441
40.5600 13.5039 -0.5495
40.5800 13.5106 -0.5567
40.6000 13.5173 -0.5431
40.6200 13.5240 -0.5612
40.6400 13.5307 -0.5632
40.6600 13.5374 -0.5486
40.6800 13.5441 -0.5525
40.7000 13.5507 -0.5532
40.7200 13.5573 -0.5457
40.7400 13.5639 -0.5652
40.7600 13.5707 -0.5515
40.7800 13.5773 -0.5420
40.8000 13.5840 -0.5608
40.8200 13.5907 -0.5527
40.8400 13.5974 -0.5514
40.8600 13.6040 -0.5640
40.8800 13.6106 -0.5462
40.9000 13.6173 -0.5469
40.9200 13.6240 -0.5598
40.9400 13.6307 -0.5548
40.9600 13.6374 -0.5557
40.9800 13.6441 -0.5573
41.0000 13.6508 -0.5504
41.0200 13.6574 -0.5558
41.0400 13.6641 -0.5603
41.0600 13.6707 -0.5469
41.0800 13.6773 -0.5576
41.1000 13.6840 -0.5550
41.1200 13.6907 -0.5503
41.1400 13.6974 -0.5520
41.1600 13.7041 -0.5522
41.1800 13.7108 -0.5551
41.2000 13.7175 -0.5527
41.2200 13.7241 -0.5510
41.2400 13.7306 -0.5577
41.2600 13.7373 -0.5507
41.2800 13.7439 -0.5519
41.3000 13.7507 -0.5563
41.3200 13.7574 -0.5525
41.3400 13.7640 -0.5487
41.3600 13.7707 -0.5555
41.3800 13.7774 -0.5525
41.4000 13.7840 -0.5527
41.4200 13.7906 -0.5543
41.4400 13.7972 -0.5497
41.4600 13.8039 -0.5526
41.4800 13.8107 -0.5601
41.5000 13.8174 -0.5515
41.5200 13.8241 -0.5527
41.5400 13.8308 -0.5534
41.5600 13.8374 -0.5495
41.5800 13.8441 -0.5606
41.6000 13.8507 -0.5597
41.6200 13.8573 -0.5573
41.6400 13.8640 -0.5490
41.6600 13.8707 -0.5538
41.6800 13.8774 -0.5602
41.7000 13.8841 -0.5645
41.7200 13.8908 -0.5490
41.7400 13.8975 -0.5483
41.7600 13.9041 -0.5573
41.7800 13.9107 -0.5548
41.8000 13.9173 -0.5533
41.8200 13.9240 -0.5596
41.8400 13.9307 -0.5494
41.8600 13.9374 -0.5549
41.8800 13.9441 -0.5575
41.9000 13.9508 -0.5602
41.9200 13.9574 -0.5603
41.9400 13.9641 -0.5478
41.9600 13.9707 -0.5535
41.9800 13.9773 -0.5661
42.0000 13.9840 -0.5568
42.0200 13.9907 -0.5542
42.0400 13.9974 -0.5539
42.0600 14.0041 -0.5575
42.0800 14.0107 -0.5619
42.1000 14.0174 -0.5618
42.1200 14.0241 -0.5420
42.1400 14.0307 -0.5596
42.1600 14.0372 -0.5776
42.1800 14.0439 -0.5376
42.2000 14.0506 -0.5519
42.2200 14.0573 -0.5698
42.2400 14.0640 -0.5611
42.2600 14.0707 -0.5539
42.2800 14.0774 -0.5581
42.3000 14.0841 -0.5650
42.3200 14.0907 -0.5504
42.3400 14.0973 -0.5563
42.3600 14.1040 -0.5689
42.3800 14.1107 -0.5545
42.4000 14.1174 -0.5563
42.4200 14.1241 -0.5596
42.4400 14.1308 -0.5620
42.4600 14.1375 -0.5639
42.4800 14.1441 -0.5704
42.5000 14.1507 -0.5521
42.5200 14.1573 -0.5599
42.5400 14.1640 -0.5633
42.5600 14.1707 -0.5587
42.5800 14.1774 -0.5639
42.6000 14.1841 -0.5507
42.6200 14.1908 -0.5607
42.6400 14.1974 -0.5709
42.6600 14.2041 -0.5460
42.6800 14.2107 -0.5565
42.7000 14.2173 -0.5811
42.7200 14.2239 -0.5484
42.7400 14.2307 -0.5495
42.7600 14.2374 -0.5748
42.7800 14.2441 -0.5462
42.8000 14.2507 -0.5499
42.8200 14.2574 -0.5853
42.8400 14.2641 -0.5517
42.8600 14.2707 -0.5588
42.8800 14.2773 -0.5685
42.9000 14.2839 -0.5457
42.9200 14.2907 -0.5689
42.9400 14.2974 -0.5824
42.9600 14.3041 -0.5408
42.9800 14.3107 -0.5525
43.0000 14.3174 -0.5718
43.0200 14.3240 -0.5577
43.0400 14.3307 -0.5638
43.0600 14.3373 -0.5704
43.0800 14.3440 -0.5481
43.1000 14.3507 -0.5585
43.1200 14.3574 -0.5748
43.1400 14.3641 -0.5657
43.1600 14.3708 -0.5597
43.1800 14.3774 -0.5618
43.2000 14.3841 -0.5576
43.2200 14.3907 -0.5616
43.2400 14.3973 -0.5743
43.2600 14.4040 -0.5583
43.2800 14.4107 -0.5553
43.3000 14.4174 -0.5648
43.3200 14.4241 -0.5649
43.3400 14.4308 -0.5660
43.3600 14.4375 -0.5691
43.3800 14.4441 -0.5596
43.4000 14.4507 -0.5604
43.4200 14.4573 -0.5673
43.4400 14.4639 -0.5622
43.4600 14.4707 -0.5610
43.4800 14.4774 -0.5704
43.5000 14.4840 -0.5542
43.5200 14.4907 -0.5621
43.5400 14.4974 -0.5724
43.5600 14.5040 -0.5552
43.5800 14.5107 -0.5670
43.6000 14.5173 -0.5691
43.6200 14.5239 -0.5513
43.6400 14.5306 -0.5727
43.6600 14.5373 -0.5684
43.6800 14.5440 -0.5543
43.7000 14.5507 -0.5742
43.7200 14.5574 -0.5656
43.7400 14.5641 -0.5565
43.7600 14.5707 -0.5711
43.7800 14.5773 -0.5692
43.8000 14.5839 -0.5579
43.8200 14.5906 -0.5724
43.8400 14.5973 -0.5656
43.8600 14.6040 -0.5616
43.8800 14.6108 -0.5708
43.9000 14.6175 -0.5675
43.9200 14.6241 -0.5630
43.9400 14.6307 -0.5689
43.9600 14.6373 -0.5675
43.9800 14.6440 -0.5623
44.0000 14.6507 -0.5671
44.0200 14.6574 -0.5701
44.0400 14.6641 -0.5572
44.0600 14.6708 -0.5691
44.0800 14.6774 -0.5739
44.1000 14.6841 -0.5630
44.1200 14.6907 -0.5671
44.1400 14.6973 -0.5726
44.1600 14.7040 -0.5569
44.1800 14.7107 -0.5679
44.2000 14.7174 -0.5737
44.2200 14.7240 -0.5631
44.2400 14.7307 -0.5644
44.2600 14.7374 -0.5682
44.2800 14.7441 -0.5648
44.3000 14.7507 -0.5691
44.3200 14.7573 -0.5693
44.3400 14.7639 -0.5643
44.3600 14.7706 -0.5654
44.3800 14.7773 -0.5671
44.4000 14.7840 -0.5682
44.4200 14.7907 -0.5668
44.4400 14.7974 -0.5705
44.4600 14.8040 -0.5663
44.4800 14.8106 -0.5692
44.5000 14.8173 -0.5666
44.5200 14.8240 -0.5681
44.5400 14.8307 -0.5684
44.5600 14.8374 -0.5755
44.5800 14.8441 -0.5641
44.6000 14.8507 -0.5642
44.6200 14.8574 -0.5728
44.6400 14.8641 -0.5722
44.6600 14.8707 -0.5608
44.6800 14.8774 -0.5711
44.7000 14.8840 -0.5710
44.7200 14.8907 -0.5564
44.7400 14.8974 -0.5715
44.7600 14.9041 -0.5813
44.7800 14.9108 -0.5590
44.8000 14.9175 -0.5602
44.8200 14.9241 -0.5751
44.8400 14.9307 -0.5693
44.8600 14.9373 -0.5700
44.8800 14.9439 -0.5689
44.9000 14.9506 -0.5629
44.9200 14.9573 -0.5707
44.9400 14.9640 -0.5704
44.9600 14.9707 -0.5677
44.9800 14.9774 -0.5741
45.0000 14.9841 -0.5657
45.0200 14.9907 -0.5629
45.0400 14.9973 -0.5718
45.0600 15.0039 -0.5750
45.0800 15.0107 -0.5659
45.1000 15.0174 -0.5735
45.1200 15.0240 -0.5695
45.1400 15.0307 -0.5672
45.1600 15.0374 -0.5719
45.1800 15.0441 -0.5741
45.2000 15.0507 -0.5671
45.2200 15.0574 -0.5615
45.2400 15.0640 -0.5700
45.2600 15.0707 -0.5780
45.2800 15.0774 -0.5626
45.3000 15.0841 -0.5691
45.3200 15.0908 -0.5720
45.3400 15.0975 -0.5615
45.3600 15.1041 -0.5733
45.3800 15.1107 -0.5734
45.4000 15.1173 -0.5640
45.4200 15.1239 -0.5708
45.4400 15.1306 -0.5721
45.4600 15.1374 -0.5633
45.4800 15.1441 -0.5812
45.5000 15.1507 -0.5709
45.5200 15.1574 -0.5567
45.5400 15.1641 -0.5773
45.5600 15.1707 -0.5735
45.5800 15.1773 -0.5611
45.6000 15.1840 -0.5783
45.6200 15.1907 -0.5647
45.6400 15.1974 -0.5682
45.6600 15.2041 -0.5772
45.6800 15.2107 -0.5646
45.7000 15.2174 -0.5657
45.7200 15.2241 -0.5792
45.7400 15.2307 -0.5633
45.7600 15.2373 -0.5675
45.7800 15.2440 -0.5806
45.8000 15.2506 -0.5659
45.8200 15.2573 -0.5691
45.8400 15.2640 -0.5771
45.8600 15.2707 -0.5640
45.8800 15.2774 -0.5744
45.9000 15.2841 -0.5764
45.9200 15.2907 -0.5692
45.9400 15.2973 -0.5758
45.9600 15.3040 -0.5680
45.9800 15.3106 -0.5715
46.0000 15.3174 -0.5770
46.0200 15.3241 -0.5719
46.0400 15.3308 -0.5687
46.0600 15.3374 -0.5780
46.0800 15.3441 -0.5685
46.1000 15.3507 -0.5716
46.1200 15.3573 -0.5747
46.1400 15.3640 -0.5735
46.1600 15.3707 -0.5688
46.1800 15.3774 -0.5726
46.2000 15.3841 -0.5776
46.2200 15.3908 -0.5736
46.2400 15.3974 -0.5686
46.2600 15.4041 -0.5810
46.2800 15.4107 -0.5767
46.3000 15.4173 -0.5669
46.3200 15.4240 -0.5773
46.3400 15.4306 -0.5813
46.3600 15.4373 -0.5646
46.3800 15.4440 -0.5794
46.4000 15.4507 -0.5781
46.4200 15.4574 -0.5686
46.4400 15.4641 -0.5860
46.4600 15.4707 -0.5752
46.4800 15.4773 -0.5697
46.5000 15.4839 -0.5787
46.5200 15.4906 -0.5727
46.5400 15.4973 -0.5712
46.5600 15.5040 -0.5890
46.5800 15.5107 -0.5705
46.6000 15.5174 -0.5706
46.6200 15.5241 -0.5889
46.6400 15.5307 -0.5754
46.6600 15.5373 -0.5714
46.6800 15.5440 -0.5889
46.7000 15.5506 -0.5705
46.7200 15.5574 -0.5723
46.7400 15.5640 -0.5879
46.7600 15.5707 -0.5747
46.7800 15.5774 -0.5695
46.8000 15.5841 -0.5889
46.8200 15.5908 -0.5759
46.8400 15.5974 -0.5705
46.8600 15.6040 -0.5864
46.8800 15.6107 -0.5754
46.9000 15.6174 -0.5736
46.9200 15.6241 -0.5906
46.9400 15.6308 -0.5717
46.9600 15.6374 -0.5772
46.9800 15.6441 -0.5893
47.0000 15.6507 -0.5726
47.0200 15.6573 -0.5772
47.0400 15.6639 -0.5858
47.0600 15.6706 -0.5773
47.0800 15.6774 -0.5745
47.1000 15.6841 -0.5859
47.1200 15.6907 -0.5771
47.1400 15.6974 -0.5769
47.1600 15.7041 -0.5823
47.1800 15.7107 -0.5804
47.2000 15.7173 -0.5763
47.2200 15.7240 -0.5820
47.2400 15.7306 -0.5810
47.2600 15.7374 -0.5756
47.2800 15.7440 -0.5811
47.3000 15.7507 -0.5876
47.3200 15.7574 -0.5692
47.3400 15.7641 -0.5835
47.3600 15.7707 -0.5837
47.3800 15.7774 -0.5732
47.4000 15.7840 -0.5792
47.4200 15.7906 -0.5860
47.4400 15.7973 -0.5746
47.4600 15.8041 -0.5830
47.4800 15.8108 -0.5806
47.5000 15.8174 -0.5746
47.5200 15.8241 -0.5887
47.5400 15.8307 -0.5804
47.5600 15.8373 -0.5705
47.5800 15.8440 -0.5869
47.6000 15.8506 -0.5788
47.6200 15.8574 -0.5709
47.6400 15.8641 -0.5901
47.6600 15.8708 -0.5772
47.6800 15.8775 -0.5710
47.7000 15.8841 -0.5857
47.7200 15.8908 -0.5805
47.7400 15.8974 -0.5751
47.7600 15.9040 -0.5846
47.7800 15.9106 -0.5750
47.8000 15.9173 -0.5772
47.8200 15.9240 -0.5832
47.8400 15.9307 -0.5764
47.8600 15.9374 -0.5766
47.8800 15.9440 -0.5861
47.9000 15.9507 -0.5775
47.9200 15.9573 -0.5787
47.9400 15.9639 -0.5804
47.9600 15.9706 -0.5866
47.9800 15.9773 -0.5755
48.0000 15.9840 -0.5814
48.0200 15.9907 -0.5853
48.0400 15.9974 -0.5767
48.0600 16.0041 -0.5866
48.0800 16.0107 -0.5846
48.1000 16.0173 -0.5797
48.1200 16.0240 -0.5845
48.1400 16.0307 -0.5887
48.1600 16.0374 -0.5746
48.1800 16.0441 -0.5836
48.2000 16.0508 -0.5888
48.2200 16.0575 -0.5743
48.2400 16.0641 -0.5843
48.2600 16.0708 -0.5930
48.2800 16.0774 -0.5721
48.3000 16.0840 -0.5834
48.3200 16.0906 -0.5882
48.3400 16.0973 -0.5757
48.3600 16.1040 -0.5828
48.3800 16.1107 -0.5936
48.4000 16.1174 -0.5750
48.4200 16.1241 -0.5880
48.4400 16.1308 -0.5917
48.4600 16.1374 -0.5741
48.4800 16.1440 -0.5891
48.5000 16.1506 -0.5950
48.5200 16.1573 -0.5691
48.5400 16.1640 -0.5909
48.5600 16.1707 -0.5908
48.5800 16.1774 -0.5712
48.6000 16.1841 -0.5963
48.6200 16.1907 -0.5917
48.6400 16.1973 -0.5714
48.6600 16.2039 -0.5897
48.6800 16.2106 -0.5910
48.7000 16.2173 -0.5721
48.7200 16.2240 -0.5941
48.7400 16.2307 -0.5879
48.7600 16.2374 -0.5772
48.7800 16.2441 -0.5858
48.8000 16.2507 -0.5888
48.8200 16.2574 -0.5836
48.8400 16.2640 -0.5878
48.8600 16.2706 -0.5850
48.8800 16.2773 -0.5864
48.9000 16.2840 -0.5842
48.9200 16.2907 -0.5852
48.9400 16.2974 -0.5847
48.9600 16.3041 -0.5869
48.9800 16.3108 -0.5880
49.0000 16.3174 -0.5868
49.0200 16.3240 -0.5820
49.0400 16.3306 -0.5915
49.0600 16.3373 -0.5846
49.0800 16.3441 -0.5791
49.1000 16.3508 -0.5928
49.1200 16.3574 -0.5899
49.1400 16.3641 -0.5814
49.1600 16.3707 -0.5911
49.1800 16.3773 -0.5853
49.2000 16.3840 -0.5817
49.2200 16.3906 -0.5958
49.2400 16.3973 -0.5894
49.2600 16.4040 -0.5837
49.2800 16.4107 -0.5926
49.3000 16.4173 -0.5868
49.3200 16.4240 -0.5759
49.3400 16.4307 -0.5973
49.3600 16.4373 -0.5947
49.3800 16.4439 -0.5794
49.4000 16.4506 -0.5849
49.4200 16.4573 -0.5973
49.4400 16.4640 -0.5857
49.4600 16.4707 -0.5875
49.4800 16.4774 -0.5911
49.5000 16.4841 -0.5856
49.5200 16.4908 -0.5927
49.5400 16.4974 -0.5894
49.5600 16.5040 -0.5817
49.5800 16.5106 -0.5935
49.6000 16.5173 -0.5923
49.6200 16.5241 -0.5841
49.6400 16.5308 -0.5916
49.6600 16.5374 -0.5977
49.6800 16.5441 -0.5890
49.7000 16.5507 -0.5888
49.7200 16.5574 -0.5920
49.7400 16.5640 -0.5886
49.7600 16.5706 -0.5894
49.7800 16.5773 -0.5927
49.8000 16.5840 -0.5867
49.8200 16.5907 -0.5906
49.8400 16.5974 -0.5914
49.8600 16.6041 -0.5839
49.8800 16.6108 -0.5938
49.9000 16.6174 -0.5946
49.9200 16.6240 -0.5875
49.9400 16.6307 -0.5820
49.9600 16.6373 -0.5966
49.9800 16.6440 -0.5922
50.0000 16.6507 -0.5909
50.0200 16.6574 -0.5902
50.0400 16.6641 -0.5892
50.0600 16.6708 -0.5932
50.0800 16.6774 -0.5940
50.1000 16.6840 -0.5869
50.1200 16.6906 -0.5901
50.1400 16.6973 -0.5927
50.1600 16.7040 -0.5913
50.1800 16.7107 -0.5867
50.2000 16.7174 -0.5970
50.2200 16.7241 -0.5912
50.2400 16.7307 -0.5871
50.2600 16.7374 -0.5952
50.2800 16.7440 -0.5893
50.3000 16.7506 -0.5879
50.3200 16.7573 -0.5973
50.3400 16.7640 -0.5876
50.3600 16.7707 -0.5838
50.3800 16.7774 -0.5974
50.4000 16.7841 -0.5830
50.4200 16.7908 -0.5894
50.4400 16.7974 -0.6008
50.4600 16.8040 -0.5844
50.4800 16.8106 -0.5854
50.5000 16.8173 -0.6018
50.5200 16.8240 -0.5842
50.5400 16.8307 -0.5928
50.5600 16.8374 -0.5956
50.5800 16.8441 -0.5818
50.6000 16.8508 -0.5907
50.6200 16.8574 -0.6016
50.6400 16.8640 -0.5844
50.6600 16.8706 -0.5938
50.6800 16.8773 -0.5947
50.7000 16.8840 -0.5796
50.7200 16.8908 -0.5990
50.7400 16.8974 -0.5993
50.7600 16.9041 -0.5818
50.7800 16.9108 -0.6011
50.8000 16.9174 -0.5929
50.8200 16.9240 -0.5839
50.8400 16.9306 -0.6001
50.8600 16.9373 -0.5983
50.8800 16.9440 -0.5874
50.9000 16.9507 -0.5967
50.9200 16.9573 -0.5972
50.9400 16.9640 -0.5841
50.9600 16.9707 -0.6033
50.9800 16.9774 -0.5965
51.0000 16.9840 -0.5872
51.0200 16.9906 -0.5950
51.0400 16.9973 -0.6054
51.0600 17.0040 -0.5919
51.0800 17.0107 -0.5911
51.1000 17.0174 -0.6009
51.1200 17.0241 -0.5972
51.1400 17.0308 -0.5922
51.1600 17.0374 -0.6055
51.1800 17.0440 -0.5923
51.2000 17.0506 -0.5939
51.2200 17.0573 -0.6013
51.2400 17.0640 -0.5967
51.2600 17.0707 -0.5943
51.2800 17.0774 -0.6020
51.3000 17.0841 -0.5970
51.3200 17.0908 -0.5896
51.3400 17.0974 -0.6045
51.3600 17.1040 -0.5952
51.3800 17.1106 -0.5893
51.4000 17.1173 -0.6025
51.4200 17.1240 -0.5946
51.4400 17.1307 -0.5951
51.4600 17.1374 -0.6053
51.4800 17.1441 -0.5965
51.5000 17.1508 -0.5973
51.5200 17.1574 -0.6043
51.5400 17.1640 -0.5977
51.5600 17.1706 -0.5918
51.5800 17.1773 -0.6066
51.6000 17.1840 -0.5954
51.6200 17.1907 -0.5914
51.6400 17.1974 -0.6071
51.6600 17.2041 -0.6050
51.6800 17.2108 -0.5893
51.7000 17.2174 -0.6011
51.7200 17.2240 -0.6002
51.7400 17.2306 -0.5925
51.7600 17.2373 -0.5997
51.7800 17.2440 -0.6048
51.8000 17.2507 -0.5936
51.8200 17.2574 -0.5981
51.8400 17.2641 -0.5997
51.8600 17.2708 -0.5977
51.8800 17.2774 -0.6039
51.9000 17.2840 -0.6006
51.9200 17.2907 -0.5945
51.9400 17.2973 -0.5995
51.9600 17.3040 -0.6020
51.9800 17.3107 -0.5971
52.0000 17.3174 -0.6029
52.0200 17.3241 -0.5968
52.0400 17.3308 -0.6010
52.0600 17.3374 -0.6021
52.0800 17.3440 -0.5985
52.1000 17.3505 -0.6016
52.1200 17.3572 -0.6037
52.1400 17.3639 -0.5945
52.1600 17.3707 -0.6027
52.1800 17.3774 -0.6029
52.2000 17.3841 -0.5955
52.2200 17.3908 -0.6044
52.2400 17.3974 -0.6041
52.2600 17.4040 -0.5957
52.2800 17.4106 -0.6038
52.3000 17.4173 -0.5958
52.3200 17.4240 -0.6005
52.3400 17.4307 -0.6071
52.3600 17.4373 -0.5986
52.3800 17.4440 -0.5964
52.4000 17.4507 -0.6037
52.4200 17.4574 -0.6023
52.4400 17.4640 -0.6000
52.4600 17.4706 -0.6018
52.4800 17.4773 -0.5996
52.5000 17.4840 -0.6034
52.5200 17.4907 -0.6015
52.5400 17.4974 -0.6016
52.5600 17.5041 -0.6035
52.5800 17.5108 -0.5993
52.6000 17.5175 -0.5988
52.6200 17.5240 -0.6073
52.6400 17.5306 -0.6004
52.6600 17.5373 -0.6011
52.6800 17.5440 -0.6053
52.7000 17.5507 -0.6049
52.7200 17.5574 -0.6015
52.7400 17.5641 -0.6015
52.7600 17.5708 -0.5978
52.7800 17.5774 -0.6001
52.8000 17.5840 -0.6036
52.8200 17.5906 -0.5985
52.8400 17.5973 -0.5979
52.8600 17.6040 -0.6068
52.8800 17.6107 -0.6041
52.9000 17.6174 -0.5991
52.9200 17.6241 -0.6014
52.9400 17.6307 -0.6022
52.9600 17.6374 -0.5963
52.9800 17.6440 -0.6049
53.0000 17.6506 -0.6003
53.0200 17.6573 -0.5919
53.0400 17.6640 -0.6087
53.0600 17.6707 -0.6043
53.0800 17.6774 -0.5940
53.1000 17.6840 -0.6120
53.1200 17.6907 -0.6042
53.1400 17.6974 -0.5868
53.1600 17.7040 -0.6125
53.1800 17.7106 -0.5966
53.2000 17.7173 -0.5892
53.2200 17.7240 -0.6148
53.2400 17.7307 -0.5954
53.2600 17.7374 -0.5880
53.2800 17.7441 -0.6248
53.3000 17.7508 -0.5985
53.3200 17.7574 -0.5945
53.3400 17.7640 -0.6171
53.3600 17.7706 -0.5996
53.3800 17.7773 -0.5869
53.4000 17.7840 -0.6181
53.4200 17.7908 -0.5975
53.4400 17.7975 -0.5911
53.4600 17.8041 -0.6142
53.4800 17.8108 -0.5957
53.5000 17.8174 -0.5979
53.5200 17.8240 -0.6159
53.5400 17.8306 -0.5998
53.5600 17.8373 -0.6001
53.5800 17.8440 -0.6118
53.6000 17.8507 -0.5977
53.6200 17.8574 -0.5965
53.6400 17.8640 -0.6112
53.6600 17.8707 -0.6012
53.6800 17.8774 -0.5969
53.7000 17.8840 -0.6110
53.7200 17.8906 -0.6019
53.7400 17.8972 -0.5971
53.7600 17.9039 -0.6099
53.7800 17.9107 -0.6102
53.8000 17.9174 -0.5899
53.8200 17.9241 -0.6074
53.8400 17.9307 -0.6102
53.8600 17.9374 -0.5974
53.8800 17.9440 -0.6066
53.9000 17.9507 -0.6065
53.9200 17.9573 -0.5937
53.9400 17.9640 -0.6131
53.9600 17.9707 -0.6069
53.9800 17.9774 -0.5972
54.0000 17.9841 -0.6097
54.0200 17.9908 -0.6041
54.0400 17.9974 -0.5964
54.0600 18.0041 -0.6074
54.0800 18.0107 -0.6092
54.1000 18.0173 -0.6018
54.1200 18.0240 -0.6049
54.1400 18.0307 -0.6057
54.1600 18.0374 -0.6025
54.1800 18.0441 -0.6055
54.2000 18.0508 -0.6090
54.2200 18.0574 -0.5974
54.2400 18.0640 -0.6015
54.2600 18.0706 -0.6114
54.2800 18.0773 -0.6015
54.3000 18.0840 -0.6032
54.3200 18.0907 -0.6129
54.3400 18.0974 -0.6030
54.3600 18.1041 -0.6035
54.3800 18.1107 -0.6102
54.4000 18.1174 -0.6023
54.4200 18.1240 -0.6013
54.4400 18.1306 -0.6115
54.4600 18.1373 -0.5954
54.4800 18.1440 -0.6096
54.5000 18.1507 -0.6127
54.5200 18.1573 -0.6001
54.5400 18.1640 -0.6052
54.5600 18.1707 -0.6123
54.5800 18.1774 -0.6055
54.6000 18.1840 -0.6050
54.6200 18.1906 -0.6113
54.6400 18.1973 -0.6031
54.6600 18.2040 -0.6050
54.6800 18.2107 -0.6140
54.7000 18.2174 -0.6079
54.7200 18.2241 -0.6054
54.7400 18.2308 -0.6171
54.7600 18.2375 -0.6048
54.7800 18.2441 -0.6098
54.8000 18.2507 -0.6146
54.8200 18.2573 -0.6002
54.8400 18.2640 -0.6072
54.8600 18.2707 -0.6196
54.8800 18.2774 -0.5978
54.9000 18.2841 -0.6106
54.9200 18.2908 -0.6217
54.9400 18.2974 -0.6011
54.9600 18.3040 -0.6100
54.9800 18.3106 -0.6238
55.0000 18.3173 -0.5981
55.0200 18.3240 -0.6146
55.0400 18.3307 -0.6181
55.0600 18.3374 -0.5975
55.0800 18.3441 -0.6121
55.1000 18.3507 -0.6194
55.1200 18.3574 -0.6005
55.1400 18.3640 -0.6203
55.1600 18.3706 -0.6179
55.1800 18.3772 -0.5992
55.2000 18.3839 -0.6135
55.2200 18.3906 -0.6183
55.2400 18.3973 -0.6044
55.2600 18.4040 -0.6087
55.2800 18.4107 -0.6195
55.3000 18.4174 -0.6022
55.3200 18.4240 -0.6110
55.3400 18.4306 -0.6187
55.3600 18.4373 -0.6019
55.3800 18.4440 -0.6102
55.4000 18.4507 -0.6201
55.4200 18.4574 -0.6024
55.4400 18.4641 -0.6118
55.4600 18.4708 -0.6159
55.4800 18.4775 -0.6058
55.5000 18.4841 -0.6122
55.5200 18.4907 -0.6137
55.5400 18.4974 -0.6014
55.5600 18.5040 -0.6148
55.5800 18.5107 -0.6149
55.6000 18.5174 -0.6071
55.6200 18.5241 -0.6108
55.6400 18.5308 -0.6147
55.6600 18.5375 -0.6052
55.6800 18.5441 -0.6121
55.7000 18.5507 -0.6164
55.7200 18.5573 -0.6051
55.7400 18.5639 -0.6079
55.7600 18.5707 -0.6126
55.7800 18.5774 -0.6094
55.8000 18.5841 -0.6114
55.8200 18.5908 -0.6170
55.8400 18.5974 -0.6099
55.8600 18.6041 -0.6117
55.8800 18.6106 -0.6098
55.9000 18.6172 -0.6100
55.9200 18.6239 -0.6126
55.9400 18.6307 -0.6102
55.9600 18.6374 -0.6131
55.9800 18.6440 -0.6185
56.0000 18.6507 -0.6084
56.0200 18.6574 -0.6134
56.0400 18.6641 -0.6153
56.0600 18.6707 -0.6101
56.0800 18.6773 -0.6122
56.1000 18.6840 -0.6151
56.1200 18.6907 -0.6072
56.1400 18.6974 -0.6175
56.1600 18.7041 -0.6130
56.1800 18.7108 -0.6047
56.2000 18.7175 -0.6202
56.2200 18.7241 -0.6176
56.2400 18.7307 -0.6040
56.2600 18.7373 -0.6125
56.2800 18.7440 -0.6149
56.3000 18.7507 -0.6104
56.3200 18.7574 -0.6178
56.3400 18.7641 -0.6108
56.3600 18.7708 -0.6119
56.3800 18.7774 -0.6196
56.4000 18.7841 -0.6090
56.4200 18.7907 -0.6093
56.4400 18.7973 -0.6176
56.4600 18.8040 -0.6102
56.4800 18.8107 -0.6121
56.5000 18.8174 -0.6120
56.5200 18.8240 -0.6121
56.5400 18.8307 -0.6153
56.5600 18.8374 -0.6165
56.5800 18.8440 -0.6071
56.6000 18.8507 -0.6236
56.6200 18.8573 -0.6133
56.6400 18.8639 -0.6081
56.6600 18.8706 -0.6133
56.6800 18.8773 -0.6183
56.7000 18.8840 -0.6107
56.7200 18.8907 -0.6147
56.7400 18.8974 -0.6144
56.7600 18.9041 -0.6122
56.7800 18.9107 -0.6208
56.8000 18.9173 -0.6133
56.8200 18.9240 -0.6075
56.8400 18.9307 -0.6203
56.8600 18.9374 -0.6148
56.8800 18.9441 -0.6085
56.9000 18.9508 -0.6193
56.9200 18.9575 -0.6191
56.9400 18.9641 -0.6091
56.9600 18.9707 -0.6165
56.9800 18.9773 -0.6216
57.0000 18.9840 -0.6097
57.0200 18.9907 -0.6189
57.0400 18.9974 -0.6182
57.0600 19.0041 -0.6114
57.0800 19.0107 -0.6137
57.1000 19.0174 -0.6221
57.1200 19.0241 -0.6112
57.1400 19.0307 -0.6130
57.1600 19.0373 -0.6196
57.1800 19.0439 -0.6145
57.2000 19.0506 -0.6080
57.2200 19.0574 -0.6205
57.2400 19.0640 -0.6112
57.2600 19.0707 -0.6121
57.2800 19.0774 -0.6196
57.3000 19.0841 -0.6134
57.3200 19.0907 -0.6103
57.3400 19.0973 -0.6208
57.3600 19.1039 -0.6124
57.3800 19.1106 -0.6081
57.4000 19.1174 -0.6269
57.4200 19.1241 -0.6111
57.4400 19.1307 -0.6095
57.4600 19.1374 -0.6219
57.4800 19.1440 -0.6128
57.5000 19.1507 -0.6093
57.5200 19.1573 -0.6271
57.5400 19.1640 -0.6112
57.5600 19.1707 -0.6069
57.5800 19.1774 -0.6272
57.6000 19.1841 -0.6131
57.6200 19.1907 -0.6047
57.6400 19.1974 -0.6299
57.6600 19.2041 -0.6112
57.6800 19.2107 -0.6071
57.7000 19.2174 -0.6251
57.7200 19.2240 -0.6156
57.7400 19.2307 -0.6081
57.7600 19.2374 -0.6204
57.7800 19.2441 -0.6157
57.8000 19.2508 -0.6074
57.8200 19.2575 -0.6198
57.8400 19.2641 -0.6221
57.8600 19.2707 -0.6085
57.8800 19.2773 -0.6163
57.9000 19.2839 -0.6200
57.9200 19.2906 -0.6093
57.9400 19.2973 -0.6175
57.9600 19.3040 -0.6198
57.9800 19.3107 -0.6064
58.0000 19.3174 -0.6166
58.0200 19.3241 -0.6319
58.0400 19.3307 -0.6037
58.0600 19.3373 -0.6137
58.0800 19.3439 -0.6279
58.1000 19.3506 -0.6060
58.1200 19.3573 -0.6165
58.1400 19.3640 -0.6288
58.1600 19.3707 -0.6005
58.1800 19.3774 -0.6193
58.2000 19.3840 -0.6255
58.2200 19.3907 -0.6045
58.2400 19.3973 -0.6203
58.2600 19.4040 -0.6225
58.2800 19.4107 -0.5982
58.3000 19.4174 -0.6231
58.3200 19.4241 -0.6275
58.3400 19.4307 -0.6013
58.3600 19.4375 -0.6216
58.3800 19.4441 -0.6266
58.4000 19.4507 -0.6005
58.4200 19.4573 -0.6237
58.4400 19.4639 -0.6218
58.4600 19.4706 -0.6009
58.4800 19.4774 -0.6197
58.5000 19.4841 -0.6235
58.5200 19.4908 -0.6102
58.5400 19.4974 -0.6182
58.5600 19.5041 -0.6215
58.5800 19.5107 -0.6096
58.6000 19.5173 -0.6190
58.6200 19.5240 -0.6155
58.6400 19.5307 -0.6151
58.6600 19.5374 -0.6191
58.6800 19.5441 -0.6166
58.7000 19.5507 -0.6126
58.7200 19.5574 -0.6205
58.7400 19.5641 -0.6169
58.7600 19.5707 -0.6200
58.7800 19.5773 -0.6147
58.8000 19.5839 -0.6159
58.8200 19.5906 -0.6144
58.8400 19.5973 -0.6187
58.8600 19.6040 -0.6195
58.8800 19.6107 -0.6144
58.9000 19.6174 -0.6240
58.9200 19.6240 -0.6185
58.9400 19.6307 -0.6109
58.9600 19.6373 -0.6241
58.9800 19.6439 -0.6210
59.0000 19.6506 -0.6127
59.0200 19.6574 -0.6221
59.0400 19.6641 -0.6264
59.0600 19.6708 -0.6233
59.0800 19.6774 -0.6173
59.1000 19.6841 -0.6251
59.1200 19.6907 -0.6217
59.1400 19.6974 -0.6244
59.1600 19.7040 -0.6251
59.1800 19.7107 -0.6223
59.2000 19.7174 -0.6216
59.2200 19.7241 -0.6306
59.2400 19.7307 -0.6199
59.2600 19.7374 -0.6200
59.2800 19.7441 -0.6307
59.2980 19.7500 -0.6358
