Raw Data
Time Displacement Force
(s) (mm) (N)
0.0000 0.0000 -0.2763
0.0200 -0.0001 -0.2768
0.0400 -0.0019 -0.2924
0.0600 -0.0091 -0.2926
0.0800 -0.0207 -0.2787
0.1000 -0.0331 -0.2817
0.1200 -0.0458 -0.2799
0.1400 -0.0592 -0.2845
0.1600 -0.0733 -0.2812
0.1800 -0.0876 -0.2796
0.2000 -0.1015 -0.2795
0.2200 -0.1151 -0.2809
0.2400 -0.1285 -0.2830
0.2600 -0.1418 -0.2823
0.2800 -0.1551 -0.2803
0.3000 -0.1684 -0.2798
0.3200 -0.1817 -0.2813
0.3400 -0.1951 -0.2803
0.3600 -0.2084 -0.2806
0.3800 -0.2217 -0.2798
0.4000 -0.2350 -0.2793
0.4200 -0.2484 -0.2784
0.4400 -0.2618 -0.2775
0.4600 -0.2751 -0.2784
0.4800 -0.2884 -0.2797
0.5000 -0.3018 -0.2765
0.5200 -0.3151 -0.2736
0.5400 -0.3285 -0.2741
0.5600 -0.3418 -0.2742
0.5800 -0.3551 -0.2760
0.6000 -0.3685 -0.2739
0.6200 -0.3818 -0.2729
0.6400 -0.3952 -0.2728
0.6600 -0.4085 -0.2717
0.6800 -0.4218 -0.2718
0.7000 -0.4351 -0.2724
0.7200 -0.4484 -0.2706
0.7400 -0.4617 -0.2698
0.7600 -0.4751 -0.2693
0.7800 -0.4884 -0.2704
0.8000 -0.5018 -0.2718
0.8200 -0.5151 -0.2716
0.8400 -0.5285 -0.2700
0.8600 -0.5418 -0.2677
0.8800 -0.5552 -0.2679
0.9000 -0.5685 -0.2676
0.9200 -0.5818 -0.2696
0.9400 -0.5951 -0.2673
0.9600 -0.6085 -0.2680
0.9800 -0.6218 -0.2680
1.0000 -0.6351 -0.2693
1.0200 -0.6484 -0.2668
1.0400 -0.6617 -0.2651
1.0600 -0.6751 -0.2650
1.0800 -0.6884 -0.2667
1.1000 -0.7017 -0.2644
1.1200 -0.7150 -0.2670
1.1400 -0.7284 -0.2647
1.1600 -0.7418 -0.2652
1.1800 -0.7551 -0.2659
1.2000 -0.7684 -0.2648
1.2200 -0.7818 -0.2632
1.2400 -0.7952 -0.2644
1.2600 -0.8085 -0.2633
1.2800 -0.8218 -0.2633
1.3000 -0.8351 -0.2626
1.3200 -0.8485 -0.2631
1.3400 -0.8619 -0.2607
1.3600 -0.8752 -0.2637
1.3800 -0.8885 -0.2619
1.4000 -0.9018 -0.2617
1.4200 -0.9151 -0.2597
1.4400 -0.9284 -0.2589
1.4600 -0.9417 -0.2576
1.4800 -0.9550 -0.2600
1.5000 -0.9684 -0.2595
1.5200 -0.9817 -0.2584
1.5400 -0.9950 -0.2570
1.5600 -1.0084 -0.2550
1.5800 -1.0217 -0.2557
1.6000 -1.0351 -0.2570
1.6200 -1.0485 -0.2554
1.6400 -1.0618 -0.2550
1.6600 -1.0751 -0.2557
1.6800 -1.0885 -0.2540
1.7000 -1.1018 -0.2525
1.7200 -1.1151 -0.2538
1.7400 -1.1284 -0.2515
1.7600 -1.1418 -0.2501
1.7800 -1.1551 -0.2495
1.8000 -1.1684 -0.2493
1.8200 -1.1817 -0.2498
1.8400 -1.1950 -0.2490
1.8600 -1.2084 -0.2475
1.8800 -1.2218 -0.2467
1.9000 -1.2351 -0.2475
1.9200 -1.2484 -0.2469
1.9400 -1.2618 -0.2475
1.9600 -1.2752 -0.2464
1.9800 -1.2885 -0.2447
2.0000 -1.3018 -0.2443
2.0200 -1.3151 -0.2455
2.0400 -1.3284 -0.2425
2.0600 -1.3418 -0.2432
2.0800 -1.3551 -0.2427
2.1000 -1.3684 -0.2431
2.1200 -1.3818 -0.2430
2.1400 -1.3951 -0.2438
2.1600 -1.4085 -0.2443
2.1800 -1.4218 -0.2446
2.2000 -1.4351 -0.2444
2.2200 -1.4484 -0.2458
2.2400 -1.4618 -0.2438
2.2600 -1.4751 -0.2455
2.2800 -1.4884 -0.2428
2.3000 -1.5018 -0.2447
2.3200 -1.5152 -0.2441
2.3400 -1.5286 -0.2462
2.3600 -1.5419 -0.2444
2.3800 -1.5552 -0.2435
2.4000 -1.5685 -0.2428
2.4200 -1.5819 -0.2429
2.4400 -1.5952 -0.2415
2.4600 -1.6084 -0.2421
2.4800 -1.6217 -0.2396
2.5000 -1.6350 -0.2426
2.5200 -1.6483 -0.2419
2.5400 -1.6616 -0.2410
2.5600 -1.6750 -0.2410
2.5800 -1.6884 -0.2422
2.6000 -1.7017 -0.2411
2.6200 -1.7151 -0.2406
2.6400 -1.7284 -0.2394
2.6600 -1.7418 -0.2389
2.6800 -1.7552 -0.2393
2.7000 -1.7685 -0.2394
2.7200 -1.7818 -0.2386
2.7400 -1.7951 -0.2412
2.7600 -1.8085 -0.2397
2.7800 -1.8218 -0.2392
2.8000 -1.8351 -0.2372
2.8200 -1.8484 -0.2378
2.8400 -1.8618 -0.2369
2.8600 -1.8751 -0.2384
2.8800 -1.8885 -0.2369
2.9000 -1.9017 -0.2370
2.9200 -1.9150 -0.2370
2.9400 -1.9284 -0.2371
2.9600 -1.9418 -0.2361
2.9800 -1.9551 -0.2356
3.0000 -1.9684 -0.2367
3.0200 -1.9817 -0.2330
3.0400 -1.9951 -0.2355
3.0600 -2.0085 -0.2345
3.0800 -2.0218 -0.2343
3.1000 -2.0351 -0.2336
3.1200 -2.0484 -0.2356
3.1400 -2.0618 -0.2336
3.1600 -2.0752 -0.2322
3.1800 -2.0885 -0.2311
3.2000 -2.1018 -0.2325
3.2200 -2.1151 -0.2305
3.2400 -2.1285 -0.2330
3.2600 -2.1418 -0.2311
3.2800 -2.1551 -0.2329
3.3000 -2.1684 -0.2294
3.3200 -2.1818 -0.2315
3.3400 -2.1951 -0.2298
3.3600 -2.2084 -0.2320
3.3800 -2.2218 -0.2300
3.4000 -2.2351 -0.2283
3.4200 -2.2485 -0.2275
3.4400 -2.2618 -0.2282
3.4600 -2.2751 -0.2279
3.4800 -2.2884 -0.2284
3.5000 -2.3018 -0.2269
3.5200 -2.3151 -0.2277
3.5400 -2.3284 -0.2275
3.5600 -2.3417 -0.2240
3.5800 -2.3551 -0.2253
3.6000 -2.3684 -0.2238
3.6200 -2.3817 -0.2212
3.6400 -2.3951 -0.2222
3.6600 -2.4084 -0.2222
3.6800 -2.4218 -0.2226
3.7000 -2.4351 -0.2215
3.7200 -2.4484 -0.2211
3.7400 -2.4618 -0.2197
3.7600 -2.4751 -0.2190
3.7800 -2.4885 -0.2205
3.8000 -2.5018 -0.2178
3.8200 -2.5151 -0.2197
3.8400 -2.5285 -0.2192
3.8600 -2.5418 -0.2155
3.8800 -2.5551 -0.2158
3.9000 -2.5684 -0.2163
3.9200 -2.5818 -0.2153
3.9400 -2.5951 -0.2160
3.9600 -2.6084 -0.2161
3.9800 -2.6217 -0.2138
4.0000 -2.6350 -0.2122
4.0200 -2.6484 -0.2132
4.0400 -2.6618 -0.2121
4.0600 -2.6751 -0.2127
4.0800 -2.6884 -0.2153
4.1000 -2.7018 -0.2122
4.1200 -2.7151 -0.2130
4.1400 -2.7285 -0.2131
4.1600 -2.7418 -0.2112
4.1800 -2.7551 -0.2120
4.2000 -2.7684 -0.2116
4.2200 -2.7818 -0.2120
4.2400 -2.7951 -0.2101
4.2600 -2.8085 -0.2120
4.2800 -2.8218 -0.2100
4.3000 -2.8351 -0.2120
4.3200 -2.8485 -0.2129
4.3400 -2.8618 -0.2111
4.3600 -2.8751 -0.2085
4.3800 -2.8884 -0.2138
4.4000 -2.9017 -0.2115
4.4200 -2.9151 -0.2128
4.4400 -2.9284 -0.2126
4.4600 -2.9417 -0.2116
4.4800 -2.9551 -0.2116
4.5000 -2.9685 -0.2111
4.5200 -2.9818 -0.2100
4.5400 -2.9951 -0.2088
4.5600 -3.0085 -0.2101
4.5800 -3.0218 -0.2074
4.6000 -3.0352 -0.2072
4.6200 -3.0485 -0.2091
4.6400 -3.0618 -0.2082
4.6600 -3.0751 -0.2078
4.6800 -3.0885 -0.2094
4.7000 -3.1018 -0.2079
4.7200 -3.1151 -0.2056
4.7400 -3.1284 -0.2083
4.7600 -3.1418 -0.2079
4.7800 -3.1552 -0.2052
4.8000 -3.1685 -0.2070
4.8200 -3.1818 -0.2073
4.8400 -3.1951 -0.2058
4.8600 -3.2085 -0.2064
4.8800 -3.2218 -0.2023
4.9000 -3.2351 -0.2037
4.9200 -3.2484 -0.2044
4.9400 -3.2617 -0.2041
4.9600 -3.2751 -0.2002
4.9800 -3.2884 -0.2041
5.0000 -3.3018 -0.2005
5.0200 -3.3151 -0.2028
5.0400 -3.3285 -0.2016
5.0600 -3.3418 -0.2017
5.0800 -3.3551 -0.1980
5.1000 -3.3684 -0.2017
5.1200 -3.3817 -0.1975
5.1400 -3.3951 -0.1987
5.1600 -3.4084 -0.1993
5.1800 -3.4218 -0.1985
5.2000 -3.4351 -0.1976
5.2200 -3.4485 -0.1987
5.2400 -3.4618 -0.1971
5.2600 -3.4751 -0.1956
5.2800 -3.4885 -0.1968
5.3000 -3.5018 -0.1951
5.3200 -3.5152 -0.1948
5.3400 -3.5285 -0.1966
5.3600 -3.5418 -0.1958
5.3800 -3.5551 -0.1949
5.4000 -3.5684 -0.1964
5.4200 -3.5817 -0.1940
5.4400 -3.5950 -0.1953
5.4600 -3.6083 -0.1961
5.4800 -3.6217 -0.1936
5.5000 -3.6351 -0.1935
5.5200 -3.6484 -0.1950
5.5400 -3.6617 -0.1943
5.5600 -3.6751 -0.1918
5.5800 -3.6885 -0.1942
5.6000 -3.7018 -0.1918
5.6200 -3.7152 -0.1920
5.6400 -3.7285 -0.1936
5.6600 -3.7419 -0.1919
5.6800 -3.7552 -0.1890
5.7000 -3.7685 -0.1926
5.7200 -3.7818 -0.1884
5.7400 -3.7951 -0.1894
5.7600 -3.8085 -0.1905
5.7800 -3.8218 -0.1911
5.8000 -3.8351 -0.1906
5.8200 -3.8484 -0.1892
5.8400 -3.8617 -0.1890
5.8600 -3.8751 -0.1866
5.8800 -3.8884 -0.1904
5.9000 -3.9017 -0.1886
5.9200 -3.9151 -0.1896
5.9400 -3.9284 -0.1878
5.9600 -3.9418 -0.1886
5.9800 -3.9551 -0.1867
6.0000 -3.9685 -0.1918
6.0200 -3.9818 -0.1869
6.0400 -3.9952 -0.1854
6.0600 -4.0085 -0.1871
6.0800 -4.0218 -0.1882
6.1000 -4.0351 -0.1844
6.1200 -4.0485 -0.1855
6.1400 -4.0618 -0.1858
6.1600 -4.0751 -0.1859
6.1800 -4.0884 -0.1865
6.2000 -4.1017 -0.1847
6.2200 -4.1151 -0.1825
6.2400 -4.1284 -0.1849
6.2600 -4.1417 -0.1842
6.2800 -4.1551 -0.1826
6.3000 -4.1684 -0.1832
6.3200 -4.1818 -0.1822
6.3400 -4.1951 -0.1825
6.3600 -4.2084 -0.1852
6.3800 -4.2218 -0.1846
6.4000 -4.2352 -0.1814
6.4200 -4.2485 -0.1831
6.4400 -4.2618 -0.1842
6.4600 -4.2751 -0.1811
6.4800 -4.2885 -0.1833
6.5000 -4.3018 -0.1807
6.5200 -4.3151 -0.1807
6.5400 -4.3284 -0.1833
6.5600 -4.3417 -0.1828
6.5800 -4.3551 -0.1816
6.6000 -4.3684 -0.1832
6.6200 -4.3817 -0.1840
6.6400 -4.3951 -0.1816
6.6600 -4.4085 -0.1824
6.6800 -4.4218 -0.1821
6.7000 -4.4352 -0.1808
6.7200 -4.4485 -0.1816
6.7400 -4.4618 -0.1820
6.7600 -4.4752 -0.1795
6.7800 -4.4885 -0.1812
6.8000 -4.5018 -0.1792
6.8200 -4.5151 -0.1793
6.8400 -4.5284 -0.1806
6.8600 -4.5417 -0.1804
6.8800 -4.5550 -0.1796
6.9000 -4.5683 -0.1804
6.9200 -4.5817 -0.1789
6.9400 -4.5951 -0.1788
6.9600 -4.6084 -0.1791
6.9800 -4.6218 -0.1781
7.0000 -4.6351 -0.1756
7.0200 -4.6485 -0.1769
7.0400 -4.6619 -0.1769
7.0600 -4.6752 -0.1758
7.0800 -4.6884 -0.1775
7.1000 -4.7018 -0.1781
7.1200 -4.7152 -0.1744
7.1400 -4.7285 -0.1775
7.1600 -4.7418 -0.1758
7.1800 -4.7551 -0.1757
7.2000 -4.7685 -0.1738
7.2200 -4.7818 -0.1745
7.2400 -4.7951 -0.1726
7.2600 -4.8084 -0.1752
7.2800 -4.8217 -0.1724
7.3000 -4.8351 -0.1710
7.3200 -4.8484 -0.1750
7.3400 -4.8617 -0.1727
7.3600 -4.8750 -0.1730
7.3800 -4.8884 -0.1726
7.4000 -4.9018 -0.1729
7.4200 -4.9151 -0.1698
7.4400 -4.9284 -0.1712
7.4600 -4.9418 -0.1708
7.4800 -4.9552 -0.1687
7.5000 -4.9685 -0.1694
7.5200 -4.9818 -0.1708
7.5400 -4.9951 -0.1669
7.5600 -5.0084 -0.1693
7.5800 -5.0218 -0.1677
7.6000 -5.0351 -0.1660
7.6200 -5.0484 -0.1677
7.6400 -5.0617 -0.1691
7.6600 -5.0751 -0.1689
7.6800 -5.0884 -0.1684
7.7000 -5.1018 -0.1678
7.7200 -5.1151 -0.1668
7.7400 -5.1285 -0.1680
7.7600 -5.1418 -0.1669
7.7800 -5.1552 -0.1634
7.8000 -5.1685 -0.1665
7.8200 -5.1818 -0.1669
7.8400 -5.1951 -0.1672
7.8600 -5.2084 -0.1674
7.8800 -5.2217 -0.1677
7.9000 -5.2351 -0.1641
7.9200 -5.2484 -0.1663
7.9400 -5.2617 -0.1657
7.9600 -5.2750 -0.1652
7.9800 -5.2884 -0.1662
8.0000 -5.3017 -0.1676
8.0200 -5.3151 -0.1646
8.0400 -5.3285 -0.1657
8.0600 -5.3418 -0.1659
8.0800 -5.3551 -0.1635
8.1000 -5.3685 -0.1654
8.1200 -5.3819 -0.1651
8.1400 -5.3952 -0.1630
8.1600 -5.4085 -0.1659
8.1800 -5.4218 -0.1651
8.2000 -5.4352 -0.1638
8.2200 -5.4485 -0.1631
8.2400 -5.4618 -0.1643
8.2600 -5.4751 -0.1606
8.2800 -5.4884 -0.1620
8.3000 -5.5018 -0.1619
8.3200 -5.5150 -0.1613
8.3400 -5.5283 -0.1635
8.3600 -5.5417 -0.1640
8.3800 -5.5551 -0.1608
8.4000 -5.5684 -0.1605
8.4200 -5.5817 -0.1620
8.4400 -5.5951 -0.1619
8.4600 -5.6085 -0.1618
8.4800 -5.6218 -0.1598
8.5000 -5.6352 -0.1594
8.5200 -5.6485 -0.1617
8.5400 -5.6618 -0.1622
8.5600 -5.6752 -0.1603
8.5800 -5.6885 -0.1588
8.6000 -5.7018 -0.1602
8.6200 -5.7151 -0.1575
8.6400 -5.7284 -0.1591
8.6600 -5.7418 -0.1587
8.6800 -5.7550 -0.1578
8.7000 -5.7683 -0.1576
8.7200 -5.7817 -0.1567
8.7400 -5.7950 -0.1548
8.7600 -5.8084 -0.1575
8.7800 -5.8217 -0.1589
8.8000 -5.8351 -0.1563
8.8200 -5.8485 -0.1567
8.8400 -5.8619 -0.1573
8.8600 -5.8752 -0.1533
8.8800 -5.8885 -0.1549
8.9000 -5.9018 -0.1560
8.9200 -5.9152 -0.1519
8.9400 -5.9285 -0.1549
8.9600 -5.9418 -0.1537
8.9800 -5.9551 -0.1532
9.0000 -5.9685 -0.1532
9.0200 -5.9818 -0.1546
9.0400 -5.9951 -0.1499
9.0600 -6.0084 -0.1527
9.0800 -6.0217 -0.1522
9.1000 -6.0351 -0.1512
9.1200 -6.0485 -0.1516
9.1400 -6.0618 -0.1539
9.1600 -6.0751 -0.1514
9.1800 -6.0885 -0.1509
9.2000 -6.1018 -0.1503
9.2200 -6.1151 -0.1486
9.2400 -6.1284 -0.1492
9.2600 -6.1417 -0.1486
9.2800 -6.1551 -0.1473
9.3000 -6.1685 -0.1468
9.3200 -6.1818 -0.1491
9.3400 -6.1951 -0.1472
9.3600 -6.2085 -0.1481
9.3800 -6.2218 -0.1468
9.4000 -6.2351 -0.1466
9.4200 -6.2484 -0.1458
9.4400 -6.2617 -0.1470
9.4600 -6.2751 -0.1446
9.4800 -6.2884 -0.1443
9.5000 -6.3017 -0.1454
9.5200 -6.3151 -0.1449
9.5400 -6.3285 -0.1466
9.5600 -6.3419 -0.1467
9.5800 -6.3552 -0.1445
9.6000 -6.3685 -0.1446
9.6200 -6.3818 -0.1445
9.6400 -6.3952 -0.1399
9.6600 -6.4085 -0.1411
9.6800 -6.4218 -0.1442
9.7000 -6.4351 -0.1423
9.7200 -6.4484 -0.1436
9.7400 -6.4617 -0.1438
9.7600 -6.4750 -0.1437
9.7800 -6.4883 -0.1442
9.8000 -6.5017 -0.1448
9.8200 -6.5151 -0.1426
9.8400 -6.5284 -0.1426
9.8600 -6.5418 -0.1443
9.8800 -6.5551 -0.1414
9.9000 -6.5685 -0.1425
9.9200 -6.5818 -0.1445
9.9400 -6.5952 -0.1422
9.9600 -6.6085 -0.1392
9.9800 -6.6218 -0.1429
10.0000 -6.6351 -0.1400
10.0200 -6.6485 -0.1422
10.0400 -6.6618 -0.1412
10.0600 -6.6751 -0.1407
10.0800 -6.6884 -0.1390
10.1000 -6.7018 -0.1401
10.1200 -6.7151 -0.1364
10.1400 -6.7284 -0.1406
10.1600 -6.7417 -0.1386
10.1800 -6.7551 -0.1388
10.2000 -6.7684 -0.1367
10.2200 -6.7818 -0.1400
10.2400 -6.7951 -0.1378
10.2600 -6.8084 -0.1394
10.2800 -6.8218 -0.1392
10.3000 -6.8351 -0.1358
10.3200 -6.8485 -0.1365
10.3400 -6.8618 -0.1359
10.3600 -6.8751 -0.1333
10.3800 -6.8885 -0.1339
10.4000 -6.9018 -0.1352
10.4200 -6.9151 -0.1352
10.4400 -6.9285 -0.1346
10.4600 -6.9418 -0.1351
10.4800 -6.9552 -0.1339
10.5000 -6.9684 -0.1350
10.5200 -6.9817 -0.1345
10.5400 -6.9951 -0.1349
10.5600 -7.0084 -0.1327
10.5800 -7.0218 -0.1332
10.6000 -7.0351 -0.1335
10.6200 -7.0484 -0.1328
10.6400 -7.0618 -0.1338
10.6600 -7.0752 -0.1330
10.6800 -7.0885 -0.1338
10.7000 -7.1018 -0.1339
10.7200 -7.1151 -0.1334
10.7400 -7.1285 -0.1311
10.7600 -7.1418 -0.1352
10.7800 -7.1551 -0.1343
10.8000 -7.1684 -0.1340
10.8200 -7.1818 -0.1356
10.8400 -7.1951 -0.1333
10.8600 -7.2084 -0.1332
10.8800 -7.2217 -0.1356
10.9000 -7.2351 -0.1329
10.9200 -7.2485 -0.1327
10.9400 -7.2618 -0.1344
10.9600 -7.2751 -0.1334
10.9800 -7.2884 -0.1299
11.0000 -7.3018 -0.1317
11.0200 -7.3152 -0.1296
11.0400 -7.3285 -0.1314
11.0600 -7.3418 -0.1311
11.0800 -7.3551 -0.1313
11.1000 -7.3685 -0.1292
11.1200 -7.3818 -0.1334
11.1400 -7.3951 -0.1297
11.1600 -7.4084 -0.1298
11.1800 -7.4217 -0.1305
11.2000 -7.4351 -0.1292
11.2200 -7.4484 -0.1275
11.2400 -7.4617 -0.1305
11.2600 -7.4751 -0.1281
11.2800 -7.4885 -0.1278
11.3000 -7.5018 -0.1305
11.3200 -7.5151 -0.1284
11.3400 -7.5284 -0.1289
11.3600 -7.5418 -0.1304
11.3800 -7.5552 -0.1295
11.4000 -7.5685 -0.1299
11.4200 -7.5818 -0.1307
11.4400 -7.5951 -0.1285
11.4600 -7.6085 -0.1276
11.4800 -7.6218 -0.1294
11.5000 -7.6351 -0.1275
11.5200 -7.6485 -0.1271
11.5400 -7.6618 -0.1282
11.5600 -7.6752 -0.1260
11.5800 -7.6884 -0.1256
11.6000 -7.7017 -0.1278
11.6200 -7.7150 -0.1254
11.6400 -7.7284 -0.1254
11.6600 -7.7417 -0.1277
11.6800 -7.7550 -0.1268
11.7000 -7.7684 -0.1246
11.7200 -7.7818 -0.1245
11.7400 -7.7952 -0.1224
11.7600 -7.8085 -0.1218
11.7800 -7.8218 -0.1248
11.8000 -7.8352 -0.1243
11.8200 -7.8485 -0.1229
11.8400 -7.8619 -0.1235
11.8600 -7.8751 -0.1233
11.8800 -7.8884 -0.1233
11.9000 -7.9018 -0.1263
11.9200 -7.9151 -0.1213
11.9400 -7.9284 -0.1209
11.9600 -7.9417 -0.1201
11.9800 -7.9551 -0.1229
12.0000 -7.9685 -0.1200
12.0200 -7.9818 -0.1232
12.0400 -7.9951 -0.1221
12.0600 -8.0084 -0.1209
12.0800 -8.0218 -0.1213
12.1000 -8.0352 -0.1204
12.1200 -8.0484 -0.1191
12.1400 -8.0617 -0.1204
12.1600 -8.0751 -0.1200
12.1800 -8.0884 -0.1186
12.2000 -8.1018 -0.1186
12.2200 -8.1151 -0.1177
12.2400 -8.1284 -0.1171
12.2600 -8.1418 -0.1185
12.2800 -8.1552 -0.1181
12.3000 -8.1685 -0.1184
12.3200 -8.1818 -0.1191
12.3400 -8.1951 -0.1166
12.3600 -8.2084 -0.1146
12.3800 -8.2218 -0.1175
12.4000 -8.2351 -0.1178
12.4200 -8.2484 -0.1166
12.4400 -8.2618 -0.1164
12.4600 -8.2752 -0.1128
12.4800 -8.2885 -0.1121
12.5000 -8.3018 -0.1152
12.5200 -8.3151 -0.1156
12.5400 -8.3285 -0.1139
12.5600 -8.3418 -0.1151
12.5800 -8.3551 -0.1144
12.6000 -8.3684 -0.1141
12.6200 -8.3818 -0.1149
12.6400 -8.3951 -0.1140
12.6600 -8.4084 -0.1127
12.6800 -8.4217 -0.1139
12.7000 -8.4350 -0.1133
12.7200 -8.4484 -0.1118
12.7400 -8.4617 -0.1122
12.7600 -8.4750 -0.1133
12.7800 -8.4884 -0.1123
12.8000 -8.5017 -0.1122
12.8200 -8.5151 -0.1130
12.8400 -8.5284 -0.1112
12.8600 -8.5417 -0.1120
12.8800 -8.5551 -0.1116
12.9000 -8.5685 -0.1095
12.9200 -8.5818 -0.1112
12.9400 -8.5951 -0.1099
12.9600 -8.6085 -0.1093
12.9800 -8.6218 -0.1109
13.0000 -8.6351 -0.1096
13.0200 -8.6484 -0.1092
13.0400 -8.6617 -0.1095
13.0600 -8.6750 -0.1106
13.0800 -8.6884 -0.1073
13.1000 -8.7018 -0.1084
13.1200 -8.7151 -0.1083
13.1400 -8.7284 -0.1079
13.1600 -8.7418 -0.1078
13.1800 -8.7551 -0.1077
13.2000 -8.7685 -0.1054
13.2200 -8.7818 -0.1076
13.2400 -8.7951 -0.1076
13.2600 -8.8085 -0.1053
13.2800 -8.8218 -0.1058
13.3000 -8.8352 -0.1064
13.3200 -8.8485 -0.1059
13.3400 -8.8618 -0.1071
13.3600 -8.8752 -0.1077
13.3800 -8.8885 -0.1053
13.4000 -8.9018 -0.1063
13.4200 -8.9151 -0.1067
13.4400 -8.9284 -0.1049
13.4600 -8.9418 -0.1055
13.4800 -8.9551 -0.1072
13.5000 -8.9684 -0.1048
13.5200 -8.9818 -0.1076
13.5400 -8.9951 -0.1044
13.5600 -9.0085 -0.1048
13.5800 -9.0218 -0.1052
13.6000 -9.0351 -0.1081
13.6200 -9.0485 -0.1054
13.6400 -9.0618 -0.1060
13.6600 -9.0751 -0.1073
13.6800 -9.0885 -0.1062
13.7000 -9.1018 -0.1064
13.7200 -9.1151 -0.1063
13.7400 -9.1284 -0.1015
13.7600 -9.1417 -0.1053
13.7800 -9.1550 -0.1042
13.8000 -9.1684 -0.1028
13.8200 -9.1818 -0.1038
13.8400 -9.1951 -0.1030
13.8600 -9.2084 -0.1034
13.8800 -9.2218 -0.1017
13.9000 -9.2352 -0.1035
13.9200 -9.2485 -0.1013
13.9400 -9.2618 -0.1026
13.9600 -9.2751 -0.1017
13.9800 -9.2885 -0.1009
14.0000 -9.3019 -0.1013
14.0200 -9.3151 -0.1039
14.0400 -9.3284 -0.1019
14.0600 -9.3417 -0.1011
14.0800 -9.3551 -0.1005
14.1000 -9.3684 -0.0991
14.1200 -9.3817 -0.1002
14.1400 -9.3950 -0.0998
14.1600 -9.4084 -0.1011
14.1800 -9.4218 -0.1004
14.2000 -9.4351 -0.1018
14.2200 -9.4484 -0.0986
14.2400 -9.4618 -0.0989
14.2600 -9.4752 -0.0966
14.2800 -9.4885 -0.0946
14.3000 -9.5018 -0.0979
14.3200 -9.5151 -0.0982
14.3400 -9.5285 -0.0950
14.3600 -9.5419 -0.0946
14.3800 -9.5552 -0.0962
14.4000 -9.5685 -0.0935
14.4200 -9.5818 -0.0976
14.4400 -9.5952 -0.0966
14.4600 -9.6085 -0.0948
14.4800 -9.6217 -0.0936
14.5000 -9.6351 -0.0947
14.5200 -9.6484 -0.0917
14.5400 -9.6617 -0.0939
14.5600 -9.6750 -0.0929
14.5800 -9.6883 -0.0948
14.6000 -9.7017 -0.0933
14.6200 -9.7151 -0.0955
14.6400 -9.7285 -0.0937
14.6600 -9.7418 -0.0957
14.6800 -9.7551 -0.0934
14.7000 -9.7685 -0.0928
14.7200 -9.7818 -0.0941
14.7400 -9.7952 -0.0944
14.7600 -9.8084 -0.0914
14.7800 -9.8218 -0.0936
14.8000 -9.8351 -0.0943
14.8200 -9.8484 -0.0925
14.8400 -9.8617 -0.0932
14.8600 -9.8750 -0.0914
14.8800 -9.8884 -0.0910
14.9000 -9.9017 -0.0913
14.9200 -9.9151 -0.0924
14.9400 -9.9284 -0.0904
14.9600 -9.9418 -0.0897
14.9800 -9.9551 -0.0923
15.0000 -9.9685 -0.0909
15.0200 -9.9818 -0.0925
15.0400 -9.9951 -0.0919
15.0600 -10.0085 -0.0900
15.0800 -10.0218 -0.0911
15.1000 -10.0351 -0.0938
15.1200 -10.0484 -0.0907
15.1400 -10.0617 -0.0917
15.1600 -10.0751 -0.0897
15.1800 -10.0884 -0.0868
15.2000 -10.1017 -0.0888
15.2200 -10.1150 -0.0893
15.2400 -10.1284 -0.0888
15.2600 -10.1418 -0.0899
15.2800 -10.1551 -0.0878
15.3000 -10.1684 -0.0882
15.3200 -10.1818 -0.0883
15.3400 -10.1952 -0.0886
15.3600 -10.2085 -0.0871
15.3800 -10.2218 -0.0872
15.4000 -10.2351 -0.0869
15.4200 -10.2485 -0.0856
15.4400 -10.2618 -0.0873
15.4600 -10.2752 -0.0868
15.4800 -10.2885 -0.0868
15.5000 -10.3018 -0.0842
15.5200 -10.3151 -0.0877
15.5400 -10.3284 -0.0818
15.5600 -10.3417 -0.0847
15.5800 -10.3550 -0.0848
15.6000 -10.3684 -0.0855
15.6200 -10.3818 -0.0836
15.6400 -10.3951 -0.0856
15.6600 -10.4084 -0.0818
15.6800 -10.4218 -0.0852
15.7000 -10.4351 -0.0846
15.7200 -10.4485 -0.0855
15.7400 -10.4618 -0.0833
15.7600 -10.4752 -0.0842
15.7800 -10.4885 -0.0815
15.8000 -10.5019 -0.0823
15.8200 -10.5152 -0.0842
15.8400 -10.5284 -0.0811
15.8600 -10.5418 -0.0817
15.8800 -10.5551 -0.0818
15.9000 -10.5684 -0.0799
15.9200 -10.5817 -0.0807
15.9400 -10.5950 -0.0816
15.9600 -10.6084 -0.0806
15.9800 -10.6217 -0.0804
16.0000 -10.6351 -0.0819
16.0200 -10.6484 -0.0786
16.0400 -10.6617 -0.0814
16.0600 -10.6751 -0.0789
16.0800 -10.6885 -0.0807
16.1000 -10.7018 -0.0778
16.1200 -10.7151 -0.0814
16.1400 -10.7285 -0.0760
16.1600 -10.7418 -0.0813
16.1800 -10.7551 -0.0789
16.2000 -10.7684 -0.0772
16.2200 -10.7818 -0.0785
16.2400 -10.7951 -0.0755
16.2600 -10.8084 -0.0773
16.2800 -10.8217 -0.0741
16.3000 -10.8350 -0.0790
16.3200 -10.8484 -0.0739
16.3400 -10.8618 -0.0770
16.3600 -10.8751 -0.0728
16.3800 -10.8884 -0.0779
16.4000 -10.9018 -0.0721
16.4200 -10.9151 -0.0764
16.4400 -10.9285 -0.0722
16.4600 -10.9418 -0.0763
16.4800 -10.9551 -0.0741
16.5000 -10.9684 -0.0738
16.5200 -10.9818 -0.0720
16.5400 -10.9951 -0.0721
16.5600 -11.0084 -0.0732
16.5800 -11.0218 -0.0705
16.6000 -11.0351 -0.0712
16.6200 -11.0485 -0.0705
16.6400 -11.0618 -0.0734
16.6600 -11.0751 -0.0722
16.6800 -11.0884 -0.0717
16.7000 -11.1018 -0.0716
16.7200 -11.1151 -0.0719
16.7400 -11.1284 -0.0714
16.7600 -11.1418 -0.0709
16.7800 -11.1552 -0.0712
16.8000 -11.1686 -0.0694
16.8200 -11.1819 -0.0706
16.8400 -11.1952 -0.0707
16.8600 -11.2085 -0.0715
16.8800 -11.2219 -0.0718
16.9000 -11.2352 -0.0735
16.9200 -11.2485 -0.0718
16.9400 -11.2618 -0.0710
16.9600 -11.2751 -0.0698
16.9800 -11.2884 -0.0681
17.0000 -11.3017 -0.0705
17.0200 -11.3150 -0.0698
17.0400 -11.3284 -0.0704
17.0600 -11.3418 -0.0683
17.0800 -11.3551 -0.0697
17.1000 -11.3684 -0.0697
17.1200 -11.3817 -0.0679
17.1400 -11.3951 -0.0676
17.1600 -11.4085 -0.0667
17.1800 -11.4218 -0.0680
17.2000 -11.4351 -0.0683
17.2200 -11.4485 -0.0675
17.2400 -11.4618 -0.0667
17.2600 -11.4752 -0.0678
17.2800 -11.4885 -0.0642
17.3000 -11.5018 -0.0656
17.3200 -11.5151 -0.0662
17.3400 -11.5284 -0.0665
17.3600 -11.5417 -0.0645
17.3800 -11.5550 -0.0643
17.4000 -11.5684 -0.0630
17.4200 -11.5818 -0.0645
17.4400 -11.5951 -0.0631
17.4600 -11.6084 -0.0644
17.4800 -11.6217 -0.0627
17.5000 -11.6351 -0.0606
17.5200 -11.6485 -0.0610
17.5400 -11.6618 -0.0611
17.5600 -11.6751 -0.0620
17.5800 -11.6884 -0.0618
17.6000 -11.7018 -0.0612
17.6200 -11.7152 -0.0610
17.6400 -11.7285 -0.0621
17.6600 -11.7418 -0.0602
17.6800 -11.7551 -0.0635
17.7000 -11.7685 -0.0605
17.7200 -11.7818 -0.0585
17.7400 -11.7951 -0.0595
17.7600 -11.8084 -0.0590
17.7800 -11.8218 -0.0597
17.8000 -11.8351 -0.0588
17.8200 -11.8484 -0.0600
17.8400 -11.8618 -0.0588
17.8600 -11.8751 -0.0577
17.8800 -11.8885 -0.0590
17.9000 -11.9018 -0.0574
17.9200 -11.9151 -0.0592
17.9400 -11.9284 -0.0601
17.9600 -11.9418 -0.0574
17.9800 -11.9551 -0.0576
18.0000 -11.9684 -0.0559
18.0200 -11.9818 -0.0552
18.0400 -11.9951 -0.0547
18.0600 -12.0084 -0.0548
18.0800 -12.0218 -0.0544
18.1000 -12.0351 -0.0578
18.1200 -12.0484 -0.0556
18.1400 -12.0618 -0.0537
18.1600 -12.0751 -0.0550
18.1800 -12.0884 -0.0548
18.2000 -12.1018 -0.0553
18.2200 -12.1151 -0.0548
18.2400 -12.1285 -0.0578
18.2600 -12.1418 -0.0542
18.2800 -12.1551 -0.0559
18.3000 -12.1684 -0.0517
18.3200 -12.1818 -0.0537
18.3400 -12.1951 -0.0515
18.3600 -12.2085 -0.0522
18.3800 -12.2218 -0.0530
18.4000 -12.2351 -0.0524
18.4200 -12.2484 -0.0507
18.4400 -12.2617 -0.0515
18.4600 -12.2750 -0.0509
18.4800 -12.2884 -0.0525
18.5000 -12.3018 -0.0532
18.5200 -12.3151 -0.0550
18.5400 -12.3284 -0.0518
18.5600 -12.3418 -0.0505
18.5800 -12.3551 -0.0520
18.6000 -12.3685 -0.0510
18.6200 -12.3818 -0.0518
18.6400 -12.3951 -0.0507
18.6600 -12.4084 -0.0530
18.6800 -12.4218 -0.0515
18.7000 -12.4352 -0.0519
18.7200 -12.4485 -0.0511
18.7400 -12.4618 -0.0502
18.7600 -12.4751 -0.0492
18.7800 -12.4885 -0.0489
18.8000 -12.5018 -0.0489
18.8200 -12.5151 -0.0500
18.8400 -12.5284 -0.0499
18.8600 -12.5417 -0.0494
18.8800 -12.5551 -0.0504
18.9000 -12.5684 -0.0487
18.9200 -12.5817 -0.0486
18.9400 -12.5951 -0.0479
18.9600 -12.6085 -0.0491
18.9800 -12.6218 -0.0477
19.0000 -12.6351 -0.0484
19.0200 -12.6485 -0.0474
19.0400 -12.6618 -0.0455
19.0600 -12.6752 -0.0479
19.0800 -12.6885 -0.0473
19.1000 -12.7018 -0.0457
19.1200 -12.7151 -0.0460
19.1400 -12.7285 -0.0473
19.1600 -12.7418 -0.0460
19.1800 -12.7551 -0.0484
19.2000 -12.7684 -0.0487
19.2200 -12.7818 -0.0483
19.2400 -12.7952 -0.0462
19.2600 -12.8085 -0.0459
19.2800 -12.8218 -0.0439
19.3000 -12.8351 -0.0452
19.3200 -12.8485 -0.0448
19.3400 -12.8618 -0.0458
19.3600 -12.8751 -0.0458
19.3800 -12.8884 -0.0448
19.4000 -12.9017 -0.0438
19.4200 -12.9151 -0.0448
19.4400 -12.9284 -0.0448
19.4600 -12.9418 -0.0457
19.4800 -12.9551 -0.0426
19.5000 -12.9685 -0.0421
19.5200 -12.9818 -0.0404
19.5400 -12.9951 -0.0408
19.5600 -13.0084 -0.0421
19.5800 -13.0217 -0.0418
19.6000 -13.0351 -0.0400
19.6200 -13.0484 -0.0400
19.6400 -13.0617 -0.0399
19.6600 -13.0751 -0.0404
19.6800 -13.0885 -0.0399
19.7000 -13.1018 -0.0402
19.7200 -13.1151 -0.0394
19.7400 -13.1285 -0.0381
19.7600 -13.1418 -0.0387
19.7800 -13.1552 -0.0388
19.8000 -13.1685 -0.0393
19.8200 -13.1818 -0.0395
19.8400 -13.1951 -0.0395
19.8600 -13.2085 -0.0399
19.8800 -13.2218 -0.0375
19.9000 -13.2350 -0.0375
19.9200 -13.2483 -0.0380
19.9400 -13.2617 -0.0397
19.9600 -13.2751 -0.0367
19.9800 -13.2884 -0.0364
20.0000 -13.3017 -0.0376
20.0200 -13.3151 -0.0362
20.0400 -13.3285 -0.0370
20.0600 -13.3419 -0.0368
20.0800 -13.3552 -0.0360
20.1000 -13.3685 -0.0355
20.1200 -13.3818 -0.0357
20.1400 -13.3952 -0.0324
20.1600 -13.4085 -0.0357
20.1800 -13.4218 -0.0372
20.2000 -13.4351 -0.0361
20.2200 -13.4485 -0.0352
20.2400 -13.4618 -0.0348
20.2600 -13.4751 -0.0331
20.2800 -13.4884 -0.0339
20.3000 -13.5017 -0.0344
20.3200 -13.5151 -0.0330
20.3400 -13.5284 -0.0326
20.3600 -13.5417 -0.0339
20.3800 -13.5551 -0.0330
20.4000 -13.5684 -0.0336
20.4200 -13.5818 -0.0333
20.4400 -13.5951 -0.0341
20.4600 -13.6084 -0.0322
20.4800 -13.6218 -0.0359
20.5000 -13.6352 -0.0337
20.5200 -13.6485 -0.0336
20.5400 -13.6618 -0.0335
20.5600 -13.6751 -0.0306
20.5800 -13.6885 -0.0349
20.6000 -13.7018 -0.0336
20.6200 -13.7151 -0.0329
20.6400 -13.7284 -0.0355
20.6600 -13.7417 -0.0354
20.6800 -13.7551 -0.0345
20.7000 -13.7684 -0.0323
20.7200 -13.7817 -0.0341
20.7400 -13.7951 -0.0347
20.7600 -13.8084 -0.0330
20.7800 -13.8218 -0.0329
20.8000 -13.8351 -0.0332
20.8200 -13.8484 -0.0328
20.8400 -13.8618 -0.0335
20.8600 -13.8752 -0.0321
20.8800 -13.8885 -0.0339
20.9000 -13.9018 -0.0336
20.9200 -13.9151 -0.0294
20.9400 -13.9285 -0.0311
20.9600 -13.9418 -0.0284
20.9800 -13.9551 -0.0281
21.0000 -13.9684 -0.0296
21.0200 -13.9817 -0.0286
21.0400 -13.9951 -0.0245
21.0600 -14.0084 -0.0260
21.0800 -14.0217 -0.0293
21.1000 -14.0351 -0.0274
21.1200 -14.0485 -0.0265
21.1400 -14.0618 -0.0270
21.1600 -14.0752 -0.0266
21.1800 -14.0885 -0.0240
21.2000 -14.1018 -0.0242
21.2200 -14.1152 -0.0240
21.2400 -14.1285 -0.0247
21.2600 -14.1418 -0.0217
21.2800 -14.1551 -0.0232
21.3000 -14.1684 -0.0221
21.3200 -14.1817 -0.0198
21.3400 -14.1950 -0.0221
21.3600 -14.2083 -0.0227
21.3800 -14.2217 -0.0222
21.4000 -14.2351 -0.0194
21.4200 -14.2484 -0.0226
21.4400 -14.2617 -0.0223
21.4600 -14.2751 -0.0217
21.4800 -14.2885 -0.0184
21.5000 -14.3019 -0.0196
21.5200 -14.3152 -0.0195
21.5400 -14.3284 -0.0187
21.5600 -14.3418 -0.0190
21.5800 -14.3552 -0.0192
21.6000 -14.3685 -0.0158
21.6200 -14.3818 -0.0190
21.6400 -14.3951 -0.0163
21.6600 -14.4085 -0.0161
21.6800 -14.4218 -0.0187
21.7000 -14.4351 -0.0165
21.7200 -14.4484 -0.0170
21.7400 -14.4617 -0.0157
21.7600 -14.4751 -0.0157
21.7800 -14.4884 -0.0148
21.8000 -14.5017 -0.0157
21.8200 -14.5150 -0.0153
21.8400 -14.5284 -0.0132
21.8600 -14.5418 -0.0136
21.8800 -14.5551 -0.0134
21.9000 -14.5685 -0.0116
21.9200 -14.5818 -0.0127
21.9400 -14.5952 -0.0107
21.9600 -14.6085 -0.0109
21.9800 -14.6218 -0.0108
22.0000 -14.6351 -0.0122
22.0200 -14.6484 -0.0124
22.0400 -14.6618 -0.0106
22.0600 -14.6751 -0.0095
22.0800 -14.6884 -0.0113
22.1000 -14.7017 -0.0115
22.1200 -14.7151 -0.0094
22.1400 -14.7285 -0.0100
22.1600 -14.7418 -0.0100
22.1800 -14.7551 -0.0090
22.2000 -14.7684 -0.0089
22.2200 -14.7818 -0.0100
22.2400 -14.7951 -0.0092
22.2600 -14.8084 -0.0089
22.2800 -14.8218 -0.0102
22.3000 -14.8352 -0.0101
22.3200 -14.8485 -0.0084
22.3400 -14.8618 -0.0105
22.3600 -14.8751 -0.0077
22.3800 -14.8884 -0.0062
22.4000 -14.9018 -0.0071
22.4200 -14.9151 -0.0080
22.4400 -14.9284 -0.0059
22.4600 -14.9417 -0.0084
22.4800 -14.9551 -0.0058
22.5000 -14.9685 -0.0069
22.5200 -14.9818 -0.0070
22.5400 -14.9951 -0.0055
22.5600 -15.0085 -0.0056
22.5800 -15.0219 -0.0064
22.6000 -15.0352 -0.0054
22.6200 -15.0485 -0.0040
22.6400 -15.0618 -0.0048
22.6600 -15.0751 -0.0064
22.6800 -15.0885 -0.0030
22.7000 -15.1018 -0.0062
22.7200 -15.1151 -0.0030
22.7400 -15.1284 -0.0039
22.7600 -15.1418 -0.0043
22.7800 -15.1551 -0.0042
22.8000 -15.1684 -0.0030
22.8200 -15.1817 -0.0054
22.8400 -15.1951 -0.0044
22.8600 -15.2084 -0.0040
22.8800 -15.2217 -0.0048
22.9000 -15.2351 -0.0052
22.9200 -15.2484 -0.0032
22.9400 -15.2618 -0.0032
22.9600 -15.2752 -0.0040
22.9800 -15.2885 -0.0030
23.0000 -15.3018 -0.0060
23.0200 -15.3152 -0.0057
23.0400 -15.3285 -0.0045
23.0600 -15.3418 -0.0038
23.0800 -15.3551 -0.0027
23.1000 -15.3684 -0.0016
23.1200 -15.3818 -0.0030
23.1400 -15.3951 -0.0018
23.1600 -15.4083 -0.0028
23.1800 -15.4217 -0.0017
23.2000 -15.4350 -0.0036
23.2200 -15.4484 -0.0004
23.2400 -15.4617 -0.0020
23.2600 -15.4751 0.0001
23.2800 -15.4884 -0.0013
23.3000 -15.5018 0.0009
23.3200 -15.5152 0.0005
23.3400 -15.5285 0.0027
23.3600 -15.5418 0.0012
23.3800 -15.5552 0.0027
23.4000 -15.5685 0.0030
23.4200 -15.5818 0.0006
23.4400 -15.5951 0.0019
23.4600 -15.6084 0.0026
23.4800 -15.6218 0.0023
23.5000 -15.6351 0.0032
23.5200 -15.6484 0.0059
23.5400 -15.6617 0.0025
23.5600 -15.6751 0.0064
23.5800 -15.6885 0.0050
23.6000 -15.7018 0.0051
23.6200 -15.7151 0.0081
23.6400 -15.7285 0.0068
23.6600 -15.7418 0.0070
23.6800 -15.7551 0.0061
23.7000 -15.7684 0.0089
23.7200 -15.7817 0.0075
23.7400 -15.7951 0.0072
23.7600 -15.8085 0.0086
23.7800 -15.8218 0.0074
23.8000 -15.8351 0.0102
23.8200 -15.8484 0.0096
23.8400 -15.8618 0.0088
23.8600 -15.8751 0.0099
23.8800 -15.8884 0.0121
23.9000 -15.9017 0.0091
23.9200 -15.9151 0.0108
23.9400 -15.9284 0.0105
23.9600 -15.9418 0.0090
23.9800 -15.9551 0.0072
24.0000 -15.9685 0.0114
24.0200 -15.9819 0.0091
24.0400 -15.9952 0.0093
24.0600 -16.0085 0.0091
24.0800 -16.0218 0.0088
24.1000 -16.0352 0.0093
24.1200 -16.0485 0.0098
24.1400 -16.0618 0.0103
24.1600 -16.0751 0.0110
24.1800 -16.0884 0.0101
24.2000 -16.1017 0.0104
24.2200 -16.1150 0.0111
24.2400 -16.1283 0.0115
24.2600 -16.1417 0.0103
24.2800 -16.1551 0.0112
24.3000 -16.1684 0.0128
24.3200 -16.1818 0.0110
24.3400 -16.1951 0.0108
24.3600 -16.2084 0.0135
24.3800 -16.2218 0.0103
24.4000 -16.2352 0.0140
24.4200 -16.2485 0.0144
24.4400 -16.2618 0.0157
24.4600 -16.2751 0.0139
24.4800 -16.2885 0.0167
24.5000 -16.3018 0.0128
24.5200 -16.3151 0.0146
24.5400 -16.3284 0.0181
24.5600 -16.3418 0.0191
24.5800 -16.3551 0.0193
24.6000 -16.3684 0.0190
24.6200 -16.3817 0.0196
24.6400 -16.3951 0.0180
24.6600 -16.4084 0.0205
24.6800 -16.4218 0.0174
24.7000 -16.4351 0.0189
24.7200 -16.4484 0.0202
24.7400 -16.4618 0.0217
24.7600 -16.4751 0.0212
24.7800 -16.4885 0.0243
24.8000 -16.5018 0.0222
24.8200 -16.5151 0.0206
24.8400 -16.5285 0.0224
24.8600 -16.5418 0.0208
24.8800 -16.5551 0.0226
24.9000 -16.5685 0.0231
24.9200 -16.5818 0.0231
24.9400 -16.5952 0.0212
24.9600 -16.6084 0.0229
24.9800 -16.6218 0.0226
25.0000 -16.6351 0.0241
25.0200 -16.6485 0.0266
25.0400 -16.6618 0.0246
25.0600 -16.6751 0.0233
25.0800 -16.6885 0.0244
25.1000 -16.7018 0.0254
25.1200 -16.7152 0.0246
25.1400 -16.7285 0.0286
25.1600 -16.7418 0.0246
25.1800 -16.7551 0.0259
25.2000 -16.7685 0.0273
25.2200 -16.7818 0.0275
25.2400 -16.7951 0.0264
25.2600 -16.8084 0.0277
25.2800 -16.8218 0.0277
25.3000 -16.8351 0.0268
25.3200 -16.8484 0.0299
25.3400 -16.8617 0.0267
25.3600 -16.8751 0.0259
25.3800 -16.8885 0.0306
25.4000 -16.9018 0.0271
25.4200 -16.9151 0.0281
25.4400 -16.9284 0.0320
25.4600 -16.9418 0.0296
25.4800 -16.9552 0.0309
25.5000 -16.9685 0.0300
25.5200 -16.9817 0.0305
25.5400 -16.9950 0.0320
25.5600 -17.0084 0.0322
25.5800 -17.0217 0.0280
25.6000 -17.0350 0.0298
25.6200 -17.0484 0.0330
25.6400 -17.0617 0.0323
25.6600 -17.0751 0.0343
25.6800 -17.0884 0.0362
25.7000 -17.1017 0.0332
25.7200 -17.1150 0.0318
25.7400 -17.1284 0.0331
25.7600 -17.1418 0.0341
25.7800 -17.1551 0.0346
25.8000 -17.1684 0.0378
25.8200 -17.1818 0.0345
25.8400 -17.1952 0.0366
25.8600 -17.2085 0.0362
25.8800 -17.2218 0.0367
25.9000 -17.2351 0.0347
25.9200 -17.2485 0.0365
25.9400 -17.2618 0.0361
25.9600 -17.2751 0.0367
25.9800 -17.2885 0.0352
26.0000 -17.3018 0.0378
26.0200 -17.3152 0.0375
26.0400 -17.3285 0.0378
26.0600 -17.3418 0.0378
26.0800 -17.3551 0.0378
26.1000 -17.3684 0.0395
26.1200 -17.3817 0.0381
26.1400 -17.3950 0.0406
26.1600 -17.4084 0.0387
26.1800 -17.4218 0.0380
26.2000 -17.4352 0.0374
26.2200 -17.4485 0.0404
26.2400 -17.4618 0.0373
26.2600 -17.4752 0.0405
26.2800 -17.4885 0.0401
26.3000 -17.5019 0.0421
26.3200 -17.5152 0.0406
26.3400 -17.5284 0.0409
26.3600 -17.5418 0.0421
26.3800 -17.5551 0.0415
26.4000 -17.5684 0.0437
26.4200 -17.5818 0.0448
26.4400 -17.5951 0.0414
26.4600 -17.6085 0.0434
26.4800 -17.6218 0.0446
26.5000 -17.6351 0.0438
26.5200 -17.6484 0.0455
26.5400 -17.6618 0.0436
26.5600 -17.6752 0.0464
26.5800 -17.6885 0.0447
26.6000 -17.7017 0.0448
26.6200 -17.7151 0.0420
26.6400 -17.7284 0.0447
26.6600 -17.7418 0.0450
26.6800 -17.7551 0.0459
26.7000 -17.7684 0.0464
26.7200 -17.7818 0.0470
26.7400 -17.7951 0.0458
26.7600 -17.8084 0.0480
26.7800 -17.8217 0.0475
26.8000 -17.8350 0.0470
26.8200 -17.8484 0.0488
26.8400 -17.8618 0.0484
26.8600 -17.8751 0.0436
26.8800 -17.8884 0.0470
26.9000 -17.9018 0.0478
26.9200 -17.9151 0.0463
26.9400 -17.9285 0.0489
26.9600 -17.9418 0.0490
26.9800 -17.9551 0.0471
27.0000 -17.9685 0.0490
27.0200 -17.9818 0.0507
27.0400 -17.9951 0.0481
27.0600 -18.0084 0.0497
27.0800 -18.0218 0.0521
27.1000 -18.0351 0.0512
27.1200 -18.0484 0.0514
27.1400 -18.0617 0.0538
27.1600 -18.0750 0.0522
27.1800 -18.0884 0.0520
27.2000 -18.1017 0.0545
27.2200 -18.1151 0.0508
27.2400 -18.1284 0.0548
27.2600 -18.1418 0.0564
27.2800 -18.1552 0.0541
27.3000 -18.1685 0.0572
27.3200 -18.1818 0.0551
27.3400 -18.1952 0.0558
27.3600 -18.2085 0.0594
27.3800 -18.2219 0.0580
27.4000 -18.2352 0.0558
27.4200 -18.2484 0.0576
27.4400 -18.2618 0.0594
27.4600 -18.2751 0.0575
27.4800 -18.2884 0.0566
27.5000 -18.3017 0.0593
27.5200 -18.3151 0.0559
27.5400 -18.3284 0.0602
27.5600 -18.3418 0.0588
27.5800 -18.3551 0.0578
27.6000 -18.3684 0.0582
27.6200 -18.3817 0.0609
27.6400 -18.3951 0.0591
27.6600 -18.4085 0.0631
27.6800 -18.4218 0.0612
27.7000 -18.4351 0.0597
27.7200 -18.4485 0.0603
27.7400 -18.4618 0.0650
27.7600 -18.4752 0.0589
27.7800 -18.4885 0.0622
27.8000 -18.5018 0.0619
27.8200 -18.5152 0.0619
27.8400 -18.5285 0.0631
27.8600 -18.5417 0.0641
27.8800 -18.5550 0.0635
27.9000 -18.5684 0.0648
27.9200 -18.5818 0.0643
27.9400 -18.5951 0.0636
27.9600 -18.6084 0.0648
27.9800 -18.6217 0.0629
28.0000 -18.6351 0.0635
28.0200 -18.6485 0.0638
28.0400 -18.6618 0.0643
28.0600 -18.6751 0.0633
28.0800 -18.6885 0.0657
28.1000 -18.7018 0.0692
28.1200 -18.7152 0.0661
28.1400 -18.7285 0.0675
28.1600 -18.7418 0.0672
28.1800 -18.7551 0.0666
28.2000 -18.7684 0.0687
28.2200 -18.7817 0.0690
28.2400 -18.7950 0.0667
28.2600 -18.8084 0.0676
28.2800 -18.8218 0.0696
28.3000 -18.8351 0.0693
28.3200 -18.8484 0.0695
28.3400 -18.8617 0.0709
28.3600 -18.8751 0.0693
28.3800 -18.8885 0.0707
28.4000 -18.9018 0.0722
28.4200 -18.9151 0.0705
28.4400 -18.9285 0.0716
28.4600 -18.9419 0.0720
28.4800 -18.9552 0.0716
28.5000 -18.9684 0.0712
28.5200 -18.9817 0.0744
28.5400 -18.9951 0.0721
28.5600 -19.0084 0.0724
28.5800 -19.0217 0.0736
28.6000 -19.0350 0.0705
28.6200 -19.0484 0.0734
28.6400 -19.0618 0.0741
28.6600 -19.0751 0.0706
28.6800 -19.0884 0.0730
28.7000 -19.1018 0.0735
28.7200 -19.1152 0.0753
28.7400 -19.1285 0.0761
28.7600 -19.1418 0.0774
28.7800 -19.1551 0.0718
28.8000 -19.1685 0.0747
28.8200 -19.1818 0.0780
28.8400 -19.1952 0.0780
28.8600 -19.2085 0.0775
28.8800 -19.2218 0.0782
28.9000 -19.2352 0.0753
28.9200 -19.2485 0.0766
28.9400 -19.2617 0.0776
28.9600 -19.2750 0.0786
28.9800 -19.2884 0.0785
29.0000 -19.3017 0.0818
29.0200 -19.3150 0.0775
29.0400 -19.3283 0.0786
29.0600 -19.3417 0.0795
29.0800 -19.3551 0.0790
29.1000 -19.3685 0.0804
29.1200 -19.3818 0.0808
29.1400 -19.3951 0.0777
29.1600 -19.4085 0.0795
29.1800 -19.4219 0.0820
29.2000 -19.4352 0.0816
29.2200 -19.4485 0.0819
29.2400 -19.4618 0.0819
29.2600 -19.4751 0.0810
29.2800 -19.4885 0.0826
29.3000 -19.5017 0.0844
29.3200 -19.5150 0.0823
29.3400 -19.5284 0.0833
29.3600 -19.5418 0.0860
29.3800 -19.5551 0.0852
29.4000 -19.5684 0.0864
29.4200 -19.5818 0.0868
29.4400 -19.5951 0.0866
29.4600 -19.6085 0.0890
29.4800 -19.6218 0.0902
29.5000 -19.6351 0.0879
29.5200 -19.6485 0.0895
29.5400 -19.6618 0.0905
29.5600 -19.6751 0.0899
29.5800 -19.6884 0.0909
29.6000 -19.7017 0.0933
29.6200 -19.7151 0.0914
29.6400 -19.7284 0.0927
29.6600 -19.7417 0.0910
29.6800 -19.7550 0.0908
29.7000 -19.7684 0.0919
29.7200 -19.7818 0.0935
29.7400 -19.7951 0.0922
29.7600 -19.8084 0.0914
29.7800 -19.8218 0.0935
29.8000 -19.8352 0.0925
29.8200 -19.8485 0.0927
29.8400 -19.8618 0.0955
29.8600 -19.8751 0.0923
29.8800 -19.8885 0.0945
29.9000 -19.9018 0.0971
29.9200 -19.9152 0.0950
29.9400 -19.9284 0.0947
29.9600 -19.9418 0.0968
29.9800 -19.9551 0.0948
30.0000 -19.9684 0.0962
30.0200 -19.9817 0.0963
30.0400 -19.9950 0.0968
30.0600 -20.0083 0.0981
30.0800 -20.0217 0.0986
30.1000 -20.0351 0.0972
30.1200 -20.0484 0.0939
30.1400 -20.0618 0.0909
30.1600 -20.0751 0.0667
30.1800 -20.0885 0.0309
30.2000 -20.1018 -0.0080
30.2200 -20.1152 -0.0461
30.2400 -20.1285 -0.0833
30.2600 -20.1418 -0.1213
30.2800 -20.1552 -0.1663
30.3000 -20.1685 -0.2141
30.3200 -20.1818 -0.2683
30.3400 -20.1951 -0.3296
30.3600 -20.2084 -0.3836
30.3800 -20.2217 -0.4027
30.4000 -20.2350 -0.4099
30.4200 -20.2484 -0.4070
30.4400 -20.2617 -0.4034
30.4600 -20.2751 -0.4036
30.4800 -20.2884 -0.4043
30.5000 -20.3017 -0.4021
30.5200 -20.3151 -0.4033
30.5400 -20.3285 -0.4008
30.5600 -20.3418 -0.4004
30.5800 -20.3551 -0.4009
30.6000 -20.3685 -0.4019
30.6200 -20.3818 -0.3968
30.6400 -20.3952 -0.3977
30.6600 -20.4085 -0.3995
30.6800 -20.4218 -0.3979
30.7000 -20.4351 -0.3962
30.7200 -20.4484 -0.3948
30.7400 -20.4617 -0.3936
30.7600 -20.4750 -0.3949
30.7800 -20.4884 -0.3951
30.8000 -20.5018 -0.3917
30.8200 -20.5151 -0.3913
30.8400 -20.5284 -0.3912
30.8600 -20.5418 -0.3905
30.8800 -20.5551 -0.3880
30.9000 -20.5685 -0.3890
30.9200 -20.5818 -0.3853
30.9400 -20.5951 -0.3851
30.9600 -20.6084 -0.3859
30.9800 -20.6218 -0.3820
31.0000 -20.6351 -0.3820
31.0200 -20.6484 -0.3813
31.0400 -20.6618 -0.3783
31.0600 -20.6751 -0.3792
31.0800 -20.6885 -0.3794
31.1000 -20.7018 -0.3767
31.1200 -20.7151 -0.3767
31.1400 -20.7284 -0.3782
31.1600 -20.7418 -0.3750
31.1800 -20.7551 -0.3754
31.2000 -20.7684 -0.3745
31.2200 -20.7818 -0.3725
31.2400 -20.7951 -0.3720
31.2600 -20.8085 -0.3737
31.2800 -20.8219 -0.3702
31.3000 -20.8352 -0.3701
31.3200 -20.8485 -0.3681
31.3400 -20.8619 -0.3704
31.3600 -20.8752 -0.3665
31.3800 -20.8885 -0.3687
31.4000 -20.9018 -0.3646
31.4200 -20.9151 -0.3665
31.4400 -20.9284 -0.3648
31.4600 -20.9417 -0.3644
31.4800 -20.9550 -0.3628
31.5000 -20.9684 -0.3647
31.5200 -20.9817 -0.3608
31.5400 -20.9951 -0.3622
31.5600 -21.0084 -0.3612
31.5800 -21.0218 -0.3576
31.6000 -21.0351 -0.3587
31.6200 -21.0485 -0.3580
31.6400 -21.0618 -0.3576
31.6600 -21.0751 -0.3582
31.6800 -21.0885 -0.3574
31.7000 -21.1018 -0.3533
31.7200 -21.1152 -0.3546
31.7400 -21.1285 -0.3544
31.7600 -21.1418 -0.3510
31.7800 -21.1551 -0.3505
31.8000 -21.1685 -0.3523
31.8200 -21.1818 -0.3492
31.8400 -21.1951 -0.3485
31.8600 -21.2084 -0.3488
31.8800 -21.2218 -0.3462
31.9000 -21.2351 -0.3436
31.9200 -21.2484 -0.3457
31.9400 -21.2617 -0.3427
31.9600 -21.2751 -0.3443
31.9800 -21.2885 -0.3447
32.0000 -21.3018 -0.3413
32.0200 -21.3151 -0.3413
32.0400 -21.3284 -0.3420
32.0600 -21.3418 -0.3398
32.0800 -21.3552 -0.3408
32.1000 -21.3685 -0.3404
32.1200 -21.3818 -0.3369
32.1400 -21.3951 -0.3382
32.1600 -21.4085 -0.3386
32.1800 -21.4218 -0.3382
32.2000 -21.4351 -0.3381
32.2200 -21.4484 -0.3372
32.2400 -21.4617 -0.3365
32.2600 -21.4751 -0.3349
32.2800 -21.4884 -0.3346
32.3000 -21.5018 -0.3322
32.3200 -21.5151 -0.3329
32.3400 -21.5285 -0.3328
32.3600 -21.5418 -0.3299
32.3800 -21.5551 -0.3298
32.4000 -21.5684 -0.3307
32.4200 -21.5818 -0.3292
32.4400 -21.5951 -0.3287
32.4600 -21.6084 -0.3280
32.4800 -21.6217 -0.3261
32.5000 -21.6351 -0.3251
32.5200 -21.6484 -0.3261
32.5400 -21.6617 -0.3249
32.5600 -21.6750 -0.3245
32.5800 -21.6884 -0.3253
32.6000 -21.7018 -0.3205
32.6200 -21.7151 -0.3223
32.6400 -21.7284 -0.3231
32.6600 -21.7417 -0.3217
32.6800 -21.7551 -0.3204
32.7000 -21.7685 -0.3219
32.7200 -21.7818 -0.3203
32.7400 -21.7951 -0.3213
32.7600 -21.8084 -0.3203
32.7800 -21.8218 -0.3198
32.8000 -21.8352 -0.3166
32.8200 -21.8485 -0.3155
32.8400 -21.8618 -0.3147
32.8600 -21.8751 -0.3146
32.8800 -21.8884 -0.3144
32.9000 -21.9017 -0.3131
32.9200 -21.9151 -0.3121
32.9400 -21.9284 -0.3138
32.9600 -21.9418 -0.3109
32.9800 -21.9551 -0.3100
33.0000 -21.9684 -0.3103
33.0200 -21.9817 -0.3074
33.0400 -21.9951 -0.3066
33.0600 -22.0085 -0.3100
33.0800 -22.0218 -0.3061
33.1000 -22.0352 -0.3075
33.1200 -22.0485 -0.3069
33.1400 -22.0618 -0.3058
33.1600 -22.0752 -0.3047
33.1800 -22.0885 -0.3041
33.2000 -22.1018 -0.3020
33.2200 -22.1151 -0.3023
33.2400 -22.1285 -0.3017
33.2600 -22.1418 -0.3005
33.2800 -22.1551 -0.3018
33.3000 -22.1684 -0.3027
33.3200 -22.1817 -0.3009
33.3400 -22.1950 -0.2981
33.3600 -22.2084 -0.3002
33.3800 -22.2217 -0.2952
33.4000 -22.2351 -0.2973
33.4200 -22.2485 -0.2969
33.4400 -22.2618 -0.2962
33.4600 -22.2751 -0.2949
33.4800 -22.2885 -0.2948
33.5000 -22.3018 -0.2932
33.5200 -22.3152 -0.2925
33.5400 -22.3285 -0.2936
33.5600 -22.3418 -0.2923
33.5800 -22.3551 -0.2904
33.6000 -22.3684 -0.2922
33.6200 -22.3818 -0.2878
33.6400 -22.3951 -0.2868
33.6600 -22.4084 -0.2887
33.6800 -22.4218 -0.2859
33.7000 -22.4351 -0.2870
33.7200 -22.4485 -0.2868
33.7400 -22.4618 -0.2849
33.7600 -22.4751 -0.2845
33.7800 -22.4885 -0.2832
33.8000 -22.5018 -0.2815
33.8200 -22.5151 -0.2823
33.8400 -22.5284 -0.2823
33.8600 -22.5417 -0.2812
33.8800 -22.5551 -0.2780
33.9000 -22.5684 -0.2801
33.9200 -22.5818 -0.2796
33.9400 -22.5951 -0.2782
33.9600 -22.6085 -0.2769
33.9800 -22.6218 -0.2759
34.0000 -22.6351 -0.2755
34.0200 -22.6484 -0.2762
34.0400 -22.6617 -0.2752
34.0600 -22.6751 -0.2742
34.0800 -22.6884 -0.2736
34.1000 -22.7017 -0.2719
34.1200 -22.7151 -0.2709
34.1400 -22.7285 -0.2723
34.1600 -22.7418 -0.2704
34.1800 -22.7551 -0.2688
34.2000 -22.7685 -0.2714
34.2200 -22.7818 -0.2689
34.2400 -22.7952 -0.2678
34.2600 -22.8085 -0.2687
34.2800 -22.8218 -0.2646
34.3000 -22.8351 -0.2643
34.3200 -22.8484 -0.2628
34.3400 -22.8618 -0.2620
34.3600 -22.8751 -0.2589
34.3800 -22.8884 -0.2601
34.4000 -22.9017 -0.2578
34.4200 -22.9151 -0.2584
34.4400 -22.9284 -0.2589
34.4600 -22.9417 -0.2576
34.4800 -22.9551 -0.2575
34.5000 -22.9685 -0.2587
34.5200 -22.9818 -0.2590
34.5400 -22.9952 -0.2582
34.5600 -23.0085 -0.2566
34.5800 -23.0218 -0.2544
34.6000 -23.0352 -0.2538
34.6200 -23.0485 -0.2564
34.6400 -23.0618 -0.2550
34.6600 -23.0751 -0.2515
34.6800 -23.0884 -0.2508
34.7000 -23.1018 -0.2491
34.7200 -23.1151 -0.2510
34.7400 -23.1284 -0.2514
34.7600 -23.1417 -0.2500
34.7800 -23.1551 -0.2478
34.8000 -23.1684 -0.2496
34.8200 -23.1818 -0.2476
34.8400 -23.1951 -0.2487
34.8600 -23.2084 -0.2477
34.8800 -23.2218 -0.2481
34.9000 -23.2351 -0.2456
34.9200 -23.2484 -0.2473
34.9400 -23.2618 -0.2469
34.9600 -23.2752 -0.2462
34.9800 -23.2885 -0.2470
35.0000 -23.3018 -0.2451
35.0200 -23.3151 -0.2428
35.0400 -23.3285 -0.2444
35.0600 -23.3418 -0.2424
35.0800 -23.3551 -0.2420
35.1000 -23.3684 -0.2423
35.1200 -23.3817 -0.2428
35.1400 -23.3951 -0.2425
35.1600 -23.4084 -0.2425
35.1800 -23.4217 -0.2427
35.2000 -23.4350 -0.2399
35.2200 -23.4484 -0.2409
35.2400 -23.4618 -0.2381
35.2600 -23.4751 -0.2376
35.2800 -23.4884 -0.2389
35.3000 -23.5018 -0.2377
35.3200 -23.5152 -0.2352
35.3400 -23.5285 -0.2352
35.3600 -23.5418 -0.2341
35.3800 -23.5551 -0.2320
35.4000 -23.5685 -0.2327
35.4200 -23.5818 -0.2320
35.4400 -23.5951 -0.2318
35.4600 -23.6084 -0.2314
35.4800 -23.6217 -0.2315
35.5000 -23.6351 -0.2300
35.5200 -23.6484 -0.2303
35.5400 -23.6617 -0.2268
35.5600 -23.6751 -0.2272
35.5800 -23.6884 -0.2293
35.6000 -23.7018 -0.2275
35.6200 -23.7152 -0.2269
35.6400 -23.7285 -0.2277
35.6600 -23.7418 -0.2275
35.6800 -23.7552 -0.2260
35.7000 -23.7685 -0.2236
35.7200 -23.7818 -0.2256
35.7400 -23.7951 -0.2252
35.7600 -23.8084 -0.2246
35.7800 -23.8218 -0.2237
35.8000 -23.8350 -0.2216
35.8200 -23.8483 -0.2220
35.8400 -23.8617 -0.2227
35.8600 -23.8751 -0.2209
35.8800 -23.8884 -0.2205
35.9000 -23.9018 -0.2189
35.9200 -23.9151 -0.2195
35.9400 -23.9285 -0.2189
35.9600 -23.9419 -0.2193
35.9800 -23.9552 -0.2179
36.0000 -23.9685 -0.2165
36.0200 -23.9818 -0.2184
36.0400 -23.9952 -0.2156
36.0600 -24.0085 -0.2168
36.0800 -24.0218 -0.2164
36.1000 -24.0351 -0.2162
36.1200 -24.0485 -0.2153
36.1400 -24.0618 -0.2157
36.1600 -24.0751 -0.2130
36.1800 -24.0884 -0.2141
36.2000 -24.1017 -0.2130
36.2200 -24.1151 -0.2131
36.2400 -24.1284 -0.2128
36.2600 -24.1417 -0.2127
36.2800 -24.1550 -0.2113
36.3000 -24.1684 -0.2107
36.3200 -24.1818 -0.2112
36.3400 -24.1951 -0.2087
36.3600 -24.2084 -0.2107
36.3800 -24.2218 -0.2098
36.4000 -24.2351 -0.2078
36.4200 -24.2485 -0.2074
36.4400 -24.2618 -0.2077
36.4600 -24.2751 -0.2044
36.4800 -24.2884 -0.2058
36.5000 -24.3018 -0.2044
36.5200 -24.3151 -0.2057
36.5400 -24.3284 -0.2041
36.5600 -24.3417 -0.2038
36.5800 -24.3551 -0.2035
36.6000 -24.3684 -0.2015
36.6200 -24.3818 -0.2033
36.6400 -24.3951 -0.2010
36.6600 -24.4084 -0.2018
36.6800 -24.4218 -0.2013
36.7000 -24.4352 -0.2014
36.7200 -24.4485 -0.2005
36.7400 -24.4618 -0.2006
36.7600 -24.4751 -0.1972
36.7800 -24.4885 -0.1984
36.8000 -24.5018 -0.1983
36.8200 -24.5151 -0.1974
36.8400 -24.5284 -0.1981
36.8600 -24.5418 -0.1962
36.8800 -24.5551 -0.1953
36.9000 -24.5684 -0.1938
36.9200 -24.5817 -0.1953
36.9400 -24.5951 -0.1924
36.9600 -24.6085 -0.1942
36.9800 -24.6218 -0.1938
37.0000 -24.6351 -0.1915
37.0200 -24.6485 -0.1937
37.0400 -24.6619 -0.1923
37.0600 -24.6752 -0.1924
37.0800 -24.6885 -0.1912
37.1000 -24.7018 -0.1922
37.1200 -24.7152 -0.1897
37.1400 -24.7285 -0.1899
37.1600 -24.7418 -0.1898
37.1800 -24.7551 -0.1905
37.2000 -24.7684 -0.1902
37.2200 -24.7818 -0.1903
37.2400 -24.7951 -0.1874
37.2600 -24.8084 -0.1869
37.2800 -24.8217 -0.1853
37.3000 -24.8350 -0.1861
37.3200 -24.8484 -0.1865
37.3400 -24.8617 -0.1869
37.3600 -24.8750 -0.1859
37.3800 -24.8884 -0.1844
37.4000 -24.9018 -0.1836
37.4200 -24.9152 -0.1823
37.4400 -24.9285 -0.1841
37.4600 -24.9418 -0.1850
37.4800 -24.9552 -0.1833
37.5000 -24.9685 -0.1831
37.5200 -24.9818 -0.1833
37.5400 -24.9951 -0.1799
37.5600 -25.0084 -0.1795
37.5800 -25.0218 -0.1797
37.6000 -25.0351 -0.1797
37.6200 -25.0484 -0.1787
37.6400 -25.0617 -0.1800
37.6600 -25.0750 -0.1775
37.6800 -25.0884 -0.1769
37.7000 -25.1018 -0.1779
37.7200 -25.1151 -0.1777
37.7400 -25.1285 -0.1763
37.7600 -25.1418 -0.1775
37.7800 -25.1552 -0.1763
37.8000 -25.1685 -0.1766
37.8200 -25.1818 -0.1762
37.8400 -25.1951 -0.1754
37.8600 -25.2085 -0.1751
37.8800 -25.2218 -0.1744
37.9000 -25.2351 -0.1729
37.9200 -25.2484 -0.1719
37.9400 -25.2618 -0.1729
37.9600 -25.2751 -0.1712
37.9800 -25.2884 -0.1727
38.0000 -25.3017 -0.1726
38.0200 -25.3151 -0.1712
38.0400 -25.3284 -0.1702
38.0600 -25.3418 -0.1703
38.0800 -25.3551 -0.1722
38.1000 -25.3684 -0.1698
38.1200 -25.3818 -0.1698
38.1400 -25.3952 -0.1676
38.1600 -25.4084 -0.1687
38.1800 -25.4217 -0.1675
38.2000 -25.4351 -0.1684
38.2200 -25.4484 -0.1665
38.2400 -25.4618 -0.1681
38.2600 -25.4751 -0.1668
38.2800 -25.4884 -0.1656
38.3000 -25.5017 -0.1627
38.3200 -25.5151 -0.1644
38.3400 -25.5284 -0.1632
38.3600 -25.5417 -0.1626
38.3800 -25.5551 -0.1621
38.4000 -25.5684 -0.1621
38.4200 -25.5818 -0.1628
38.4400 -25.5951 -0.1609
38.4600 -25.6084 -0.1626
38.4800 -25.6218 -0.1614
38.5000 -25.6352 -0.1603
38.5200 -25.6485 -0.1594
38.5400 -25.6618 -0.1610
38.5600 -25.6752 -0.1588
38.5800 -25.6885 -0.1586
38.6000 -25.7018 -0.1570
38.6200 -25.7151 -0.1592
38.6400 -25.7284 -0.1559
38.6600 -25.7417 -0.1560
38.6800 -25.7550 -0.1567
38.7000 -25.7683 -0.1555
38.7200 -25.7817 -0.1546
38.7400 -25.7950 -0.1542
38.7600 -25.8084 -0.1516
38.7800 -25.8218 -0.1537
38.8000 -25.8351 -0.1534
38.8200 -25.8485 -0.1523
38.8400 -25.8618 -0.1526
38.8600 -25.8752 -0.1508
38.8800 -25.8885 -0.1509
38.9000 -25.9018 -0.1510
38.9200 -25.9151 -0.1503
38.9400 -25.9285 -0.1484
38.9600 -25.9418 -0.1492
38.9800 -25.9551 -0.1465
39.0000 -25.9684 -0.1474
39.0200 -25.9818 -0.1469
39.0400 -25.9951 -0.1455
39.0600 -26.0084 -0.1491
39.0800 -26.0217 -0.1466
39.1000 -26.0351 -0.1477
39.1200 -26.0484 -0.1476
39.1400 -26.0618 -0.1474
39.1600 -26.0751 -0.1458
39.1800 -26.0884 -0.1465
39.2000 -26.1018 -0.1456
39.2200 -26.1151 -0.1463
39.2400 -26.1285 -0.1439
39.2600 -26.1418 -0.1467
39.2800 -26.1551 -0.1465
39.3000 -26.1685 -0.1466
39.3200 -26.1818 -0.1450
39.3400 -26.1951 -0.1452
39.3600 -26.2085 -0.1438
39.3800 -26.2218 -0.1422
39.4000 -26.2352 -0.1422
39.4200 -26.2484 -0.1415
39.4400 -26.2617 -0.1409
39.4600 -26.2751 -0.1418
39.4800 -26.2884 -0.1403
39.5000 -26.3018 -0.1386
39.5200 -26.3151 -0.1400
39.5400 -26.3284 -0.1376
39.5600 -26.3418 -0.1369
39.5800 -26.3552 -0.1375
39.6000 -26.3685 -0.1379
39.6200 -26.3818 -0.1359
39.6400 -26.3951 -0.1365
39.6600 -26.4085 -0.1347
39.6800 -26.4218 -0.1342
39.7000 -26.4351 -0.1333
39.7200 -26.4484 -0.1313
39.7400 -26.4618 -0.1310
39.7600 -26.4751 -0.1323
39.7800 -26.4884 -0.1297
39.8000 -26.5017 -0.1299
39.8200 -26.5151 -0.1300
39.8400 -26.5285 -0.1301
39.8600 -26.5418 -0.1285
39.8800 -26.5551 -0.1293
39.9000 -26.5684 -0.1299
39.9200 -26.5818 -0.1286
39.9400 -26.5952 -0.1283
39.9600 -26.6085 -0.1286
39.9800 -26.6218 -0.1269
40.0000 -26.6351 -0.1291
40.0200 -26.6485 -0.1270
40.0400 -26.6618 -0.1279
40.0600 -26.6751 -0.1277
40.0800 -26.6884 -0.1260
40.1000 -26.7018 -0.1276
40.1200 -26.7151 -0.1255
40.1400 -26.7284 -0.1257
40.1600 -26.7417 -0.1257
40.1800 -26.7550 -0.1235
40.2000 -26.7684 -0.1234
40.2200 -26.7818 -0.1221
40.2400 -26.7951 -0.1250
40.2600 -26.8084 -0.1246
40.2800 -26.8218 -0.1242
40.3000 -26.8352 -0.1227
40.3200 -26.8485 -0.1226
40.3400 -26.8618 -0.1204
40.3600 -26.8751 -0.1229
40.3800 -26.8885 -0.1204
40.4000 -26.9018 -0.1216
40.4200 -26.9151 -0.1192
40.4400 -26.9284 -0.1203
40.4600 -26.9418 -0.1176
40.4800 -26.9551 -0.1203
40.5000 -26.9684 -0.1178
40.5200 -26.9817 -0.1176
40.5400 -26.9951 -0.1177
40.5600 -27.0084 -0.1178
40.5800 -27.0217 -0.1174
40.6000 -27.0350 -0.1160
40.6200 -27.0484 -0.1152
40.6400 -27.0617 -0.1138
40.6600 -27.0752 -0.1138
40.6800 -27.0885 -0.1140
40.7000 -27.1018 -0.1138
40.7200 -27.1151 -0.1146
40.7400 -27.1285 -0.1125
40.7600 -27.1419 -0.1129
40.7800 -27.1552 -0.1131
40.8000 -27.1685 -0.1124
40.8200 -27.1818 -0.1107
40.8400 -27.1951 -0.1113
40.8600 -27.2084 -0.1085
40.8800 -27.2217 -0.1116
40.9000 -27.2351 -0.1101
40.9200 -27.2485 -0.1100
40.9400 -27.2618 -0.1078
40.9600 -27.2751 -0.1072
40.9800 -27.2885 -0.1071
41.0000 -27.3018 -0.1068
41.0200 -27.3152 -0.1060
41.0400 -27.3285 -0.1070
41.0600 -27.3418 -0.1063
41.0800 -27.3551 -0.1059
41.1000 -27.3684 -0.1046
41.1200 -27.3818 -0.1044
41.1400 -27.3951 -0.1068
41.1600 -27.4084 -0.1039
41.1800 -27.4218 -0.1051
41.2000 -27.4351 -0.1031
41.2200 -27.4484 -0.1048
41.2400 -27.4617 -0.1013
41.2600 -27.4751 -0.1025
41.2800 -27.4884 -0.1008
41.3000 -27.5018 -0.0999
41.3200 -27.5151 -0.1002
41.3400 -27.5284 -0.1014
41.3600 -27.5418 -0.0992
41.3800 -27.5552 -0.1016
41.4000 -27.5685 -0.0989
41.4200 -27.5818 -0.1010
41.4400 -27.5951 -0.0985
41.4600 -27.6085 -0.0987
41.4800 -27.6218 -0.0943
41.5000 -27.6351 -0.0976
41.5200 -27.6485 -0.0953
41.5400 -27.6618 -0.0958
41.5600 -27.6751 -0.0954
41.5800 -27.6884 -0.0975
41.6000 -27.7017 -0.0940
41.6200 -27.7150 -0.0959
41.6400 -27.7284 -0.0943
41.6600 -27.7417 -0.0934
41.6800 -27.7551 -0.0930
41.7000 -27.7684 -0.0900
41.7200 -27.7818 -0.0896
41.7400 -27.7952 -0.0896
41.7600 -27.8085 -0.0915
41.7800 -27.8218 -0.0914
41.8000 -27.8351 -0.0897
41.8200 -27.8485 -0.0896
41.8400 -27.8619 -0.0879
41.8600 -27.8752 -0.0890
41.8800 -27.8885 -0.0873
41.9000 -27.9018 -0.0877
41.9200 -27.9151 -0.0898
41.9400 -27.9285 -0.0894
41.9600 -27.9417 -0.0875
41.9800 -27.9551 -0.0901
42.0000 -27.9684 -0.0890
42.0200 -27.9818 -0.0888
42.0400 -27.9951 -0.0878
42.0600 -28.0084 -0.0892
42.0800 -28.0217 -0.0874
42.1000 -28.0351 -0.0868
42.1200 -28.0485 -0.0881
42.1400 -28.0618 -0.0867
42.1600 -28.0751 -0.0888
42.1800 -28.0885 -0.0861
42.2000 -28.1018 -0.0849
42.2200 -28.1152 -0.0828
42.2400 -28.1285 -0.0857
42.2600 -28.1418 -0.0837
42.2800 -28.1552 -0.0834
42.3000 -28.1685 -0.0833
42.3200 -28.1817 -0.0842
42.3400 -28.1950 -0.0829
42.3600 -28.2084 -0.0825
42.3800 -28.2218 -0.0805
42.4000 -28.2351 -0.0818
42.4200 -28.2484 -0.0805
42.4400 -28.2617 -0.0801
42.4600 -28.2751 -0.0806
42.4800 -28.2885 -0.0778
42.5000 -28.3018 -0.0787
42.5200 -28.3151 -0.0777
42.5400 -28.3285 -0.0781
42.5600 -28.3418 -0.0743
42.5800 -28.3552 -0.0777
42.6000 -28.3685 -0.0764
42.6200 -28.3818 -0.0756
42.6400 -28.3951 -0.0760
42.6600 -28.4085 -0.0754
42.6800 -28.4217 -0.0732
42.7000 -28.4350 -0.0734
42.7200 -28.4484 -0.0747
42.7400 -28.4618 -0.0710
42.7600 -28.4751 -0.0736
42.7800 -28.4884 -0.0720
42.8000 -28.5017 -0.0710
42.8200 -28.5151 -0.0676
42.8400 -28.5285 -0.0715
42.8600 -28.5418 -0.0697
42.8800 -28.5551 -0.0704
42.9000 -28.5685 -0.0701
42.9200 -28.5818 -0.0674
42.9400 -28.5952 -0.0654
42.9600 -28.6084 -0.0669
42.9800 -28.6217 -0.0671
43.0000 -28.6351 -0.0660
43.0200 -28.6484 -0.0669
43.0400 -28.6617 -0.0666
43.0600 -28.6750 -0.0663
43.0800 -28.6884 -0.0645
43.1000 -28.7018 -0.0639
43.1200 -28.7151 -0.0624
43.1400 -28.7284 -0.0654
43.1600 -28.7418 -0.0605
43.1800 -28.7552 -0.0620
43.2000 -28.7685 -0.0622
43.2200 -28.7818 -0.0619
43.2400 -28.7951 -0.0621
43.2600 -28.8085 -0.0633
43.2800 -28.8218 -0.0622
43.3000 -28.8352 -0.0600
43.3200 -28.8485 -0.0612
43.3400 -28.8618 -0.0595
43.3600 -28.8752 -0.0606
43.3800 -28.8885 -0.0614
43.4000 -28.9018 -0.0594
43.4200 -28.9151 -0.0554
43.4400 -28.9284 -0.0582
43.4600 -28.9417 -0.0555
43.4800 -28.9551 -0.0575
43.5000 -28.9684 -0.0590
43.5200 -28.9817 -0.0578
43.5400 -28.9951 -0.0583
43.5600 -29.0085 -0.0564
43.5800 -29.0218 -0.0552
43.6000 -29.0351 -0.0546
43.6200 -29.0485 -0.0565
43.6400 -29.0618 -0.0529
43.6600 -29.0752 -0.0538
43.6800 -29.0885 -0.0555
43.7000 -29.1018 -0.0523
43.7200 -29.1151 -0.0514
43.7400 -29.1285 -0.0533
43.7600 -29.1417 -0.0511
43.7800 -29.1550 -0.0532
43.8000 -29.1684 -0.0545
43.8200 -29.1818 -0.0518
43.8400 -29.1951 -0.0514
43.8600 -29.2084 -0.0529
43.8800 -29.2218 -0.0526
43.9000 -29.2351 -0.0509
43.9200 -29.2485 -0.0522
43.9400 -29.2618 -0.0505
43.9600 -29.2751 -0.0485
43.9800 -29.2884 -0.0527
44.0000 -29.3018 -0.0483
44.0200 -29.3151 -0.0501
44.0400 -29.3284 -0.0496
44.0600 -29.3417 -0.0485
44.0800 -29.3551 -0.0487
44.1000 -29.3684 -0.0485
44.1200 -29.3817 -0.0486
44.1400 -29.3950 -0.0481
44.1600 -29.4084 -0.0483
44.1800 -29.4218 -0.0462
44.2000 -29.4351 -0.0445
44.2200 -29.4485 -0.0486
44.2400 -29.4618 -0.0447
44.2600 -29.4752 -0.0469
44.2800 -29.4885 -0.0451
44.3000 -29.5018 -0.0425
44.3200 -29.5151 -0.0437
44.3400 -29.5285 -0.0454
44.3600 -29.5418 -0.0446
44.3800 -29.5552 -0.0442
44.4000 -29.5685 -0.0435
44.4200 -29.5818 -0.0408
44.4400 -29.5951 -0.0420
44.4600 -29.6084 -0.0413
44.4800 -29.6217 -0.0401
44.5000 -29.6350 -0.0381
44.5200 -29.6483 -0.0411
44.5400 -29.6617 -0.0402
44.5600 -29.6751 -0.0406
44.5800 -29.6884 -0.0413
44.6000 -29.7018 -0.0384
44.6200 -29.7151 -0.0372
44.6400 -29.7285 -0.0366
44.6600 -29.7418 -0.0367
44.6800 -29.7551 -0.0362
44.7000 -29.7685 -0.0394
44.7200 -29.7818 -0.0363
44.7400 -29.7952 -0.0366
44.7600 -29.8085 -0.0366
44.7800 -29.8218 -0.0357
44.8000 -29.8351 -0.0356
44.8200 -29.8484 -0.0355
44.8400 -29.8617 -0.0345
44.8600 -29.8750 -0.0324
44.8800 -29.8884 -0.0338
44.9000 -29.9017 -0.0321
44.9200 -29.9151 -0.0332
44.9400 -29.9284 -0.0315
44.9600 -29.9417 -0.0346
44.9800 -29.9551 -0.0315
45.0000 -29.9685 -0.0315
45.0200 -29.9819 -0.0283
45.0400 -29.9951 -0.0273
45.0600 -30.0085 -0.0282
45.0800 -30.0218 -0.0278
45.1000 -30.0352 -0.0248
45.1200 -30.0485 -0.0290
45.1400 -30.0618 -0.0271
45.1600 -30.0751 -0.0284
45.1800 -30.0884 -0.0273
45.2000 -30.1017 -0.0266
45.2200 -30.1150 -0.0238
45.2400 -30.1284 -0.0265
45.2600 -30.1417 -0.0256
45.2800 -30.1551 -0.0226
45.3000 -30.1684 -0.0233
45.3200 -30.1818 -0.0222
45.3400 -30.1951 -0.0223
45.3600 -30.2085 -0.0237
45.3800 -30.2218 -0.0205
45.4000 -30.2351 -0.0208
45.4200 -30.2484 -0.0224
45.4400 -30.2618 -0.0232
45.4600 -30.2751 -0.0203
45.4800 -30.2885 -0.0214
45.5000 -30.3018 -0.0184
45.5200 -30.3151 -0.0180
45.5400 -30.3285 -0.0181
45.5600 -30.3418 -0.0178
45.5800 -30.3551 -0.0148
45.6000 -30.3684 -0.0167
45.6200 -30.3818 -0.0140
45.6400 -30.3951 -0.0112
45.6600 -30.4084 -0.0144
45.6800 -30.4217 -0.0117
45.7000 -30.4351 -0.0123
45.7200 -30.4485 -0.0130
45.7400 -30.4619 -0.0122
45.7600 -30.4752 -0.0103
45.7800 -30.4885 -0.0130
45.8000 -30.5018 -0.0120
45.8200 -30.5152 -0.0090
45.8400 -30.5285 -0.0113
45.8600 -30.5418 -0.0105
45.8800 -30.5551 -0.0098
45.9000 -30.5684 -0.0105
45.9200 -30.5817 -0.0085
45.9400 -30.5950 -0.0069
45.9600 -30.6083 -0.0105
45.9800 -30.6217 -0.0092
46.0000 -30.6351 -0.0071
46.0200 -30.6484 -0.0080
46.0400 -30.6617 -0.0081
46.0600 -30.6751 -0.0077
46.0800 -30.6885 -0.0083
46.1000 -30.7018 -0.0075
46.1200 -30.7151 -0.0056
46.1400 -30.7285 -0.0080
46.1600 -30.7418 -0.0058
46.1800 -30.7552 -0.0048
46.2000 -30.7685 -0.0048
46.2200 -30.7818 -0.0050
46.2400 -30.7951 -0.0027
46.2600 -30.8085 -0.0054
46.2800 -30.8218 -0.0046
46.3000 -30.8351 -0.0038
46.3200 -30.8484 -0.0037
46.3400 -30.8617 -0.0038
46.3600 -30.8751 -0.0013
46.3800 -30.8884 -0.0041
46.4000 -30.9017 -0.0028
46.4200 -30.9151 -0.0001
46.4400 -30.9285 -0.0019
46.4600 -30.9418 -0.0005
46.4800 -30.9551 0.0005
46.5000 -30.9684 -0.0003
46.5200 -30.9818 0.0015
46.5400 -30.9952 0.0023
46.5600 -31.0085 0.0004
46.5800 -31.0218 0.0029
46.6000 -31.0351 0.0039
46.6200 -31.0485 0.0020
46.6400 -31.0618 0.0024
46.6600 -31.0751 0.0051
46.6800 -31.0884 0.0024
46.7000 -31.1017 0.0036
46.7200 -31.1151 0.0048
46.7400 -31.1284 0.0041
46.7600 -31.1418 0.0050
46.7800 -31.1551 0.0068
46.8000 -31.1685 0.0064
46.8200 -31.1818 0.0060
46.8400 -31.1951 0.0084
46.8600 -31.2084 0.0067
46.8800 -31.2218 0.0067
46.9000 -31.2351 0.0107
46.9200 -31.2484 0.0102
46.9400 -31.2618 0.0105
46.9600 -31.2751 0.0148
46.9800 -31.2884 0.0119
47.0000 -31.3018 0.0128
47.0200 -31.3151 0.0130
47.0400 -31.3284 0.0125
47.0600 -31.3418 0.0111
47.0800 -31.3551 0.0149
47.1000 -31.3685 0.0133
47.1200 -31.3818 0.0130
47.1400 -31.3951 0.0151
47.1600 -31.4085 0.0134
47.1800 -31.4218 0.0144
47.2000 -31.4351 0.0169
47.2200 -31.4484 0.0150
47.2400 -31.4618 0.0154
47.2600 -31.4751 0.0201
47.2800 -31.4885 0.0173
47.3000 -31.5018 0.0161
47.3200 -31.5151 0.0187
47.3400 -31.5284 0.0179
47.3600 -31.5418 0.0194
47.3800 -31.5551 0.0197
47.4000 -31.5684 0.0178
47.4200 -31.5817 0.0157
47.4400 -31.5951 0.0191
47.4600 -31.6084 0.0181
47.4800 -31.6217 0.0197
47.5000 -31.6351 0.0223
47.5200 -31.6485 0.0200
47.5400 -31.6618 0.0216
47.5600 -31.6752 0.0234
47.5800 -31.6885 0.0233
47.6000 -31.7018 0.0223
47.6200 -31.7151 0.0245
47.6400 -31.7285 0.0237
47.6600 -31.7418 0.0231
47.6800 -31.7551 0.0263
47.7000 -31.7685 0.0260
47.7200 -31.7818 0.0255
47.7400 -31.7951 0.0286
47.7600 -31.8084 0.0274
47.7800 -31.8217 0.0265
47.8000 -31.8350 0.0294
47.8200 -31.8484 0.0289
47.8400 -31.8617 0.0292
47.8600 -31.8751 0.0295
47.8800 -31.8885 0.0298
47.9000 -31.9018 0.0294
47.9200 -31.9151 0.0301
47.9400 -31.9285 0.0300
47.9600 -31.9418 0.0298
47.9800 -31.9552 0.0340
48.0000 -31.9685 0.0330
48.0200 -31.9818 0.0327
48.0400 -31.9951 0.0329
48.0600 -32.0084 0.0325
48.0800 -32.0218 0.0316
48.1000 -32.0351 0.0363
48.1200 -32.0484 0.0330
48.1400 -32.0618 0.0330
48.1600 -32.0751 0.0351
48.1800 -32.0885 0.0349
48.2000 -32.1018 0.0350
48.2200 -32.1151 0.0385
48.2400 -32.1285 0.0370
48.2600 -32.1418 0.0370
48.2800 -32.1551 0.0389
48.3000 -32.1684 0.0377
48.3200 -32.1817 0.0387
48.3400 -32.1951 0.0418
48.3600 -32.2085 0.0409
48.3800 -32.2218 0.0397
48.4000 -32.2351 0.0414
48.4200 -32.2484 0.0419
48.4400 -32.2618 0.0403
48.4600 -32.2751 0.0430
48.4800 -32.2884 0.0435
48.5000 -32.3017 0.0408
48.5200 -32.3151 0.0434
48.5400 -32.3284 0.0426
48.5600 -32.3418 0.0406
48.5800 -32.3551 0.0431
48.6000 -32.3685 0.0414
48.6200 -32.3818 0.0422
48.6400 -32.3951 0.0451
48.6600 -32.4085 0.0446
48.6800 -32.4218 0.0456
48.7000 -32.4352 0.0474
48.7200 -32.4485 0.0459
48.7400 -32.4618 0.0432
48.7600 -32.4751 0.0467
48.7800 -32.4885 0.0483
48.8000 -32.5018 0.0484
48.8200 -32.5151 0.0486
48.8400 -32.5284 0.0499
48.8600 -32.5417 0.0469
48.8800 -32.5551 0.0503
48.9000 -32.5684 0.0494
48.9200 -32.5817 0.0476
48.9400 -32.5951 0.0500
48.9600 -32.6085 0.0521
48.9800 -32.6219 0.0507
49.0000 -32.6352 0.0517
49.0200 -32.6485 0.0517
49.0400 -32.6618 0.0493
49.0600 -32.6752 0.0544
49.0800 -32.6885 0.0535
49.1000 -32.7018 0.0529
49.1200 -32.7151 0.0554
49.1400 -32.7285 0.0550
49.1600 -32.7418 0.0553
49.1800 -32.7551 0.0565
49.2000 -32.7684 0.0559
49.2200 -32.7817 0.0546
49.2400 -32.7951 0.0563
49.2600 -32.8084 0.0561
49.2800 -32.8217 0.0535
49.3000 -32.8351 0.0564
49.3200 -32.8484 0.0580
49.3400 -32.8618 0.0566
49.3600 -32.8751 0.0585
49.3800 -32.8884 0.0573
49.4000 -32.9018 0.0576
49.4200 -32.9151 0.0591
49.4400 -32.9285 0.0609
49.4600 -32.9418 0.0590
49.4800 -32.9552 0.0609
49.5000 -32.9685 0.0588
49.5200 -32.9818 0.0575
49.5400 -32.9951 0.0607
49.5600 -33.0084 0.0623
49.5800 -33.0217 0.0588
49.6000 -33.0351 0.0629
49.6200 -33.0484 0.0633
49.6400 -33.0617 0.0732
49.6600 -33.0750 0.0835
49.6800 -33.0884 0.0864
49.7000 -33.1018 0.0842
49.7200 -33.1151 0.0870
49.7400 -33.1284 0.0849
49.7600 -33.1417 0.0866
49.7800 -33.1551 0.0871
49.8000 -33.1685 0.0878
49.8200 -33.1818 0.0834
49.8400 -33.1951 0.0849
49.8600 -33.2085 0.0854
49.8800 -33.2218 0.0838
49.9000 -33.2351 0.0871
49.9200 -33.2484 0.0850
49.9400 -33.2617 0.0845
49.9600 -33.2751 0.0850
49.9800 -33.2884 0.0847
50.0000 -33.3018 0.0819
50.0200 -33.3151 0.0865
50.0400 -33.3284 0.0859
50.0600 -33.3418 0.0847
50.0800 -33.3552 0.0825
50.1000 -33.3685 0.0849
50.1200 -33.3818 0.0835
50.1400 -33.3952 0.0858
50.1600 -33.4085 0.0871
50.1800 -33.4218 0.0869
50.2000 -33.4351 0.0883
50.2200 -33.4484 0.0897
50.2400 -33.4617 0.0899
50.2600 -33.4750 0.0906
50.2800 -33.4883 0.0891
50.3000 -33.5017 0.0883
50.3200 -33.5151 0.0906
50.3400 -33.5284 0.0925
50.3600 -33.5418 0.0916
50.3800 -33.5551 0.0921
50.4000 -33.5685 0.0947
50.4200 -33.5819 0.0951
50.4400 -33.5952 0.0945
50.4600 -33.6085 0.0944
50.4800 -33.6218 0.0937
50.5000 -33.6352 0.0969
50.5200 -33.6485 0.0983
50.5400 -33.6618 0.0964
50.5600 -33.6751 0.0972
50.5800 -33.6885 0.0999
50.6000 -33.7018 0.0985
50.6200 -33.7152 0.0989
50.6400 -33.7284 0.0993
50.6600 -33.7417 0.0966
50.6800 -33.7551 0.0995
50.7000 -33.7684 0.1003
50.7200 -33.7817 0.0993
50.7400 -33.7950 0.1021
50.7600 -33.8084 0.0999
50.7800 -33.8218 0.0988
50.8000 -33.8352 0.0991
50.8200 -33.8485 0.0995
50.8400 -33.8618 0.0986
50.8600 -33.8751 0.0991
50.8800 -33.8885 0.1011
50.9000 -33.9018 0.0990
50.9200 -33.9151 0.0990
50.9400 -33.9284 0.1029
50.9600 -33.9418 0.1005
50.9800 -33.9551 0.1024
51.0000 -33.9683 0.1043
51.0200 -33.9816 0.1038
51.0400 -33.9950 0.1031
51.0600 -34.0084 0.1055
51.0800 -34.0217 0.1030
51.1000 -34.0351 0.1040
51.1200 -34.0484 0.1060
51.1400 -34.0618 0.1052
51.1600 -34.0752 0.1067
51.1800 -34.0885 0.1068
51.2000 -34.1018 0.1057
51.2200 -34.1151 0.1081
51.2400 -34.1285 0.1075
51.2600 -34.1418 0.1060
51.2800 -34.1551 0.1090
51.3000 -34.1684 0.1098
51.3200 -34.1818 0.1089
51.3400 -34.1951 0.1092
51.3600 -34.2084 0.1097
51.3800 -34.2217 0.1097
51.4000 -34.2351 0.1101
51.4200 -34.2485 0.1109
51.4400 -34.2618 0.1114
51.4600 -34.2751 0.1126
51.4800 -34.2885 0.1153
51.5000 -34.3018 0.1138
51.5200 -34.3152 0.1140
51.5400 -34.3285 0.1157
51.5600 -34.3418 0.1150
51.5800 -34.3552 0.1173
51.6000 -34.3685 0.1184
51.6200 -34.3818 0.1153
51.6400 -34.3951 0.1178
51.6600 -34.4084 0.1206
51.6800 -34.4218 0.1176
51.7000 -34.4351 0.1184
51.7200 -34.4484 0.1209
51.7400 -34.4617 0.1187
51.7600 -34.4750 0.1203
51.7800 -34.4884 0.1208
51.8000 -34.5018 0.1192
51.8200 -34.5151 0.1192
51.8400 -34.5285 0.1215
51.8600 -34.5418 0.1200
51.8800 -34.5552 0.1217
51.9000 -34.5685 0.1225
51.9200 -34.5818 0.1243
51.9400 -34.5952 0.1230
51.9600 -34.6085 0.1269
51.9800 -34.6218 0.1220
52.0000 -34.6351 0.1240
52.0200 -34.6484 0.1246
52.0400 -34.6618 0.1219
52.0600 -34.6751 0.1232
52.0800 -34.6884 0.1259
52.1000 -34.7017 0.1237
52.1200 -34.7150 0.1269
52.1400 -34.7284 0.1268
52.1600 -34.7417 0.1268
52.1800 -34.7551 0.1263
52.2000 -34.7684 0.1287
52.2200 -34.7818 0.1273
52.2400 -34.7952 0.1279
52.2600 -34.8085 0.1296
52.2800 -34.8218 0.1279
52.3000 -34.8351 0.1298
52.3200 -34.8485 0.1323
52.3400 -34.8618 0.1314
52.3600 -34.8751 0.1324
52.3800 -34.8884 0.1340
52.4000 -34.9018 0.1313
52.4200 -34.9151 0.1323
52.4400 -34.9284 0.1349
52.4600 -34.9417 0.1366
52.4800 -34.9551 0.1363
52.5000 -34.9685 0.1387
52.5200 -34.9818 0.1359
52.5400 -34.9951 0.1383
52.5600 -35.0084 0.1393
52.5800 -35.0218 0.1388
52.6000 -35.0352 0.1400
52.6200 -35.0484 0.1398
52.6400 -35.0617 0.1408
52.6600 -35.0751 0.1421
52.6800 -35.0884 0.1433
52.7000 -35.1018 0.1430
52.7200 -35.1151 0.1439
52.7400 -35.1284 0.1479
52.7600 -35.1418 0.1461
52.7800 -35.1551 0.1244
52.8000 -35.1684 0.0708
52.8200 -35.1817 0.0273
52.8400 -35.1951 0.0115
52.8600 -35.2084 0.0116
52.8800 -35.2218 0.0096
52.9000 -35.2351 0.0124
52.9200 -35.2484 0.0111
52.9400 -35.2618 0.0138
52.9600 -35.2752 0.0111
52.9800 -35.2885 0.0139
53.0000 -35.3018 0.0130
53.0200 -35.3152 0.0117
53.0400 -35.3285 0.0122
53.0600 -35.3419 0.0101
53.0800 -35.3551 0.0089
53.1000 -35.3684 0.0119
53.1200 -35.3817 0.0084
53.1400 -35.3951 0.0093
53.1600 -35.4084 0.0099
53.1800 -35.4217 0.0109
53.2000 -35.4350 0.0108
53.2200 -35.4484 0.0150
53.2400 -35.4618 0.0132
53.2600 -35.4751 0.0121
53.2800 -35.4884 0.0122
53.3000 -35.5018 0.0122
53.3200 -35.5152 0.0113
53.3400 -35.5285 0.0151
53.3600 -35.5418 0.0126
53.3800 -35.5551 0.0126
53.4000 -35.5685 0.0125
53.4200 -35.5818 0.0106
53.4400 -35.5951 0.0137
53.4600 -35.6084 0.0141
53.4800 -35.6218 0.0140
53.5000 -35.6351 0.0132
53.5200 -35.6484 0.0161
53.5400 -35.6617 0.0137
53.5600 -35.6750 0.0141
53.5800 -35.6884 0.0138
53.6000 -35.7018 0.0128
53.6200 -35.7151 0.0135
53.6400 -35.7284 0.0162
53.6600 -35.7418 0.0156
53.6800 -35.7551 0.0163
53.7000 -35.7685 0.0167
53.7200 -35.7818 0.0137
53.7400 -35.7951 0.0134
53.7600 -35.8085 0.0175
53.7800 -35.8218 0.0170
53.8000 -35.8351 0.0157
53.8200 -35.8485 0.0164
53.8400 -35.8618 0.0161
53.8600 -35.8752 0.0159
53.8800 -35.8885 0.0184
53.9000 -35.9017 0.0165
53.9200 -35.9151 0.0180
53.9400 -35.9284 0.0174
53.9600 -35.9418 0.0177
53.9800 -35.9551 0.0152
54.0000 -35.9684 0.0158
54.0200 -35.9818 0.0174
54.0400 -35.9952 0.0197
54.0600 -36.0085 0.0191
54.0800 -36.0218 0.0189
54.1000 -36.0351 0.0178
54.1200 -36.0485 0.0208
54.1400 -36.0618 0.0180
54.1600 -36.0751 0.0181
54.1800 -36.0884 0.0190
54.2000 -36.1018 0.0180
54.2200 -36.1151 0.0183
54.2400 -36.1284 0.0195
54.2600 -36.1417 0.0201
54.2800 -36.1551 0.0196
54.3000 -36.1684 0.0195
54.3200 -36.1818 0.0211
54.3400 -36.1951 0.0205
54.3600 -36.2084 0.0220
54.3800 -36.2218 0.0241
54.4000 -36.2352 0.0211
54.4200 -36.2485 0.0216
54.4400 -36.2618 0.0199
54.4600 -36.2751 0.0203
54.4800 -36.2885 0.0221
54.5000 -36.3018 0.0219
54.5200 -36.3151 0.0211
54.5400 -36.3284 0.0230
54.5600 -36.3417 0.0213
54.5800 -36.3551 0.0229
54.6000 -36.3684 0.0230
54.6200 -36.3817 0.0235
54.6400 -36.3951 0.0220
54.6600 -36.4084 0.0227
54.6800 -36.4218 0.0238
54.7000 -36.4351 0.0222
54.7200 -36.4484 0.0242
54.7400 -36.4618 0.0245
54.7600 -36.4752 0.0255
54.7800 -36.4885 0.0259
54.8000 -36.5018 0.0264
54.8200 -36.5151 0.0263
54.8400 -36.5285 0.0274
54.8600 -36.5418 0.0289
54.8800 -36.5551 0.0271
54.9000 -36.5685 0.0285
54.9200 -36.5818 0.0297
54.9400 -36.5952 0.0286
54.9600 -36.6085 0.0274
54.9800 -36.6218 0.0273
55.0000 -36.6351 0.0258
55.0200 -36.6484 0.0275
55.0400 -36.6617 0.0279
55.0600 -36.6750 0.0277
55.0800 -36.6884 0.0292
55.1000 -36.7017 0.0308
55.1200 -36.7151 0.0291
55.1400 -36.7285 0.0308
55.1600 -36.7418 0.0292
55.1800 -36.7551 0.0302
55.2000 -36.7685 0.0325
55.2200 -36.7818 0.0334
55.2400 -36.7952 0.0328
55.2600 -36.8084 0.0341
55.2800 -36.8218 0.0316
55.3000 -36.8351 0.0321
55.3200 -36.8484 0.0345
55.3400 -36.8617 0.0336
55.3600 -36.8751 0.0342
55.3800 -36.8884 0.0334
55.4000 -36.9018 0.0334
55.4200 -36.9151 0.0321
55.4400 -36.9284 0.0330
55.4600 -36.9418 0.0333
55.4800 -36.9552 0.0330
55.5000 -36.9685 0.0356
55.5200 -36.9818 0.0330
55.5400 -36.9951 0.0321
55.5600 -37.0084 0.0327
55.5800 -37.0218 0.0356
55.6000 -37.0351 0.0336
55.6200 -37.0484 0.0347
55.6400 -37.0618 0.0344
55.6600 -37.0751 0.0348
55.6800 -37.0885 0.0342
55.7000 -37.1017 0.0356
55.7200 -37.1150 0.0337
55.7400 -37.1284 0.0353
55.7600 -37.1418 0.0349
55.7800 -37.1551 0.0350
55.8000 -37.1684 0.0364
55.8200 -37.1818 0.0347
55.8400 -37.1951 0.0367
55.8600 -37.2085 0.0354
55.8800 -37.2218 0.0378
55.9000 -37.2351 0.0354
55.9200 -37.2485 0.0379
55.9400 -37.2618 0.0367
55.9600 -37.2752 0.0358
55.9800 -37.2885 0.0374
56.0000 -37.3018 0.0397
56.0200 -37.3151 0.0384
56.0400 -37.3285 0.0408
56.0600 -37.3417 0.0422
56.0800 -37.3550 0.0406
56.1000 -37.3684 0.0402
56.1200 -37.3818 0.0415
56.1400 -37.3951 0.0407
56.1600 -37.4084 0.0407
56.1800 -37.4218 0.0429
56.2000 -37.4352 0.0414
56.2200 -37.4485 0.0426
56.2400 -37.4618 0.0418
56.2600 -37.4751 0.0445
56.2800 -37.4885 0.0446
56.3000 -37.5019 0.0450
56.3200 -37.5152 0.0430
56.3400 -37.5285 0.0453
56.3600 -37.5418 0.0467
56.3800 -37.5551 0.0437
56.4000 -37.5685 0.0440
56.4200 -37.5817 0.0443
56.4400 -37.5951 0.0441
56.4600 -37.6084 0.0437
56.4800 -37.6218 0.0478
56.5000 -37.6351 0.0464
56.5200 -37.6484 0.0456
56.5400 -37.6617 0.0437
56.5600 -37.6751 0.0419
56.5800 -37.6885 0.0422
56.6000 -37.7018 0.0466
56.6200 -37.7151 0.0474
56.6400 -37.7285 0.0481
56.6600 -37.7418 0.0485
56.6800 -37.7552 0.0471
56.7000 -37.7685 0.0454
56.7200 -37.7818 0.0486
56.7400 -37.7951 0.0456
56.7600 -37.8085 0.0480
56.7800 -37.8218 0.0474
56.8000 -37.8351 0.0469
56.8200 -37.8484 0.0461
56.8400 -37.8618 0.0484
56.8600 -37.8751 0.0484
56.8800 -37.8884 0.0497
56.9000 -37.9017 0.0471
56.9200 -37.9151 0.0469
56.9400 -37.9285 0.0481
56.9600 -37.9418 0.0493
56.9800 -37.9551 0.0485
57.0000 -37.9684 0.0488
57.0200 -37.9818 0.0494
57.0400 -37.9952 0.0484
57.0600 -38.0085 0.0482
57.0800 -38.0218 0.0514
57.1000 -38.0351 0.0514
57.1200 -38.0485 0.0535
57.1400 -38.0617 0.0498
57.1600 -38.0750 0.0491
57.1800 -38.0884 0.0503
57.2000 -38.1018 0.0512
57.2200 -38.1151 0.0524
57.2400 -38.1284 0.0514
57.2600 -38.1417 0.0541
57.2800 -38.1551 0.0538
57.3000 -38.1685 0.0543
57.3200 -38.1818 0.0559
57.3400 -38.1951 0.0557
57.3600 -38.2085 0.0568
57.3800 -38.2219 0.0571
57.4000 -38.2352 0.0559
57.4200 -38.2485 0.0578
57.4400 -38.2617 0.0586
57.4600 -38.2751 0.0600
57.4800 -38.2884 0.0584
57.5000 -38.3017 0.0580
57.5200 -38.3150 0.0568
57.5400 -38.3284 0.0595
57.5600 -38.3417 0.0577
57.5800 -38.3551 0.0595
57.6000 -38.3684 0.0584
57.6200 -38.3818 0.0574
57.6400 -38.3951 0.0574
57.6600 -38.4085 0.0617
57.6800 -38.4218 0.0615
57.7000 -38.4351 0.0615
57.7200 -38.4485 0.0592
57.7400 -38.4618 0.0611
57.7600 -38.4752 0.0590
57.7800 -38.4885 0.0608
57.8000 -38.5018 0.0589
57.8200 -38.5151 0.0626
57.8400 -38.5285 0.0629
57.8600 -38.5418 0.0663
57.8800 -38.5551 0.0615
57.9000 -38.5684 0.0647
57.9200 -38.5817 0.0625
57.9400 -38.5951 0.0650
57.9600 -38.6083 0.0627
57.9800 -38.6217 0.0631
58.0000 -38.6351 0.0629
58.0200 -38.6485 0.0655
58.0400 -38.6618 0.0648
58.0600 -38.6751 0.0639
58.0800 -38.6884 0.0648
58.1000 -38.7018 0.0657
58.1200 -38.7152 0.0649
58.1400 -38.7285 0.0651
58.1600 -38.7418 0.0679
58.1800 -38.7551 0.0660
58.2000 -38.7685 0.0679
58.2200 -38.7818 0.0670
58.2400 -38.7951 0.0679
58.2600 -38.8084 0.0654
58.2800 -38.8218 0.0671
58.3000 -38.8351 0.0683
58.3200 -38.8484 0.0679
58.3400 -38.8618 0.0658
58.3600 -38.8751 0.0656
58.3800 -38.8885 0.0656
58.4000 -38.9018 0.0672
58.4200 -38.9151 0.0669
58.4400 -38.9284 0.0689
58.4600 -38.9418 0.0677
58.4800 -38.9551 0.0699
58.5000 -38.9684 0.0694
58.5200 -38.9818 0.0686
58.5400 -38.9951 0.0680
58.5600 -39.0084 0.0684
58.5800 -39.0217 0.0703
58.6000 -39.0350 0.0717
58.6200 -39.0484 0.0716
58.6400 -39.0618 0.0720
58.6600 -39.0751 0.0720
58.6800 -39.0885 0.0723
58.7000 -39.1018 0.0722
58.7200 -39.1151 0.0715
58.7400 -39.1285 0.0726
58.7600 -39.1418 0.0727
58.7800 -39.1551 0.0727
58.8000 -39.1684 0.0712
58.8200 -39.1818 0.0737
58.8400 -39.1952 0.0743
58.8600 -39.2085 0.0724
58.8800 -39.2218 0.0739
58.9000 -39.2351 0.0752
58.9200 -39.2484 0.0763
58.9400 -39.2617 0.0749
58.9600 -39.2750 0.0734
58.9800 -39.2883 0.0734
59.0000 -39.3017 0.0746
59.0200 -39.3151 0.0769
59.0400 -39.3284 0.0762
59.0600 -39.3417 0.0747
59.0800 -39.3551 0.0764
59.1000 -39.3685 0.0767
59.1200 -39.3818 0.0774
59.1400 -39.3952 0.0769
59.1600 -39.4085 0.0779
59.1800 -39.4218 0.0799
59.2000 -39.4352 0.0795
59.2200 -39.4485 0.0808
59.2400 -39.4618 0.0826
59.2600 -39.4751 0.0811
59.2800 -39.4884 0.0827
59.3000 -39.5017 0.0809
59.3200 -39.5150 0.0819
59.3400 -39.5283 0.0816
59.3600 -39.5417 0.0800
59.3800 -39.5551 0.0800
59.4000 -39.5684 0.0795
59.4200 -39.5817 0.0823
59.4400 -39.5951 0.0831
59.4600 -39.6085 0.0845
59.4800 -39.6219 0.0838
59.5000 -39.6352 0.0835
59.5200 -39.6485 0.0811
59.5400 -39.6618 0.0839
59.5600 -39.6752 0.0838
59.5800 -39.6885 0.0826
59.6000 -39.7018 0.0840
59.6200 -39.7151 0.0851
59.6400 -39.7284 0.0844
59.6600 -39.7417 0.0842
59.6800 -39.7550 0.0834
59.7000 -39.7684 0.0847
59.7200 -39.7817 0.0853
59.7400 -39.7951 0.0864
59.7600 -39.8085 0.0855
59.7800 -39.8218 0.0888
59.8000 -39.8351 0.0886
59.8200 -39.8485 0.0886
59.8400 -39.8618 0.0882
59.8600 -39.8751 0.0888
59.8800 -39.8884 0.0894
59.9000 -39.9018 0.0897
59.9200 -39.9151 0.0911
59.9400 -39.9285 0.0907
59.9600 -39.9418 0.0932
59.9800 -39.9551 0.0912
60.0000 -39.9685 0.0924
60.0200 -39.9818 0.0922
60.0400 -39.9951 0.0923
60.0480 -40.0003 0.0966
