Raw Data
Time Displacement Force
(s) (mm) (N)
0.0000 0.0000 -0.4601
0.0200 -0.0001 -0.4633
0.0400 -0.0019 -0.4802
0.0600 -0.0092 -0.4773
0.0800 -0.0209 -0.4703
0.1000 -0.0335 -0.4692
0.1200 -0.0462 -0.4677
0.1400 -0.0596 -0.4718
0.1600 -0.0736 -0.4683
0.1800 -0.0878 -0.4697
0.2000 -0.1016 -0.4680
0.2200 -0.1152 -0.4700
0.2400 -0.1286 -0.4684
0.2600 -0.1420 -0.4704
0.2800 -0.1552 -0.4675
0.3000 -0.1685 -0.4673
0.3200 -0.1819 -0.4690
0.3400 -0.1953 -0.4659
0.3600 -0.2086 -0.4669
0.3800 -0.2219 -0.4658
0.4000 -0.2352 -0.4687
0.4200 -0.2486 -0.4645
0.4400 -0.2619 -0.4671
0.4600 -0.2753 -0.4648
0.4800 -0.2886 -0.4664
0.5000 -0.3019 -0.4649
0.5200 -0.3153 -0.4659
0.5400 -0.3287 -0.4623
0.5600 -0.3420 -0.4620
0.5800 -0.3553 -0.4611
0.6000 -0.3687 -0.4631
0.6200 -0.3820 -0.4630
0.6400 -0.3953 -0.4600
0.6600 -0.4086 -0.4576
0.6800 -0.4219 -0.4571
0.7000 -0.4353 -0.4573
0.7200 -0.4486 -0.4556
0.7400 -0.4619 -0.4568
0.7600 -0.4752 -0.4545
0.7800 -0.4886 -0.4545
0.8000 -0.5020 -0.4538
0.8200 -0.5153 -0.4525
0.8400 -0.5286 -0.4491
0.8600 -0.5420 -0.4505
0.8800 -0.5554 -0.4501
0.9000 -0.5687 -0.4481
0.9200 -0.5820 -0.4485
0.9400 -0.5953 -0.4477
0.9600 -0.6086 -0.4472
0.9800 -0.6220 -0.4457
1.0000 -0.6353 -0.4426
1.0200 -0.6486 -0.4400
1.0400 -0.6619 -0.4422
1.0600 -0.6752 -0.4423
1.0800 -0.6885 -0.4389
1.1000 -0.7018 -0.4419
1.1200 -0.7152 -0.4378
1.1400 -0.7285 -0.4385
1.1600 -0.7419 -0.4348
1.1800 -0.7552 -0.4362
1.2000 -0.7686 -0.4321
1.2200 -0.7820 -0.4332
1.2400 -0.7954 -0.4325
1.2600 -0.8087 -0.4329
1.2800 -0.8220 -0.4326
1.3000 -0.8353 -0.4316
1.3200 -0.8487 -0.4299
1.3400 -0.8620 -0.4293
1.3600 -0.8753 -0.4292
1.3800 -0.8886 -0.4259
1.4000 -0.9019 -0.4287
1.4200 -0.9153 -0.4251
1.4400 -0.9286 -0.4231
1.4600 -0.9419 -0.4255
1.4800 -0.9552 -0.4240
1.5000 -0.9685 -0.4233
1.5200 -0.9819 -0.4237
1.5400 -0.9952 -0.4251
1.5600 -1.0086 -0.4194
1.5800 -1.0219 -0.4202
1.6000 -1.0353 -0.4185
1.6200 -1.0487 -0.4179
1.6400 -1.0620 -0.4170
1.6600 -1.0753 -0.4177
1.6800 -1.0887 -0.4129
1.7000 -1.1020 -0.4151
1.7200 -1.1153 -0.4144
1.7400 -1.1286 -0.4142
1.7600 -1.1419 -0.4112
1.7800 -1.1553 -0.4115
1.8000 -1.1686 -0.4093
1.8200 -1.1819 -0.4086
1.8400 -1.1952 -0.4078
1.8600 -1.2086 -0.4055
1.8800 -1.2220 -0.4045
1.9000 -1.2353 -0.4058
1.9200 -1.2486 -0.4042
1.9400 -1.2620 -0.4058
1.9600 -1.2753 -0.4049
1.9800 -1.2887 -0.4028
2.0000 -1.3019 -0.4033
2.0200 -1.3152 -0.4029
2.0400 -1.3286 -0.3999
2.0600 -1.3420 -0.4004
2.0800 -1.3553 -0.4001
2.1000 -1.3686 -0.3988
2.1200 -1.3819 -0.3997
2.1400 -1.3953 -0.3987
2.1600 -1.4086 -0.3984
2.1800 -1.4219 -0.3970
2.2000 -1.4352 -0.3978
2.2200 -1.4486 -0.3956
2.2400 -1.4619 -0.3984
2.2600 -1.4752 -0.3978
2.2800 -1.4886 -0.3976
2.3000 -1.5019 -0.3962
2.3200 -1.5153 -0.3987
2.3400 -1.5287 -0.3960
2.3600 -1.5420 -0.3970
2.3800 -1.5553 -0.3962
2.4000 -1.5687 -0.3943
2.4200 -1.5820 -0.3948
2.4400 -1.5953 -0.3959
2.4600 -1.6086 -0.3959
2.4800 -1.6219 -0.3950
2.5000 -1.6352 -0.3948
2.5200 -1.6485 -0.3913
2.5400 -1.6618 -0.3923
2.5600 -1.6752 -0.3913
2.5800 -1.6885 -0.3896
2.6000 -1.7019 -0.3913
2.6200 -1.7153 -0.3908
2.6400 -1.7286 -0.3907
2.6600 -1.7419 -0.3883
2.6800 -1.7553 -0.3884
2.7000 -1.7687 -0.3852
2.7200 -1.7820 -0.3886
2.7400 -1.7953 -0.3856
2.7600 -1.8086 -0.3859
2.7800 -1.8220 -0.3857
2.8000 -1.8353 -0.3852
2.8200 -1.8486 -0.3839
2.8400 -1.8619 -0.3823
2.8600 -1.8753 -0.3832
2.8800 -1.8886 -0.3825
2.9000 -1.9019 -0.3826
2.9200 -1.9152 -0.3831
2.9400 -1.9286 -0.3831
2.9600 -1.9419 -0.3832
2.9800 -1.9553 -0.3840
3.0000 -1.9686 -0.3804
3.0200 -1.9819 -0.3809
3.0400 -1.9953 -0.3821
3.0600 -2.0086 -0.3821
3.0800 -2.0220 -0.3808
3.1000 -2.0353 -0.3792
3.1200 -2.0486 -0.3776
3.1400 -2.0620 -0.3795
3.1600 -2.0753 -0.3796
3.1800 -2.0886 -0.3778
3.2000 -2.1020 -0.3758
3.2200 -2.1153 -0.3753
3.2400 -2.1287 -0.3757
3.2600 -2.1419 -0.3764
3.2800 -2.1552 -0.3759
3.3000 -2.1686 -0.3738
3.3200 -2.1819 -0.3731
3.3400 -2.1953 -0.3713
3.3600 -2.2086 -0.3721
3.3800 -2.2219 -0.3720
3.4000 -2.2353 -0.3709
3.4200 -2.2487 -0.3694
3.4400 -2.2620 -0.3685
3.4600 -2.2753 -0.3687
3.4800 -2.2886 -0.3657
3.5000 -2.3020 -0.3662
3.5200 -2.3153 -0.3661
3.5400 -2.3286 -0.3662
3.5600 -2.3419 -0.3632
3.5800 -2.3553 -0.3636
3.6000 -2.3686 -0.3606
3.6200 -2.3819 -0.3609
3.6400 -2.3952 -0.3608
3.6600 -2.4086 -0.3598
3.6800 -2.4220 -0.3573
3.7000 -2.4353 -0.3573
3.7200 -2.4486 -0.3549
3.7400 -2.4619 -0.3556
3.7600 -2.4753 -0.3567
3.7800 -2.4887 -0.3547
3.8000 -2.5020 -0.3528
3.8200 -2.5153 -0.3527
3.8400 -2.5286 -0.3533
3.8600 -2.5420 -0.3505
3.8800 -2.5553 -0.3477
3.9000 -2.5686 -0.3475
3.9200 -2.5819 -0.3486
3.9400 -2.5953 -0.3483
3.9600 -2.6086 -0.3435
3.9800 -2.6219 -0.3439
4.0000 -2.6352 -0.3456
4.0200 -2.6486 -0.3432
4.0400 -2.6619 -0.3419
4.0600 -2.6753 -0.3408
4.0800 -2.6886 -0.3404
4.1000 -2.7019 -0.3402
4.1200 -2.7153 -0.3395
4.1400 -2.7287 -0.3397
4.1600 -2.7420 -0.3387
4.1800 -2.7553 -0.3392
4.2000 -2.7686 -0.3385
4.2200 -2.7820 -0.3357
4.2400 -2.7953 -0.3367
4.2600 -2.8086 -0.3350
4.2800 -2.8220 -0.3360
4.3000 -2.8353 -0.3345
4.3200 -2.8487 -0.3339
4.3400 -2.8619 -0.3361
4.3600 -2.8752 -0.3367
4.3800 -2.8886 -0.3365
4.4000 -2.9019 -0.3347
4.4200 -2.9152 -0.3364
4.4400 -2.9285 -0.3359
4.4600 -2.9419 -0.3357
4.4800 -2.9553 -0.3360
4.5000 -2.9687 -0.3359
4.5200 -2.9820 -0.3343
4.5400 -2.9953 -0.3332
4.5600 -3.0086 -0.3314
4.5800 -3.0220 -0.3327
4.6000 -3.0353 -0.3318
4.6200 -3.0486 -0.3318
4.6400 -3.0619 -0.3305
4.6600 -3.0753 -0.3300
4.6800 -3.0886 -0.3310
4.7000 -3.1019 -0.3299
4.7200 -3.1152 -0.3310
4.7400 -3.1286 -0.3285
4.7600 -3.1420 -0.3267
4.7800 -3.1553 -0.3274
4.8000 -3.1686 -0.3302
4.8200 -3.1820 -0.3277
4.8400 -3.1953 -0.3290
4.8600 -3.2087 -0.3250
4.8800 -3.2220 -0.3236
4.9000 -3.2353 -0.3240
4.9200 -3.2486 -0.3221
4.9400 -3.2619 -0.3213
4.9600 -3.2753 -0.3224
4.9800 -3.2886 -0.3220
5.0000 -3.3019 -0.3219
5.0200 -3.3153 -0.3188
5.0400 -3.3286 -0.3189
5.0600 -3.3419 -0.3161
5.0800 -3.3552 -0.3160
5.1000 -3.3686 -0.3163
5.1200 -3.3819 -0.3182
5.1400 -3.3953 -0.3160
5.1600 -3.4086 -0.3152
5.1800 -3.4219 -0.3128
5.2000 -3.4353 -0.3133
5.2200 -3.4487 -0.3114
5.2400 -3.4620 -0.3123
5.2600 -3.4753 -0.3104
5.2800 -3.4886 -0.3087
5.3000 -3.5020 -0.3080
5.3200 -3.5153 -0.3083
5.3400 -3.5286 -0.3090
5.3600 -3.5419 -0.3066
5.3800 -3.5553 -0.3068
5.4000 -3.5686 -0.3059
5.4200 -3.5819 -0.3071
5.4400 -3.5952 -0.3058
5.4600 -3.6085 -0.3072
5.4800 -3.6219 -0.3043
5.5000 -3.6353 -0.3050
5.5200 -3.6486 -0.3057
5.5400 -3.6619 -0.3020
5.5600 -3.6753 -0.2987
5.5800 -3.6887 -0.3010
5.6000 -3.7020 -0.3018
5.6200 -3.7153 -0.3031
5.6400 -3.7287 -0.3016
5.6600 -3.7420 -0.3002
5.6800 -3.7554 -0.3004
5.7000 -3.7687 -0.2976
5.7200 -3.7820 -0.2987
5.7400 -3.7953 -0.2966
5.7600 -3.8086 -0.2963
5.7800 -3.8220 -0.2967
5.8000 -3.8352 -0.2963
5.8200 -3.8486 -0.2968
5.8400 -3.8619 -0.2960
5.8600 -3.8753 -0.2942
5.8800 -3.8886 -0.2941
5.9000 -3.9019 -0.2938
5.9200 -3.9152 -0.2918
5.9400 -3.9286 -0.2939
5.9600 -3.9420 -0.2911
5.9800 -3.9553 -0.2909
6.0000 -3.9686 -0.2901
6.0200 -3.9820 -0.2889
6.0400 -3.9954 -0.2879
6.0600 -4.0087 -0.2898
6.0800 -4.0220 -0.2897
6.1000 -4.0353 -0.2879
6.1200 -4.0487 -0.2855
6.1400 -4.0620 -0.2852
6.1600 -4.0752 -0.2871
6.1800 -4.0886 -0.2845
6.2000 -4.1019 -0.2831
6.2200 -4.1153 -0.2828
6.2400 -4.1286 -0.2842
6.2600 -4.1419 -0.2839
6.2800 -4.1552 -0.2812
6.3000 -4.1686 -0.2827
6.3200 -4.1820 -0.2805
6.3400 -4.1953 -0.2825
6.3600 -4.2086 -0.2825
6.3800 -4.2220 -0.2831
6.4000 -4.2353 -0.2803
6.4200 -4.2486 -0.2830
6.4400 -4.2620 -0.2796
6.4600 -4.2753 -0.2811
6.4800 -4.2886 -0.2811
6.5000 -4.3020 -0.2834
6.5200 -4.3153 -0.2832
6.5400 -4.3286 -0.2842
6.5600 -4.3419 -0.2838
6.5800 -4.3553 -0.2822
6.6000 -4.3686 -0.2840
6.6200 -4.3819 -0.2840
6.6400 -4.3952 -0.2836
6.6600 -4.4086 -0.2816
6.6800 -4.4220 -0.2813
6.7000 -4.4353 -0.2816
6.7200 -4.4486 -0.2808
6.7400 -4.4620 -0.2822
6.7600 -4.4753 -0.2831
6.7800 -4.4887 -0.2822
6.8000 -4.5020 -0.2834
6.8200 -4.5153 -0.2824
6.8400 -4.5286 -0.2810
6.8600 -4.5419 -0.2790
6.8800 -4.5552 -0.2783
6.9000 -4.5685 -0.2800
6.9200 -4.5819 -0.2794
6.9400 -4.5953 -0.2781
6.9600 -4.6086 -0.2777
6.9800 -4.6219 -0.2741
7.0000 -4.6353 -0.2746
7.0200 -4.6487 -0.2733
7.0400 -4.6620 -0.2720
7.0600 -4.6753 -0.2712
7.0800 -4.6886 -0.2719
7.1000 -4.7020 -0.2708
7.1200 -4.7153 -0.2700
7.1400 -4.7287 -0.2691
7.1600 -4.7420 -0.2676
7.1800 -4.7553 -0.2667
7.2000 -4.7687 -0.2662
7.2200 -4.7820 -0.2644
7.2400 -4.7953 -0.2641
7.2600 -4.8086 -0.2644
7.2800 -4.8219 -0.2626
7.3000 -4.8353 -0.2587
7.3200 -4.8486 -0.2605
7.3400 -4.8619 -0.2578
7.3600 -4.8752 -0.2566
7.3800 -4.8886 -0.2575
7.4000 -4.9020 -0.2566
7.4200 -4.9153 -0.2530
7.4400 -4.9286 -0.2544
7.4600 -4.9420 -0.2524
7.4800 -4.9553 -0.2527
7.5000 -4.9687 -0.2505
7.5200 -4.9820 -0.2510
7.5400 -4.9953 -0.2493
7.5600 -5.0086 -0.2506
7.5800 -5.0220 -0.2487
7.6000 -5.0353 -0.2486
7.6200 -5.0486 -0.2477
7.6400 -5.0619 -0.2503
7.6600 -5.0753 -0.2469
7.6800 -5.0886 -0.2474
7.7000 -5.1019 -0.2467
7.7200 -5.1153 -0.2458
7.7400 -5.1286 -0.2499
7.7600 -5.1420 -0.2465
7.7800 -5.1553 -0.2482
7.8000 -5.1686 -0.2463
7.8200 -5.1819 -0.2470
7.8400 -5.1953 -0.2454
7.8600 -5.2086 -0.2451
7.8800 -5.2219 -0.2443
7.9000 -5.2352 -0.2440
7.9200 -5.2486 -0.2443
7.9400 -5.2619 -0.2448
7.9600 -5.2752 -0.2424
7.9800 -5.2885 -0.2446
8.0000 -5.3019 -0.2445
8.0200 -5.3153 -0.2442
8.0400 -5.3286 -0.2425
8.0600 -5.3420 -0.2444
8.0800 -5.3553 -0.2432
8.1000 -5.3687 -0.2422
8.1200 -5.3820 -0.2432
8.1400 -5.3953 -0.2418
8.1600 -5.4086 -0.2424
8.1800 -5.4220 -0.2422
8.2000 -5.4353 -0.2439
8.2200 -5.4487 -0.2409
8.2400 -5.4620 -0.2418
8.2600 -5.4753 -0.2398
8.2800 -5.4886 -0.2414
8.3000 -5.5019 -0.2401
8.3200 -5.5152 -0.2419
8.3400 -5.5285 -0.2399
8.3600 -5.5419 -0.2419
8.3800 -5.5552 -0.2382
8.4000 -5.5686 -0.2367
8.4200 -5.5819 -0.2396
8.4400 -5.5953 -0.2355
8.4600 -5.6086 -0.2370
8.4800 -5.6220 -0.2361
8.5000 -5.6353 -0.2373
8.5200 -5.6487 -0.2352
8.5400 -5.6620 -0.2364
8.5600 -5.6753 -0.2334
8.5800 -5.6887 -0.2327
8.6000 -5.7020 -0.2322
8.6200 -5.7153 -0.2321
8.6400 -5.7286 -0.2300
8.6600 -5.7419 -0.2299
8.6800 -5.7552 -0.2311
8.7000 -5.7685 -0.2296
8.7200 -5.7819 -0.2300
8.7400 -5.7952 -0.2260
8.7600 -5.8086 -0.2264
8.7800 -5.8219 -0.2263
8.8000 -5.8352 -0.2267
8.8200 -5.8486 -0.2246
8.8400 -5.8620 -0.2268
8.8600 -5.8754 -0.2231
8.8800 -5.8887 -0.2229
8.9000 -5.9020 -0.2227
8.9200 -5.9153 -0.2219
8.9400 -5.9287 -0.2207
8.9600 -5.9420 -0.2217
8.9800 -5.9553 -0.2193
9.0000 -5.9686 -0.2198
9.0200 -5.9819 -0.2197
9.0400 -5.9952 -0.2159
9.0600 -6.0085 -0.2154
9.0800 -6.0219 -0.2149
9.1000 -6.0353 -0.2160
9.1200 -6.0486 -0.2132
9.1400 -6.0620 -0.2156
9.1600 -6.0753 -0.2142
9.1800 -6.0886 -0.2146
9.2000 -6.1020 -0.2128
9.2200 -6.1153 -0.2108
9.2400 -6.1286 -0.2091
9.2600 -6.1419 -0.2108
9.2800 -6.1553 -0.2085
9.3000 -6.1686 -0.2089
9.3200 -6.1820 -0.2095
9.3400 -6.1953 -0.2068
9.3600 -6.2086 -0.2083
9.3800 -6.2220 -0.2087
9.4000 -6.2353 -0.2079
9.4200 -6.2486 -0.2058
9.4400 -6.2619 -0.2044
9.4600 -6.2753 -0.2046
9.4800 -6.2886 -0.2055
9.5000 -6.3019 -0.2051
9.5200 -6.3153 -0.2049
9.5400 -6.3286 -0.2039
9.5600 -6.3420 -0.2057
9.5800 -6.3554 -0.2019
9.6000 -6.3687 -0.2048
9.6200 -6.3820 -0.2018
9.6400 -6.3953 -0.2037
9.6600 -6.4087 -0.1993
9.6800 -6.4220 -0.2045
9.7000 -6.4353 -0.2001
9.7200 -6.4486 -0.2024
9.7400 -6.4619 -0.2019
9.7600 -6.4752 -0.2021
9.7800 -6.4885 -0.2014
9.8000 -6.5019 -0.2040
9.8200 -6.5153 -0.2012
9.8400 -6.5286 -0.1996
9.8600 -6.5419 -0.2001
9.8800 -6.5553 -0.1994
9.9000 -6.5686 -0.2017
9.9200 -6.5820 -0.1997
9.9400 -6.5953 -0.1998
9.9600 -6.6086 -0.1986
9.9800 -6.6220 -0.2001
10.0000 -6.6353 -0.1982
10.0200 -6.6487 -0.1954
10.0400 -6.6620 -0.1981
10.0600 -6.6753 -0.1955
10.0800 -6.6886 -0.1958
10.1000 -6.7020 -0.1946
10.1200 -6.7153 -0.1957
10.1400 -6.7286 -0.1915
10.1600 -6.7419 -0.1954
10.1800 -6.7552 -0.1935
10.2000 -6.7686 -0.1928
10.2200 -6.7819 -0.1907
10.2400 -6.7952 -0.1923
10.2600 -6.8086 -0.1910
10.2800 -6.8220 -0.1916
10.3000 -6.8353 -0.1897
10.3200 -6.8486 -0.1876
10.3400 -6.8619 -0.1880
10.3600 -6.8753 -0.1863
10.3800 -6.8887 -0.1858
10.4000 -6.9020 -0.1864
10.4200 -6.9153 -0.1853
10.4400 -6.9286 -0.1847
10.4600 -6.9420 -0.1849
10.4800 -6.9553 -0.1848
10.5000 -6.9686 -0.1837
10.5200 -6.9819 -0.1857
10.5400 -6.9952 -0.1841
10.5600 -7.0086 -0.1833
10.5800 -7.0219 -0.1820
10.6000 -7.0353 -0.1827
10.6200 -7.0486 -0.1818
10.6400 -7.0620 -0.1843
10.6600 -7.0753 -0.1817
10.6800 -7.0886 -0.1823
10.7000 -7.1019 -0.1855
10.7200 -7.1153 -0.1842
10.7400 -7.1286 -0.1858
10.7600 -7.1419 -0.1838
10.7800 -7.1553 -0.1845
10.8000 -7.1686 -0.1840
10.8200 -7.1819 -0.1880
10.8400 -7.1953 -0.1851
10.8600 -7.2086 -0.1856
10.8800 -7.2219 -0.1848
10.9000 -7.2353 -0.1844
10.9200 -7.2486 -0.1816
10.9400 -7.2620 -0.1844
10.9600 -7.2753 -0.1816
10.9800 -7.2886 -0.1817
11.0000 -7.3020 -0.1814
11.0200 -7.3153 -0.1823
11.0400 -7.3286 -0.1794
11.0600 -7.3419 -0.1811
11.0800 -7.3553 -0.1789
11.1000 -7.3686 -0.1770
11.1200 -7.3820 -0.1796
11.1400 -7.3953 -0.1767
11.1600 -7.4086 -0.1754
11.1800 -7.4219 -0.1769
11.2000 -7.4352 -0.1746
11.2200 -7.4486 -0.1763
11.2400 -7.4619 -0.1776
11.2600 -7.4753 -0.1747
11.2800 -7.4887 -0.1725
11.3000 -7.5020 -0.1747
11.3200 -7.5153 -0.1729
11.3400 -7.5286 -0.1713
11.3600 -7.5420 -0.1697
11.3800 -7.5553 -0.1693
11.4000 -7.5687 -0.1681
11.4200 -7.5820 -0.1717
11.4400 -7.5953 -0.1703
11.4600 -7.6087 -0.1670
11.4800 -7.6220 -0.1685
11.5000 -7.6353 -0.1659
11.5200 -7.6487 -0.1664
11.5400 -7.6620 -0.1658
11.5600 -7.6753 -0.1641
11.5800 -7.6886 -0.1644
11.6000 -7.7019 -0.1653
11.6200 -7.7152 -0.1646
11.6400 -7.7286 -0.1634
11.6600 -7.7419 -0.1654
11.6800 -7.7552 -0.1633
11.7000 -7.7686 -0.1614
11.7200 -7.7820 -0.1603
11.7400 -7.7953 -0.1593
11.7600 -7.8087 -0.1591
11.7800 -7.8220 -0.1610
11.8000 -7.8353 -0.1592
11.8200 -7.8487 -0.1577
11.8400 -7.8620 -0.1574
11.8600 -7.8753 -0.1580
11.8800 -7.8886 -0.1559
11.9000 -7.9019 -0.1571
11.9200 -7.9153 -0.1561
11.9400 -7.9286 -0.1556
11.9600 -7.9419 -0.1567
11.9800 -7.9552 -0.1543
12.0000 -7.9686 -0.1538
12.0200 -7.9820 -0.1560
12.0400 -7.9953 -0.1541
12.0600 -8.0086 -0.1527
12.0800 -8.0220 -0.1526
12.1000 -8.0353 -0.1501
12.1200 -8.0486 -0.1480
12.1400 -8.0619 -0.1504
12.1600 -8.0752 -0.1507
12.1800 -8.0886 -0.1500
12.2000 -8.1020 -0.1500
12.2200 -8.1153 -0.1478
12.2400 -8.1286 -0.1485
12.2600 -8.1420 -0.1482
12.2800 -8.1553 -0.1482
12.3000 -8.1686 -0.1480
12.3200 -8.1819 -0.1490
12.3400 -8.1952 -0.1472
12.3600 -8.2086 -0.1470
12.3800 -8.2219 -0.1484
12.4000 -8.2352 -0.1468
12.4200 -8.2486 -0.1446
12.4400 -8.2620 -0.1477
12.4600 -8.2753 -0.1467
12.4800 -8.2887 -0.1469
12.5000 -8.3020 -0.1447
12.5200 -8.3153 -0.1450
12.5400 -8.3287 -0.1438
12.5600 -8.3420 -0.1453
12.5800 -8.3553 -0.1442
12.6000 -8.3686 -0.1420
12.6200 -8.3819 -0.1412
12.6400 -8.3953 -0.1432
12.6600 -8.4086 -0.1401
12.6800 -8.4219 -0.1420
12.7000 -8.4352 -0.1406
12.7200 -8.4486 -0.1384
12.7400 -8.4619 -0.1393
12.7600 -8.4752 -0.1373
12.7800 -8.4886 -0.1371
12.8000 -8.5019 -0.1383
12.8200 -8.5153 -0.1355
12.8400 -8.5286 -0.1341
12.8600 -8.5419 -0.1344
12.8800 -8.5553 -0.1339
12.9000 -8.5686 -0.1334
12.9200 -8.5820 -0.1332
12.9400 -8.5953 -0.1332
12.9600 -8.6086 -0.1309
12.9800 -8.6220 -0.1298
13.0000 -8.6353 -0.1315
13.0200 -8.6486 -0.1283
13.0400 -8.6619 -0.1302
13.0600 -8.6752 -0.1295
13.0800 -8.6886 -0.1271
13.1000 -8.7019 -0.1277
13.1200 -8.7152 -0.1294
13.1400 -8.7286 -0.1282
13.1600 -8.7419 -0.1274
13.1800 -8.7553 -0.1280
13.2000 -8.7686 -0.1255
13.2200 -8.7820 -0.1271
13.2400 -8.7953 -0.1267
13.2600 -8.8087 -0.1240
13.2800 -8.8220 -0.1260
13.3000 -8.8353 -0.1260
13.3200 -8.8487 -0.1239
13.3400 -8.8620 -0.1260
13.3600 -8.8753 -0.1248
13.3800 -8.8886 -0.1265
13.4000 -8.9019 -0.1256
13.4200 -8.9152 -0.1270
13.4400 -8.9286 -0.1239
13.4600 -8.9419 -0.1221
13.4800 -8.9552 -0.1234
13.5000 -8.9686 -0.1233
13.5200 -8.9819 -0.1239
13.5400 -8.9953 -0.1239
13.5600 -9.0086 -0.1210
13.5800 -9.0219 -0.1229
13.6000 -9.0353 -0.1222
13.6200 -9.0486 -0.1225
13.6400 -9.0620 -0.1189
13.6600 -9.0753 -0.1237
13.6800 -9.0886 -0.1209
13.7000 -9.1020 -0.1214
13.7200 -9.1153 -0.1215
13.7400 -9.1286 -0.1188
13.7600 -9.1419 -0.1194
13.7800 -9.1552 -0.1209
13.8000 -9.1686 -0.1194
13.8200 -9.1819 -0.1190
13.8400 -9.1952 -0.1194
13.8600 -9.2086 -0.1177
13.8800 -9.2219 -0.1187
13.9000 -9.2353 -0.1206
13.9200 -9.2487 -0.1179
13.9400 -9.2620 -0.1177
13.9600 -9.2753 -0.1174
13.9800 -9.2887 -0.1175
14.0000 -9.3020 -0.1140
14.0200 -9.3153 -0.1189
14.0400 -9.3286 -0.1130
14.0600 -9.3419 -0.1149
14.0800 -9.3552 -0.1130
14.1000 -9.3685 -0.1134
14.1200 -9.3818 -0.1121
14.1400 -9.3952 -0.1154
14.1600 -9.4086 -0.1114
14.1800 -9.4219 -0.1132
14.2000 -9.4353 -0.1104
14.2200 -9.4486 -0.1092
14.2400 -9.4620 -0.1080
14.2600 -9.4753 -0.1076
14.2800 -9.4887 -0.1064
14.3000 -9.5020 -0.1058
14.3200 -9.5153 -0.1085
14.3400 -9.5287 -0.1057
14.3600 -9.5420 -0.1038
14.3800 -9.5553 -0.1043
14.4000 -9.5687 -0.1034
14.4200 -9.5820 -0.1037
14.4400 -9.5953 -0.1040
14.4600 -9.6086 -0.0998
14.4800 -9.6219 -0.1004
14.5000 -9.6352 -0.1001
14.5200 -9.6486 -0.0984
14.5400 -9.6619 -0.0950
14.5600 -9.6752 -0.0977
14.5800 -9.6885 -0.0944
14.6000 -9.7019 -0.0936
14.6200 -9.7153 -0.0967
14.6400 -9.7287 -0.0960
14.6600 -9.7420 -0.0947
14.6800 -9.7553 -0.0928
14.7000 -9.7687 -0.0907
14.7200 -9.7820 -0.0900
14.7400 -9.7953 -0.0925
14.7600 -9.8086 -0.0908
14.7800 -9.8219 -0.0886
14.8000 -9.8353 -0.0919
14.8200 -9.8486 -0.0896
14.8400 -9.8619 -0.0906
14.8600 -9.8752 -0.0888
14.8800 -9.8886 -0.0879
14.9000 -9.9019 -0.0856
14.9200 -9.9153 -0.0898
14.9400 -9.9286 -0.0888
14.9600 -9.9420 -0.0914
14.9800 -9.9553 -0.0914
15.0000 -9.9687 -0.0904
15.0200 -9.9820 -0.0902
15.0400 -9.9953 -0.0897
15.0600 -10.0086 -0.0896
15.0800 -10.0220 -0.0886
15.1000 -10.0353 -0.0939
15.1200 -10.0486 -0.0903
15.1400 -10.0619 -0.0904
15.1600 -10.0753 -0.0898
15.1800 -10.0886 -0.0869
15.2000 -10.1019 -0.0886
15.2200 -10.1152 -0.0886
15.2400 -10.1286 -0.0892
15.2600 -10.1420 -0.0855
15.2800 -10.1553 -0.0873
15.3000 -10.1686 -0.0872
15.3200 -10.1820 -0.0883
15.3400 -10.1953 -0.0885
15.3600 -10.2087 -0.0864
15.3800 -10.2220 -0.0852
15.4000 -10.2353 -0.0874
15.4200 -10.2487 -0.0844
15.4400 -10.2620 -0.0842
15.4600 -10.2753 -0.0849
15.4800 -10.2886 -0.0836
15.5000 -10.3019 -0.0833
15.5200 -10.3153 -0.0834
15.5400 -10.3286 -0.0822
15.5600 -10.3419 -0.0810
15.5800 -10.3552 -0.0818
15.6000 -10.3685 -0.0810
15.6200 -10.3819 -0.0788
15.6400 -10.3952 -0.0828
15.6600 -10.4086 -0.0810
15.6800 -10.4219 -0.0801
15.7000 -10.4353 -0.0802
15.7200 -10.4487 -0.0774
15.7400 -10.4620 -0.0768
15.7600 -10.4753 -0.0780
15.7800 -10.4887 -0.0775
15.8000 -10.5020 -0.0744
15.8200 -10.5153 -0.0778
15.8400 -10.5286 -0.0755
15.8600 -10.5420 -0.0748
15.8800 -10.5553 -0.0746
15.9000 -10.5686 -0.0713
15.9200 -10.5819 -0.0699
15.9400 -10.5952 -0.0729
15.9600 -10.6085 -0.0691
15.9800 -10.6219 -0.0696
16.0000 -10.6352 -0.0710
16.0200 -10.6486 -0.0699
16.0400 -10.6619 -0.0672
16.0600 -10.6753 -0.0688
16.0800 -10.6887 -0.0681
16.1000 -10.7020 -0.0679
16.1200 -10.7153 -0.0704
16.1400 -10.7286 -0.0682
16.1600 -10.7420 -0.0663
16.1800 -10.7553 -0.0665
16.2000 -10.7686 -0.0642
16.2200 -10.7819 -0.0614
16.2400 -10.7953 -0.0659
16.2600 -10.8086 -0.0635
16.2800 -10.8219 -0.0623
16.3000 -10.8352 -0.0639
16.3200 -10.8485 -0.0615
16.3400 -10.8619 -0.0626
16.3600 -10.8753 -0.0620
16.3800 -10.8886 -0.0601
16.4000 -10.9019 -0.0598
16.4200 -10.9153 -0.0596
16.4400 -10.9287 -0.0585
16.4600 -10.9419 -0.0576
16.4800 -10.9552 -0.0605
16.5000 -10.9686 -0.0577
16.5200 -10.9820 -0.0582
16.5400 -10.9953 -0.0580
16.5600 -11.0086 -0.0573
16.5800 -11.0219 -0.0566
16.6000 -11.0353 -0.0586
16.6200 -11.0486 -0.0561
16.6400 -11.0619 -0.0525
16.6600 -11.0752 -0.0559
16.6800 -11.0886 -0.0539
16.7000 -11.1019 -0.0547
16.7200 -11.1153 -0.0540
16.7400 -11.1286 -0.0542
16.7600 -11.1420 -0.0520
16.7800 -11.1553 -0.0555
16.8000 -11.1687 -0.0525
16.8200 -11.1820 -0.0530
16.8400 -11.1953 -0.0532
16.8600 -11.2087 -0.0552
16.8800 -11.2220 -0.0534
16.9000 -11.2353 -0.0540
16.9200 -11.2486 -0.0522
16.9400 -11.2619 -0.0507
16.9600 -11.2753 -0.0519
16.9800 -11.2886 -0.0508
17.0000 -11.3019 -0.0480
17.0200 -11.3152 -0.0499
17.0400 -11.3285 -0.0495
17.0600 -11.3419 -0.0492
17.0800 -11.3553 -0.0508
17.1000 -11.3686 -0.0482
17.1200 -11.3819 -0.0470
17.1400 -11.3953 -0.0450
17.1600 -11.4087 -0.0454
17.1800 -11.4220 -0.0421
17.2000 -11.4353 -0.0459
17.2200 -11.4486 -0.0457
17.2400 -11.4620 -0.0453
17.2600 -11.4753 -0.0447
17.2800 -11.4886 -0.0456
17.3000 -11.5019 -0.0424
17.3200 -11.5153 -0.0452
17.3400 -11.5286 -0.0434
17.3600 -11.5419 -0.0393
17.3800 -11.5552 -0.0415
17.4000 -11.5686 -0.0385
17.4200 -11.5819 -0.0369
17.4400 -11.5953 -0.0381
17.4600 -11.6086 -0.0392
17.4800 -11.6219 -0.0366
17.5000 -11.6353 -0.0382
17.5200 -11.6486 -0.0378
17.5400 -11.6620 -0.0359
17.5600 -11.6753 -0.0371
17.5800 -11.6886 -0.0354
17.6000 -11.7020 -0.0355
17.6200 -11.7153 -0.0338
17.6400 -11.7286 -0.0326
17.6600 -11.7420 -0.0296
17.6800 -11.7553 -0.0330
17.7000 -11.7687 -0.0336
17.7200 -11.7820 -0.0333
17.7400 -11.7952 -0.0316
17.7600 -11.8086 -0.0343
17.7800 -11.8219 -0.0306
17.8000 -11.8353 -0.0335
17.8200 -11.8486 -0.0315
17.8400 -11.8619 -0.0314
17.8600 -11.8753 -0.0291
17.8800 -11.8887 -0.0297
17.9000 -11.9020 -0.0278
17.9200 -11.9153 -0.0293
17.9400 -11.9286 -0.0282
17.9600 -11.9420 -0.0264
17.9800 -11.9553 -0.0278
18.0000 -11.9686 -0.0289
18.0200 -11.9819 -0.0264
18.0400 -11.9953 -0.0292
18.0600 -12.0086 -0.0292
18.0800 -12.0219 -0.0243
18.1000 -12.0352 -0.0266
18.1200 -12.0486 -0.0246
18.1400 -12.0619 -0.0267
18.1600 -12.0753 -0.0267
18.1800 -12.0886 -0.0257
18.2000 -12.1019 -0.0258
18.2200 -12.1153 -0.0252
18.2400 -12.1287 -0.0253
18.2600 -12.1420 -0.0247
18.2800 -12.1553 -0.0259
18.3000 -12.1686 -0.0271
18.3200 -12.1820 -0.0246
18.3400 -12.1953 -0.0277
18.3600 -12.2086 -0.0245
18.3800 -12.2219 -0.0238
18.4000 -12.2353 -0.0215
18.4200 -12.2486 -0.0237
18.4400 -12.2619 -0.0213
18.4600 -12.2752 -0.0222
18.4800 -12.2886 -0.0208
18.5000 -12.3019 -0.0217
18.5200 -12.3153 -0.0220
18.5400 -12.3286 -0.0232
18.5600 -12.3419 -0.0210
18.5800 -12.3553 -0.0225
18.6000 -12.3687 -0.0216
18.6200 -12.3820 -0.0222
18.6400 -12.3953 -0.0219
18.6600 -12.4086 -0.0213
18.6800 -12.4220 -0.0199
18.7000 -12.4353 -0.0193
18.7200 -12.4486 -0.0199
18.7400 -12.4620 -0.0167
18.7600 -12.4753 -0.0184
18.7800 -12.4887 -0.0191
18.8000 -12.5020 -0.0174
18.8200 -12.5153 -0.0165
18.8400 -12.5286 -0.0180
18.8600 -12.5419 -0.0159
18.8800 -12.5552 -0.0173
18.9000 -12.5685 -0.0173
18.9200 -12.5819 -0.0156
18.9400 -12.5953 -0.0158
18.9600 -12.6086 -0.0160
18.9800 -12.6220 -0.0134
19.0000 -12.6353 -0.0136
19.0200 -12.6486 -0.0127
19.0400 -12.6620 -0.0122
19.0600 -12.6754 -0.0111
19.0800 -12.6887 -0.0157
19.1000 -12.7020 -0.0104
19.1200 -12.7153 -0.0122
19.1400 -12.7286 -0.0102
19.1600 -12.7419 -0.0097
19.1800 -12.7552 -0.0110
19.2000 -12.7686 -0.0104
19.2200 -12.7819 -0.0085
19.2400 -12.7953 -0.0076
19.2600 -12.8086 -0.0076
19.2800 -12.8219 -0.0062
19.3000 -12.8353 -0.0071
19.3200 -12.8487 -0.0059
19.3400 -12.8620 -0.0042
19.3600 -12.8753 -0.0050
19.3800 -12.8886 -0.0059
19.4000 -12.9019 -0.0038
19.4200 -12.9153 -0.0044
19.4400 -12.9286 -0.0044
19.4600 -12.9419 -0.0046
19.4800 -12.9553 -0.0025
19.5000 -12.9686 -0.0027
19.5200 -12.9819 0.0007
19.5400 -12.9952 -0.0018
19.5600 -13.0086 -0.0016
19.5800 -13.0219 -0.0010
19.6000 -13.0353 -0.0001
19.6200 -13.0486 -0.0017
19.6400 -13.0619 0.0027
19.6600 -13.0753 0.0029
19.6800 -13.0886 0.0019
19.7000 -13.1020 0.0064
19.7200 -13.1153 0.0051
19.7400 -13.1286 0.0042
19.7600 -13.1420 0.0068
19.7800 -13.1554 0.0084
19.8000 -13.1687 0.0080
19.8200 -13.1820 0.0123
19.8400 -13.1953 0.0109
19.8600 -13.2086 0.0100
19.8800 -13.2219 0.0119
19.9000 -13.2352 0.0124
19.9200 -13.2485 0.0130
19.9400 -13.2619 0.0162
19.9600 -13.2752 0.0179
19.9800 -13.2886 0.0167
20.0000 -13.3019 0.0198
20.0200 -13.3153 0.0185
20.0400 -13.3287 0.0206
20.0600 -13.3420 0.0216
20.0800 -13.3553 0.0193
20.1000 -13.3686 0.0189
20.1200 -13.3820 0.0195
20.1400 -13.3953 0.0192
20.1600 -13.4087 0.0192
20.1800 -13.4220 0.0196
20.2000 -13.4353 0.0184
20.2200 -13.4486 0.0175
20.2400 -13.4620 0.0206
20.2600 -13.4753 0.0182
20.2800 -13.4886 0.0168
20.3000 -13.5019 0.0183
20.3200 -13.5153 0.0171
20.3400 -13.5286 0.0177
20.3600 -13.5419 0.0168
20.3800 -13.5552 0.0168
20.4000 -13.5686 0.0141
20.4200 -13.5820 0.0155
20.4400 -13.5953 0.0149
20.4600 -13.6086 0.0136
20.4800 -13.6219 0.0145
20.5000 -13.6353 0.0146
20.5200 -13.6487 0.0133
20.5400 -13.6620 0.0140
20.5600 -13.6753 0.0153
20.5800 -13.6886 0.0131
20.6000 -13.7020 0.0140
20.6200 -13.7152 0.0143
20.6400 -13.7285 0.0141
20.6600 -13.7419 0.0153
20.6800 -13.7553 0.0176
20.7000 -13.7686 0.0156
20.7200 -13.7819 0.0150
20.7400 -13.7952 0.0162
20.7600 -13.8086 0.0158
20.7800 -13.8220 0.0190
20.8000 -13.8353 0.0185
20.8200 -13.8486 0.0182
20.8400 -13.8620 0.0179
20.8600 -13.8753 0.0183
20.8800 -13.8887 0.0192
20.9000 -13.9020 0.0220
20.9200 -13.9153 0.0228
20.9400 -13.9287 0.0227
20.9600 -13.9420 0.0233
20.9800 -13.9553 0.0229
21.0000 -13.9686 0.0236
21.0200 -13.9819 0.0269
21.0400 -13.9953 0.0269
21.0600 -14.0086 0.0259
21.0800 -14.0219 0.0277
21.1000 -14.0352 0.0277
21.1200 -14.0486 0.0282
21.1400 -14.0620 0.0280
21.1600 -14.0753 0.0287
21.1800 -14.0887 0.0285
21.2000 -14.1020 0.0321
21.2200 -14.1154 0.0313
21.2400 -14.1287 0.0324
21.2600 -14.1420 0.0348
21.2800 -14.1553 0.0360
21.3000 -14.1686 0.0345
21.3200 -14.1819 0.0386
21.3400 -14.1952 0.0380
21.3600 -14.2085 0.0373
21.3800 -14.2219 0.0382
21.4000 -14.2353 0.0409
21.4200 -14.2486 0.0410
21.4400 -14.2619 0.0408
21.4600 -14.2753 0.0413
21.4800 -14.2886 0.0408
21.5000 -14.3020 0.0426
21.5200 -14.3153 0.0427
21.5400 -14.3286 0.0415
21.5600 -14.3419 0.0449
21.5800 -14.3553 0.0445
21.6000 -14.3687 0.0431
21.6200 -14.3820 0.0456
21.6400 -14.3953 0.0462
21.6600 -14.4087 0.0487
21.6800 -14.4220 0.0490
21.7000 -14.4353 0.0476
21.7200 -14.4486 0.0468
21.7400 -14.4619 0.0485
21.7600 -14.4753 0.0501
21.7800 -14.4886 0.0502
21.8000 -14.5019 0.0505
21.8200 -14.5152 0.0501
21.8400 -14.5286 0.0508
21.8600 -14.5420 0.0540
21.8800 -14.5553 0.0532
21.9000 -14.5686 0.0548
21.9200 -14.5820 0.0554
21.9400 -14.5953 0.0560
21.9600 -14.6087 0.0555
21.9800 -14.6220 0.0569
22.0000 -14.6353 0.0597
22.0200 -14.6486 0.0589
22.0400 -14.6619 0.0605
22.0600 -14.6752 0.0603
22.0800 -14.6885 0.0586
22.1000 -14.7019 0.0617
22.1200 -14.7153 0.0599
22.1400 -14.7286 0.0598
22.1600 -14.7419 0.0610
22.1800 -14.7553 0.0609
22.2000 -14.7686 0.0628
22.2200 -14.7820 0.0622
22.2400 -14.7953 0.0625
22.2600 -14.8086 0.0641
22.2800 -14.8220 0.0647
22.3000 -14.8353 0.0642
22.3200 -14.8487 0.0634
22.3400 -14.8619 0.0642
22.3600 -14.8752 0.0652
22.3800 -14.8886 0.0645
22.4000 -14.9019 0.0657
22.4200 -14.9152 0.0655
22.4400 -14.9285 0.0665
22.4600 -14.9419 0.0660
22.4800 -14.9553 0.0672
22.5000 -14.9686 0.0669
22.5200 -14.9820 0.0666
22.5400 -14.9953 0.0688
22.5600 -15.0087 0.0656
22.5800 -15.0220 0.0667
22.6000 -15.0353 0.0668
22.6200 -15.0486 0.0682
22.6400 -15.0620 0.0685
22.6600 -15.0753 0.0696
22.6800 -15.0887 0.0692
22.7000 -15.1020 0.0693
22.7200 -15.1153 0.0696
22.7400 -15.1286 0.0684
22.7600 -15.1419 0.0696
22.7800 -15.1552 0.0713
22.8000 -15.1685 0.0702
22.8200 -15.1818 0.0698
22.8400 -15.1952 0.0710
22.8600 -15.2086 0.0710
22.8800 -15.2219 0.0733
22.9000 -15.2352 0.0748
22.9200 -15.2486 0.0735
22.9400 -15.2620 0.0749
22.9600 -15.2753 0.0765
22.9800 -15.2886 0.0758
23.0000 -15.3020 0.0756
23.0200 -15.3153 0.0764
23.0400 -15.3287 0.0760
23.0600 -15.3420 0.0734
23.0800 -15.3553 0.0741
23.1000 -15.3686 0.0725
23.1200 -15.3819 0.0730
23.1400 -15.3952 0.0737
23.1600 -15.4085 0.0726
23.1800 -15.4218 0.0737
23.2000 -15.4352 0.0738
23.2200 -15.4486 0.0735
23.2400 -15.4619 0.0755
23.2600 -15.4752 0.0757
23.2800 -15.4886 0.0763
23.3000 -15.5020 0.0758
23.3200 -15.5154 0.0776
23.3400 -15.5287 0.0785
23.3600 -15.5420 0.0757
23.3800 -15.5553 0.0786
23.4000 -15.5687 0.0778
23.4200 -15.5820 0.0778
23.4400 -15.5953 0.0775
23.4600 -15.6086 0.0806
23.4800 -15.6219 0.0796
23.5000 -15.6353 0.0803
23.5200 -15.6486 0.0781
23.5400 -15.6619 0.0795
23.5600 -15.6753 0.0821
23.5800 -15.6886 0.0814
23.6000 -15.7020 0.0819
23.6200 -15.7153 0.0809
23.6400 -15.7286 0.0802
23.6600 -15.7420 0.0824
23.6800 -15.7553 0.0845
23.7000 -15.7686 0.0825
23.7200 -15.7819 0.0838
23.7400 -15.7953 0.0829
23.7600 -15.8086 0.0833
23.7800 -15.8220 0.0841
23.8000 -15.8353 0.0867
23.8200 -15.8486 0.0845
23.8400 -15.8620 0.0856
23.8600 -15.8753 0.0855
23.8800 -15.8886 0.0894
23.9000 -15.9019 0.0889
23.9200 -15.9153 0.0895
23.9400 -15.9286 0.0876
23.9600 -15.9419 0.0893
23.9800 -15.9552 0.0908
24.0000 -15.9686 0.0896
24.0200 -15.9820 0.0902
24.0400 -15.9954 0.0897
24.0600 -16.0087 0.0885
24.0800 -16.0220 0.0899
24.1000 -16.0354 0.0905
24.1200 -16.0487 0.0903
24.1400 -16.0620 0.0906
24.1600 -16.0753 0.0919
24.1800 -16.0886 0.0927
24.2000 -16.1019 0.0941
24.2200 -16.1152 0.0933
24.2400 -16.1285 0.0943
24.2600 -16.1418 0.0933
24.2800 -16.1552 0.0962
24.3000 -16.1686 0.0949
24.3200 -16.1819 0.0953
24.3400 -16.1953 0.0937
24.3600 -16.2086 0.0957
24.3800 -16.2220 0.0961
24.4000 -16.2353 0.0977
24.4200 -16.2486 0.0978
24.4400 -16.2620 0.0993
24.4600 -16.2753 0.0981
24.4800 -16.2887 0.0995
24.5000 -16.3020 0.0983
24.5200 -16.3153 0.1000
24.5400 -16.3286 0.1009
24.5600 -16.3420 0.1023
24.5800 -16.3553 0.1036
24.6000 -16.3686 0.1051
24.6200 -16.3819 0.1036
24.6400 -16.3952 0.1038
24.6600 -16.4086 0.1059
24.6800 -16.4219 0.1027
24.7000 -16.4352 0.1090
24.7200 -16.4486 0.1080
24.7400 -16.4620 0.1083
24.7600 -16.4753 0.1078
24.7800 -16.4886 0.1111
24.8000 -16.5019 0.1102
24.8200 -16.5153 0.1133
24.8400 -16.5286 0.1112
24.8600 -16.5420 0.1137
24.8800 -16.5553 0.1117
24.9000 -16.5686 0.1136
24.9200 -16.5820 0.1137
24.9400 -16.5953 0.1161
24.9600 -16.6086 0.1157
24.9800 -16.6219 0.1160
25.0000 -16.6353 0.1155
25.0200 -16.6486 0.1162
25.0400 -16.6620 0.1170
25.0600 -16.6753 0.1207
25.0800 -16.6886 0.1198
25.1000 -16.7020 0.1204
25.1200 -16.7154 0.1210
25.1400 -16.7286 0.1207
25.1600 -16.7419 0.1222
25.1800 -16.7553 0.1210
25.2000 -16.7686 0.1243
25.2200 -16.7820 0.1246
25.2400 -16.7953 0.1240
25.2600 -16.8086 0.1252
25.2800 -16.8219 0.1245
25.3000 -16.8353 0.1263
25.3200 -16.8486 0.1251
25.3400 -16.8619 0.1268
25.3600 -16.8752 0.1276
25.3800 -16.8886 0.1292
25.4000 -16.9020 0.1287
25.4200 -16.9153 0.1282
25.4400 -16.9286 0.1301
25.4600 -16.9420 0.1303
25.4800 -16.9553 0.1301
25.5000 -16.9686 0.1300
25.5200 -16.9819 0.1306
25.5400 -16.9952 0.1308
25.5600 -17.0086 0.1313
25.5800 -17.0219 0.1312
25.6000 -17.0352 0.1328
25.6200 -17.0485 0.1328
25.6400 -17.0619 0.1342
25.6600 -17.0753 0.1343
25.6800 -17.0886 0.1351
25.7000 -17.1019 0.1352
25.7200 -17.1152 0.1350
25.7400 -17.1286 0.1351
25.7600 -17.1419 0.1370
25.7800 -17.1553 0.1366
25.8000 -17.1686 0.1393
25.8200 -17.1820 0.1390
25.8400 -17.1953 0.1399
25.8600 -17.2086 0.1384
25.8800 -17.2219 0.1399
25.9000 -17.2353 0.1402
25.9200 -17.2486 0.1434
25.9400 -17.2620 0.1426
25.9600 -17.2753 0.1437
25.9800 -17.2886 0.1446
26.0000 -17.3020 0.1458
26.0200 -17.3153 0.1451
26.0400 -17.3286 0.1458
26.0600 -17.3419 0.1441
26.0800 -17.3552 0.1445
26.1000 -17.3686 0.1473
26.1200 -17.3819 0.1476
26.1400 -17.3952 0.1478
26.1600 -17.4086 0.1501
26.1800 -17.4219 0.1521
26.2000 -17.4353 0.1511
26.2200 -17.4487 0.1499
26.2400 -17.4620 0.1491
26.2600 -17.4753 0.1493
26.2800 -17.4887 0.1514
26.3000 -17.5020 0.1518
26.3200 -17.5153 0.1506
26.3400 -17.5286 0.1528
26.3600 -17.5420 0.1520
26.3800 -17.5553 0.1542
26.4000 -17.5686 0.1557
26.4200 -17.5819 0.1543
26.4400 -17.5953 0.1557
26.4600 -17.6086 0.1550
26.4800 -17.6220 0.1551
26.5000 -17.6353 0.1537
26.5200 -17.6486 0.1563
26.5400 -17.6620 0.1553
26.5600 -17.6753 0.1551
26.5800 -17.6887 0.1557
26.6000 -17.7019 0.1562
26.6200 -17.7153 0.1562
26.6400 -17.7286 0.1581
26.6600 -17.7420 0.1571
26.6800 -17.7553 0.1572
26.7000 -17.7686 0.1581
26.7200 -17.7819 0.1578
26.7400 -17.7953 0.1595
26.7600 -17.8086 0.1597
26.7800 -17.8219 0.1600
26.8000 -17.8352 0.1624
26.8200 -17.8486 0.1623
26.8400 -17.8619 0.1630
26.8600 -17.8753 0.1624
26.8800 -17.8886 0.1652
26.9000 -17.9019 0.1643
26.9200 -17.9153 0.1655
26.9400 -17.9286 0.1653
26.9600 -17.9420 0.1687
26.9800 -17.9553 0.1678
27.0000 -17.9687 0.1707
27.0200 -17.9820 0.1717
27.0400 -17.9953 0.1714
27.0600 -18.0086 0.1710
27.0800 -18.0220 0.1722
27.1000 -18.0353 0.1736
27.1200 -18.0486 0.1754
27.1400 -18.0619 0.1747
27.1600 -18.0752 0.1753
27.1800 -18.0886 0.1759
27.2000 -18.1019 0.1763
27.2200 -18.1152 0.1772
27.2400 -18.1286 0.1779
27.2600 -18.1419 0.1777
27.2800 -18.1553 0.1769
27.3000 -18.1687 0.1791
27.3200 -18.1820 0.1787
27.3400 -18.1953 0.1791
27.3600 -18.2087 0.1803
27.3800 -18.2220 0.1798
27.4000 -18.2353 0.1810
27.4200 -18.2486 0.1850
27.4400 -18.2620 0.1826
27.4600 -18.2753 0.1833
27.4800 -18.2886 0.1824
27.5000 -18.3019 0.1846
27.5200 -18.3152 0.1847
27.5400 -18.3286 0.1852
27.5600 -18.3419 0.1835
27.5800 -18.3552 0.1841
27.6000 -18.3686 0.1841
27.6200 -18.3819 0.1864
27.6400 -18.3953 0.1867
27.6600 -18.4086 0.1874
27.6800 -18.4220 0.1872
27.7000 -18.4353 0.1876
27.7200 -18.4486 0.1895
27.7400 -18.4620 0.1905
27.7600 -18.4753 0.1910
27.7800 -18.4887 0.1919
27.8000 -18.5020 0.1918
27.8200 -18.5153 0.1946
27.8400 -18.5286 0.1948
27.8600 -18.5419 0.1959
27.8800 -18.5552 0.1946
27.9000 -18.5686 0.1950
27.9200 -18.5819 0.1951
27.9400 -18.5953 0.1959
27.9600 -18.6086 0.1974
27.9800 -18.6219 0.1969
28.0000 -18.6353 0.1970
28.0200 -18.6486 0.1984
28.0400 -18.6619 0.1988
28.0600 -18.6753 0.1981
28.0800 -18.6886 0.1981
28.1000 -18.7020 0.1996
28.1200 -18.7153 0.1996
28.1400 -18.7286 0.2020
28.1600 -18.7420 0.2024
28.1800 -18.7553 0.2010
28.2000 -18.7686 0.2022
28.2200 -18.7819 0.2036
28.2400 -18.7952 0.2039
28.2600 -18.8086 0.2053
28.2800 -18.8219 0.2047
28.3000 -18.8353 0.2049
28.3200 -18.8486 0.2036
28.3400 -18.8619 0.2049
28.3600 -18.8753 0.2066
28.3800 -18.8887 0.2072
28.4000 -18.9020 0.2100
28.4200 -18.9153 0.2072
28.4400 -18.9287 0.2089
28.4600 -18.9420 0.2090
28.4800 -18.9553 0.2098
28.5000 -18.9686 0.2084
28.5200 -18.9819 0.2105
28.5400 -18.9952 0.2083
28.5600 -19.0086 0.2092
28.5800 -19.0219 0.2091
28.6000 -19.0352 0.2130
28.6200 -19.0486 0.2104
28.6400 -19.0619 0.2139
28.6600 -19.0753 0.2143
28.6800 -19.0886 0.2136
28.7000 -19.1020 0.2131
28.7200 -19.1153 0.2143
28.7400 -19.1287 0.2155
28.7600 -19.1420 0.2182
28.7800 -19.1553 0.2202
28.8000 -19.1686 0.2201
28.8200 -19.1820 0.2217
28.8400 -19.1953 0.2218
28.8600 -19.2086 0.2222
28.8800 -19.2220 0.2248
28.9000 -19.2353 0.2256
28.9200 -19.2486 0.2261
28.9400 -19.2619 0.2279
28.9600 -19.2752 0.2285
28.9800 -19.2886 0.2289
29.0000 -19.3019 0.2323
29.0200 -19.3152 0.2315
29.0400 -19.3285 0.2322
29.0600 -19.3419 0.2326
29.0800 -19.3553 0.2323
29.1000 -19.3687 0.2335
29.1200 -19.3820 0.2327
29.1400 -19.3953 0.2339
29.1600 -19.4086 0.2333
29.1800 -19.4220 0.2345
29.2000 -19.4353 0.2359
29.2200 -19.4486 0.2363
29.2400 -19.4619 0.2375
29.2600 -19.4753 0.2346
29.2800 -19.4886 0.2378
29.3000 -19.5019 0.2386
29.3200 -19.5152 0.2387
29.3400 -19.5286 0.2371
29.3600 -19.5419 0.2394
29.3800 -19.5553 0.2377
29.4000 -19.5686 0.2376
29.4200 -19.5819 0.2409
29.4400 -19.5953 0.2396
29.4600 -19.6087 0.2431
29.4800 -19.6220 0.2426
29.5000 -19.6353 0.2450
29.5200 -19.6486 0.2431
29.5400 -19.6620 0.2453
29.5600 -19.6753 0.2435
29.5800 -19.6886 0.2468
29.6000 -19.7019 0.2457
29.6200 -19.7153 0.2494
29.6400 -19.7286 0.2479
29.6600 -19.7419 0.2505
29.6800 -19.7552 0.2490
29.7000 -19.7686 0.2486
29.7200 -19.7820 0.2519
29.7400 -19.7953 0.2498
29.7600 -19.8086 0.2505
29.7800 -19.8219 0.2532
29.8000 -19.8353 0.2529
29.8200 -19.8487 0.2533
29.8400 -19.8620 0.2562
29.8600 -19.8753 0.2535
29.8800 -19.8886 0.2558
29.9000 -19.9020 0.2560
29.9200 -19.9153 0.2566
29.9400 -19.9286 0.2552
29.9600 -19.9419 0.2584
29.9800 -19.9553 0.2584
30.0000 -19.9686 0.2586
30.0200 -19.9819 0.2624
30.0400 -19.9952 0.2597
30.0600 -20.0085 0.2610
30.0800 -20.0219 0.2640
30.1000 -20.0353 0.2627
30.1200 -20.0486 0.2572
30.1400 -20.0619 0.2276
30.1600 -20.0753 0.1717
30.1800 -20.0887 0.1179
30.2000 -20.1020 0.0673
30.2200 -20.1153 0.0177
30.2400 -20.1287 -0.0366
30.2600 -20.1420 -0.0915
30.2800 -20.1553 -0.1500
30.3000 -20.1686 -0.2105
30.3200 -20.1819 -0.2630
30.3400 -20.1953 -0.3212
30.3600 -20.2086 -0.3787
30.3800 -20.2219 -0.4413
30.4000 -20.2352 -0.5019
30.4200 -20.2485 -0.5623
30.4400 -20.2619 -0.6060
30.4600 -20.2752 -0.6490
30.4800 -20.2886 -0.6850
30.5000 -20.3019 -0.7214
30.5200 -20.3153 -0.7541
30.5400 -20.3287 -0.7858
30.5600 -20.3420 -0.7959
30.5800 -20.3553 -0.7977
30.6000 -20.3686 -0.7973
30.6200 -20.3820 -0.7947
30.6400 -20.3953 -0.7962
30.6600 -20.4086 -0.7928
30.6800 -20.4219 -0.7910
30.7000 -20.4353 -0.7876
30.7200 -20.4486 -0.7887
30.7400 -20.4619 -0.7868
30.7600 -20.4752 -0.7855
30.7800 -20.4886 -0.7835
30.8000 -20.5019 -0.7794
30.8200 -20.5153 -0.7782
30.8400 -20.5286 -0.7783
30.8600 -20.5419 -0.7754
30.8800 -20.5553 -0.7749
30.9000 -20.5687 -0.7737
30.9200 -20.5819 -0.7718
30.9400 -20.5952 -0.7705
30.9600 -20.6086 -0.7684
30.9800 -20.6219 -0.7643
31.0000 -20.6353 -0.7654
31.0200 -20.6486 -0.7661
31.0400 -20.6619 -0.7627
31.0600 -20.6753 -0.7606
31.0800 -20.6886 -0.7587
31.1000 -20.7020 -0.7546
31.1200 -20.7153 -0.7551
31.1400 -20.7286 -0.7566
31.1600 -20.7419 -0.7531
31.1800 -20.7553 -0.7523
31.2000 -20.7686 -0.7487
31.2200 -20.7819 -0.7489
31.2400 -20.7953 -0.7473
31.2600 -20.8087 -0.7470
31.2800 -20.8220 -0.7437
31.3000 -20.8353 -0.7399
31.3200 -20.8487 -0.7418
31.3400 -20.8620 -0.7374
31.3600 -20.8754 -0.7367
31.3800 -20.8887 -0.7374
31.4000 -20.9019 -0.7314
31.4200 -20.9153 -0.7298
31.4400 -20.9286 -0.7294
31.4600 -20.9419 -0.7262
31.4800 -20.9552 -0.7259
31.5000 -20.9685 -0.7261
31.5200 -20.9819 -0.7229
31.5400 -20.9953 -0.7203
31.5600 -21.0086 -0.7207
31.5800 -21.0219 -0.7179
31.6000 -21.0353 -0.7163
31.6200 -21.0487 -0.7134
31.6400 -21.0620 -0.7120
31.6600 -21.0753 -0.7114
31.6800 -21.0886 -0.7119
31.7000 -21.1020 -0.7075
31.7200 -21.1153 -0.7068
31.7400 -21.1286 -0.7042
31.7600 -21.1419 -0.7013
31.7800 -21.1553 -0.6994
31.8000 -21.1687 -0.6987
31.8200 -21.1820 -0.6978
31.8400 -21.1952 -0.6967
31.8600 -21.2086 -0.6965
31.8800 -21.2219 -0.6921
31.9000 -21.2353 -0.6911
31.9200 -21.2486 -0.6906
31.9400 -21.2619 -0.6879
31.9600 -21.2752 -0.6870
31.9800 -21.2886 -0.6837
32.0000 -21.3020 -0.6803
32.0200 -21.3153 -0.6803
32.0400 -21.3286 -0.6791
32.0600 -21.3420 -0.6763
32.0800 -21.3553 -0.6750
32.1000 -21.3686 -0.6771
32.1200 -21.3820 -0.6739
32.1400 -21.3953 -0.6721
32.1600 -21.4087 -0.6694
32.1800 -21.4220 -0.6691
32.2000 -21.4353 -0.6664
32.2200 -21.4486 -0.6661
32.2400 -21.4619 -0.6643
32.2600 -21.4753 -0.6638
32.2800 -21.4886 -0.6633
32.3000 -21.5019 -0.6621
32.3200 -21.5153 -0.6595
32.3400 -21.5286 -0.6574
32.3600 -21.5420 -0.6569
32.3800 -21.5553 -0.6532
32.4000 -21.5686 -0.6563
32.4200 -21.5820 -0.6499
32.4400 -21.5953 -0.6522
32.4600 -21.6086 -0.6480
32.4800 -21.6219 -0.6471
32.5000 -21.6353 -0.6446
32.5200 -21.6486 -0.6453
32.5400 -21.6619 -0.6420
32.5600 -21.6752 -0.6423
32.5800 -21.6886 -0.6409
32.6000 -21.7019 -0.6402
32.6200 -21.7153 -0.6371
32.6400 -21.7286 -0.6373
32.6600 -21.7419 -0.6352
32.6800 -21.7553 -0.6325
32.7000 -21.7687 -0.6340
32.7200 -21.7820 -0.6310
32.7400 -21.7953 -0.6294
32.7600 -21.8086 -0.6298
32.7800 -21.8220 -0.6273
32.8000 -21.8353 -0.6255
32.8200 -21.8486 -0.6265
32.8400 -21.8619 -0.6246
32.8600 -21.8753 -0.6207
32.8800 -21.8886 -0.6197
32.9000 -21.9019 -0.6183
32.9200 -21.9152 -0.6178
32.9400 -21.9286 -0.6183
32.9600 -21.9419 -0.6143
32.9800 -21.9553 -0.6131
33.0000 -21.9686 -0.6129
33.0200 -21.9819 -0.6097
33.0400 -21.9953 -0.6089
33.0600 -22.0087 -0.6096
33.0800 -22.0220 -0.6058
33.1000 -22.0353 -0.6042
33.1200 -22.0486 -0.6059
33.1400 -22.0620 -0.6031
33.1600 -22.0753 -0.6009
33.1800 -22.0886 -0.6027
33.2000 -22.1020 -0.5984
33.2200 -22.1153 -0.5974
33.2400 -22.1287 -0.5965
33.2600 -22.1420 -0.5953
33.2800 -22.1552 -0.5947
33.3000 -22.1685 -0.5942
33.3200 -22.1819 -0.5911
33.3400 -22.1952 -0.5901
33.3600 -22.2085 -0.5894
33.3800 -22.2219 -0.5852
33.4000 -22.2352 -0.5808
33.4200 -22.2486 -0.5776
33.4400 -22.2620 -0.5761
33.4600 -22.2753 -0.5742
33.4800 -22.2886 -0.5778
33.5000 -22.3020 -0.5745
33.5200 -22.3154 -0.5723
33.5400 -22.3287 -0.5722
33.5600 -22.3420 -0.5690
33.5800 -22.3553 -0.5678
33.6000 -22.3686 -0.5659
33.6200 -22.3819 -0.5641
33.6400 -22.3953 -0.5654
33.6600 -22.4086 -0.5668
33.6800 -22.4219 -0.5645
33.7000 -22.4353 -0.5612
33.7200 -22.4486 -0.5589
33.7400 -22.4620 -0.5595
33.7600 -22.4753 -0.5575
33.7800 -22.4887 -0.5587
33.8000 -22.5020 -0.5556
33.8200 -22.5153 -0.5544
33.8400 -22.5286 -0.5537
33.8600 -22.5419 -0.5525
33.8800 -22.5553 -0.5489
33.9000 -22.5686 -0.5502
33.9200 -22.5819 -0.5509
33.9400 -22.5953 -0.5470
33.9600 -22.6086 -0.5486
33.9800 -22.6220 -0.5465
34.0000 -22.6353 -0.5441
34.0200 -22.6486 -0.5437
34.0400 -22.6619 -0.5411
34.0600 -22.6753 -0.5384
34.0800 -22.6886 -0.5392
34.1000 -22.7019 -0.5381
34.1200 -22.7153 -0.5355
34.1400 -22.7286 -0.5350
34.1600 -22.7420 -0.5332
34.1800 -22.7553 -0.5324
34.2000 -22.7686 -0.5329
34.2200 -22.7820 -0.5326
34.2400 -22.7953 -0.5288
34.2600 -22.8087 -0.5308
34.2800 -22.8220 -0.5282
34.3000 -22.8353 -0.5248
34.3200 -22.8486 -0.5257
34.3400 -22.8620 -0.5249
34.3600 -22.8752 -0.5222
34.3800 -22.8885 -0.5245
34.4000 -22.9019 -0.5221
34.4200 -22.9153 -0.5184
34.4400 -22.9286 -0.5188
34.4600 -22.9419 -0.5172
34.4800 -22.9553 -0.5143
34.5000 -22.9687 -0.5140
34.5200 -22.9820 -0.5121
34.5400 -22.9953 -0.5099
34.5600 -23.0086 -0.5129
34.5800 -23.0220 -0.5116
34.6000 -23.0353 -0.5074
34.6200 -23.0487 -0.5081
34.6400 -23.0620 -0.5075
34.6600 -23.0753 -0.5059
34.6800 -23.0886 -0.5065
34.7000 -23.1020 -0.5040
34.7200 -23.1153 -0.5019
34.7400 -23.1286 -0.4999
34.7600 -23.1419 -0.4994
34.7800 -23.1553 -0.4950
34.8000 -23.1686 -0.4965
34.8200 -23.1819 -0.4971
34.8400 -23.1952 -0.4941
34.8600 -23.2086 -0.4943
34.8800 -23.2220 -0.4922
34.9000 -23.2353 -0.4783
34.9200 -23.2486 -0.4683
34.9400 -23.2619 -0.4630
34.9600 -23.2753 -0.4617
34.9800 -23.2887 -0.4619
35.0000 -23.3020 -0.4605
35.0200 -23.3153 -0.4575
35.0400 -23.3286 -0.4596
35.0600 -23.3420 -0.4581
35.0800 -23.3553 -0.4560
35.1000 -23.3686 -0.4598
35.1200 -23.3819 -0.4568
35.1400 -23.3953 -0.4570
35.1600 -23.4086 -0.4555
35.1800 -23.4219 -0.4564
35.2000 -23.4352 -0.4534
35.2200 -23.4486 -0.4563
35.2400 -23.4620 -0.4541
35.2600 -23.4753 -0.4536
35.2800 -23.4886 -0.4554
35.3000 -23.5019 -0.4538
35.3200 -23.5153 -0.4513
35.3400 -23.5287 -0.4533
35.3600 -23.5420 -0.4542
35.3800 -23.5553 -0.4492
35.4000 -23.5686 -0.4502
35.4200 -23.5820 -0.4464
35.4400 -23.5953 -0.4459
35.4600 -23.6086 -0.4481
35.4800 -23.6219 -0.4491
35.5000 -23.6353 -0.4448
35.5200 -23.6486 -0.4446
35.5400 -23.6619 -0.4422
35.5600 -23.6752 -0.4371
35.5800 -23.6886 -0.4266
35.6000 -23.7020 -0.4229
35.6200 -23.7153 -0.4189
35.6400 -23.7287 -0.4202
35.6600 -23.7420 -0.4200
35.6800 -23.7553 -0.4176
35.7000 -23.7687 -0.4179
35.7200 -23.7820 -0.4169
35.7400 -23.7953 -0.4143
35.7600 -23.8086 -0.4143
35.7800 -23.8219 -0.4146
35.8000 -23.8352 -0.4133
35.8200 -23.8485 -0.4139
35.8400 -23.8619 -0.4133
35.8600 -23.8752 -0.4097
35.8800 -23.8886 -0.4091
35.9000 -23.9019 -0.4098
35.9200 -23.9153 -0.4073
35.9400 -23.9286 -0.4084
35.9600 -23.9420 -0.4058
35.9800 -23.9553 -0.4062
36.0000 -23.9686 -0.4060
36.0200 -23.9820 -0.4074
36.0400 -23.9953 -0.4018
36.0600 -24.0087 -0.4054
36.0800 -24.0220 -0.4051
36.1000 -24.0353 -0.4048
36.1200 -24.0487 -0.4031
36.1400 -24.0620 -0.4024
36.1600 -24.0753 -0.3990
36.1800 -24.0886 -0.4001
36.2000 -24.1019 -0.3992
36.2200 -24.1153 -0.3973
36.2400 -24.1286 -0.3962
36.2600 -24.1419 -0.3986
36.2800 -24.1552 -0.3969
36.3000 -24.1686 -0.3968
36.3200 -24.1820 -0.3945
36.3400 -24.1953 -0.3916
36.3600 -24.2086 -0.3913
36.3800 -24.2220 -0.3932
36.4000 -24.2353 -0.3903
36.4200 -24.2487 -0.3918
36.4400 -24.2620 -0.3924
36.4600 -24.2753 -0.3888
36.4800 -24.2886 -0.3861
36.5000 -24.3020 -0.3848
36.5200 -24.3153 -0.3833
36.5400 -24.3285 -0.3853
36.5600 -24.3419 -0.3841
36.5800 -24.3552 -0.3823
36.6000 -24.3686 -0.3820
36.6200 -24.3819 -0.3837
36.6400 -24.3953 -0.3793
36.6600 -24.4086 -0.3797
36.6800 -24.4220 -0.3796
36.7000 -24.4353 -0.3771
36.7200 -24.4486 -0.3780
36.7400 -24.4620 -0.3756
36.7600 -24.4753 -0.3770
36.7800 -24.4887 -0.3729
36.8000 -24.5020 -0.3733
36.8200 -24.5153 -0.3700
36.8400 -24.5286 -0.3728
36.8600 -24.5419 -0.3711
36.8800 -24.5553 -0.3690
36.9000 -24.5685 -0.3683
36.9200 -24.5819 -0.3692
36.9400 -24.5953 -0.3645
36.9600 -24.6086 -0.3647
36.9800 -24.6219 -0.3657
37.0000 -24.6353 -0.3627
37.0200 -24.6486 -0.3628
37.0400 -24.6620 -0.3605
37.0600 -24.6754 -0.3574
37.0800 -24.6887 -0.3584
37.1000 -24.7020 -0.3582
37.1200 -24.7154 -0.3567
37.1400 -24.7287 -0.3534
37.1600 -24.7420 -0.3554
37.1800 -24.7553 -0.3523
37.2000 -24.7686 -0.3536
37.2200 -24.7819 -0.3530
37.2400 -24.7953 -0.3508
37.2600 -24.8085 -0.3485
37.2800 -24.8219 -0.3486
37.3000 -24.8352 -0.3460
37.3200 -24.8486 -0.3465
37.3400 -24.8619 -0.3472
37.3600 -24.8752 -0.3467
37.3800 -24.8886 -0.3445
37.4000 -24.9020 -0.3466
37.4200 -24.9154 -0.3424
37.4400 -24.9287 -0.3439
37.4600 -24.9420 -0.3422
37.4800 -24.9553 -0.3406
37.5000 -24.9687 -0.3395
37.5200 -24.9820 -0.3398
37.5400 -24.9953 -0.3362
37.5600 -25.0086 -0.3370
37.5800 -25.0219 -0.3355
37.6000 -25.0353 -0.3352
37.6200 -25.0485 -0.3334
37.6400 -25.0619 -0.3332
37.6600 -25.0752 -0.3317
37.6800 -25.0886 -0.3307
37.7000 -25.1019 -0.3304
37.7200 -25.1153 -0.3300
37.7400 -25.1286 -0.3269
37.7600 -25.1420 -0.3275
37.7800 -25.1554 -0.3258
37.8000 -25.1687 -0.3256
37.8200 -25.1820 -0.3286
37.8400 -25.1953 -0.3248
37.8600 -25.2087 -0.3239
37.8800 -25.2220 -0.3242
37.9000 -25.2353 -0.3224
37.9200 -25.2486 -0.3203
37.9400 -25.2619 -0.3232
37.9600 -25.2753 -0.3206
37.9800 -25.2886 -0.3185
38.0000 -25.3019 -0.3194
38.0200 -25.3152 -0.3166
38.0400 -25.3286 -0.3166
38.0600 -25.3419 -0.3159
38.0800 -25.3553 -0.3141
38.1000 -25.3686 -0.3136
38.1200 -25.3820 -0.3124
38.1400 -25.3953 -0.3131
38.1600 -25.4086 -0.3114
38.1800 -25.4219 -0.3115
38.2000 -25.4352 -0.3082
38.2200 -25.4486 -0.3062
38.2400 -25.4619 -0.3081
38.2600 -25.4752 -0.3068
38.2800 -25.4886 -0.3058
38.3000 -25.5019 -0.3050
38.3200 -25.5153 -0.3020
38.3400 -25.5286 -0.3015
38.3600 -25.5419 -0.3019
38.3800 -25.5552 -0.3023
38.4000 -25.5686 -0.2997
38.4200 -25.5819 -0.3019
38.4400 -25.5953 -0.2993
38.4600 -25.6086 -0.3000
38.4800 -25.6220 -0.2969
38.5000 -25.6354 -0.2970
38.5200 -25.6487 -0.2962
38.5400 -25.6620 -0.2974
38.5600 -25.6753 -0.2931
38.5800 -25.6887 -0.2936
38.6000 -25.7020 -0.2939
38.6200 -25.7153 -0.2921
38.6400 -25.7286 -0.2891
38.6600 -25.7419 -0.2912
38.6800 -25.7552 -0.2862
38.7000 -25.7685 -0.2868
38.7200 -25.7819 -0.2885
38.7400 -25.7952 -0.2845
38.7600 -25.8086 -0.2830
38.7800 -25.8219 -0.2825
38.8000 -25.8353 -0.2823
38.8200 -25.8486 -0.2802
38.8400 -25.8620 -0.2821
38.8600 -25.8753 -0.2776
38.8800 -25.8886 -0.2778
38.9000 -25.9020 -0.2776
38.9200 -25.9153 -0.2753
38.9400 -25.9287 -0.2736
38.9600 -25.9420 -0.2749
38.9800 -25.9553 -0.2724
39.0000 -25.9686 -0.2690
39.0200 -25.9820 -0.2702
39.0400 -25.9953 -0.2680
39.0600 -26.0086 -0.2692
39.0800 -26.0219 -0.2685
39.1000 -26.0352 -0.2668
39.1200 -26.0486 -0.2648
39.1400 -26.0619 -0.2692
39.1600 -26.0752 -0.2653
39.1800 -26.0886 -0.2648
39.2000 -26.1019 -0.2634
39.2200 -26.1153 -0.2635
39.2400 -26.1286 -0.2615
39.2600 -26.1419 -0.2622
39.2800 -26.1553 -0.2608
39.3000 -26.1686 -0.2598
39.3200 -26.1820 -0.2586
39.3400 -26.1953 -0.2564
39.3600 -26.2086 -0.2565
39.3800 -26.2220 -0.2555
39.4000 -26.2353 -0.2551
39.4200 -26.2486 -0.2527
39.4400 -26.2619 -0.2546
39.4600 -26.2752 -0.2533
39.4800 -26.2886 -0.2515
39.5000 -26.3019 -0.2502
39.5200 -26.3153 -0.2506
39.5400 -26.3286 -0.2506
39.5600 -26.3420 -0.2529
39.5800 -26.3553 -0.2490
39.6000 -26.3687 -0.2467
39.6200 -26.3819 -0.2482
39.6400 -26.3953 -0.2486
39.6600 -26.4086 -0.2456
39.6800 -26.4220 -0.2458
39.7000 -26.4353 -0.2442
39.7200 -26.4486 -0.2424
39.7400 -26.4620 -0.2430
39.7600 -26.4753 -0.2420
39.7800 -26.4886 -0.2400
39.8000 -26.5019 -0.2403
39.8200 -26.5153 -0.2387
39.8400 -26.5286 -0.2378
39.8600 -26.5420 -0.2380
39.8800 -26.5553 -0.2381
39.9000 -26.5686 -0.2327
39.9200 -26.5820 -0.2344
39.9400 -26.5953 -0.2350
39.9600 -26.6087 -0.2343
39.9800 -26.6219 -0.2350
40.0000 -26.6353 -0.2333
40.0200 -26.6486 -0.2311
40.0400 -26.6620 -0.2296
40.0600 -26.6753 -0.2282
40.0800 -26.6886 -0.2278
40.1000 -26.7019 -0.2281
40.1200 -26.7153 -0.2289
40.1400 -26.7286 -0.2260
40.1600 -26.7419 -0.2266
40.1800 -26.7552 -0.2228
40.2000 -26.7686 -0.2217
40.2200 -26.7820 -0.2210
40.2400 -26.7953 -0.2223
40.2600 -26.8086 -0.2201
40.2800 -26.8220 -0.2198
40.3000 -26.8353 -0.2197
40.3200 -26.8486 -0.2159
40.3400 -26.8619 -0.2174
40.3600 -26.8753 -0.2155
40.3800 -26.8886 -0.2137
40.4000 -26.9020 -0.2121
40.4200 -26.9153 -0.2136
40.4400 -26.9286 -0.2089
40.4600 -26.9420 -0.2129
40.4800 -26.9553 -0.2092
40.5000 -26.9686 -0.2087
40.5200 -26.9819 -0.2079
40.5400 -26.9952 -0.2093
40.5600 -27.0086 -0.2052
40.5800 -27.0219 -0.2034
40.6000 -27.0352 -0.2028
40.6200 -27.0485 -0.2020
40.6400 -27.0619 -0.2014
40.6600 -27.0753 -0.2020
40.6800 -27.0887 -0.1994
40.7000 -27.1020 -0.1992
40.7200 -27.1153 -0.1995
40.7400 -27.1287 -0.1971
40.7600 -27.1420 -0.1980
40.7800 -27.1553 -0.1967
40.8000 -27.1686 -0.1962
40.8200 -27.1820 -0.1957
40.8400 -27.1953 -0.1958
40.8600 -27.2086 -0.1930
40.8800 -27.2219 -0.1926
40.9000 -27.2352 -0.1942
40.9200 -27.2486 -0.1897
40.9400 -27.2620 -0.1912
40.9600 -27.2753 -0.1892
40.9800 -27.2886 -0.1881
41.0000 -27.3020 -0.1871
41.0200 -27.3154 -0.1870
41.0400 -27.3287 -0.1830
41.0600 -27.3420 -0.1855
41.0800 -27.3553 -0.1855
41.1000 -27.3686 -0.1852
41.1200 -27.3820 -0.1820
41.1400 -27.3953 -0.1835
41.1600 -27.4086 -0.1805
41.1800 -27.4219 -0.1822
41.2000 -27.4353 -0.1827
41.2200 -27.4486 -0.1776
41.2400 -27.4619 -0.1790
41.2600 -27.4752 -0.1787
41.2800 -27.4886 -0.1767
41.3000 -27.5019 -0.1767
41.3200 -27.5153 -0.1772
41.3400 -27.5286 -0.1741
41.3600 -27.5420 -0.1745
41.3800 -27.5553 -0.1736
41.4000 -27.5686 -0.1715
41.4200 -27.5820 -0.1713
41.4400 -27.5953 -0.1716
41.4600 -27.6087 -0.1689
41.4800 -27.6220 -0.1684
41.5000 -27.6353 -0.1686
41.5200 -27.6486 -0.1655
41.5400 -27.6620 -0.1662
41.5600 -27.6753 -0.1643
41.5800 -27.6886 -0.1631
41.6000 -27.7019 -0.1642
41.6200 -27.7152 -0.1633
41.6400 -27.7285 -0.1600
41.6600 -27.7419 -0.1594
41.6800 -27.7552 -0.1608
41.7000 -27.7686 -0.1578
41.7200 -27.7819 -0.1591
41.7400 -27.7953 -0.1572
41.7600 -27.8087 -0.1542
41.7800 -27.8220 -0.1547
41.8000 -27.8353 -0.1554
41.8200 -27.8487 -0.1522
41.8400 -27.8620 -0.1540
41.8600 -27.8753 -0.1520
41.8800 -27.8886 -0.1507
41.9000 -27.9019 -0.1502
41.9200 -27.9153 -0.1508
41.9400 -27.9286 -0.1481
41.9600 -27.9419 -0.1459
41.9800 -27.9552 -0.1470
42.0000 -27.9686 -0.1428
42.0200 -27.9820 -0.1456
42.0400 -27.9953 -0.1452
42.0600 -28.0086 -0.1424
42.0800 -28.0219 -0.1421
42.1000 -28.0353 -0.1408
42.1200 -28.0487 -0.1389
42.1400 -28.0620 -0.1394
42.1600 -28.0753 -0.1399
42.1800 -28.0886 -0.1372
42.2000 -28.1020 -0.1378
42.2200 -28.1153 -0.1368
42.2400 -28.1287 -0.1348
42.2600 -28.1420 -0.1332
42.2800 -28.1553 -0.1334
42.3000 -28.1686 -0.1312
42.3200 -28.1819 -0.1325
42.3400 -28.1952 -0.1300
42.3600 -28.2086 -0.1280
42.3800 -28.2219 -0.1292
42.4000 -28.2353 -0.1289
42.4200 -28.2486 -0.1295
42.4400 -28.2619 -0.1285
42.4600 -28.2753 -0.1284
42.4800 -28.2886 -0.1255
42.5000 -28.3019 -0.1268
42.5200 -28.3152 -0.1256
42.5400 -28.3286 -0.1254
42.5600 -28.3420 -0.1224
42.5800 -28.3553 -0.1234
42.6000 -28.3686 -0.1211
42.6200 -28.3820 -0.1215
42.6400 -28.3953 -0.1226
42.6600 -28.4086 -0.1196
42.6800 -28.4219 -0.1190
42.7000 -28.4352 -0.1180
42.7200 -28.4486 -0.1160
42.7400 -28.4619 -0.1140
42.7600 -28.4752 -0.1141
42.7800 -28.4885 -0.1142
42.8000 -28.5019 -0.1141
42.8200 -28.5153 -0.1141
42.8400 -28.5287 -0.1113
42.8600 -28.5420 -0.1116
42.8800 -28.5553 -0.1114
42.9000 -28.5687 -0.1081
42.9200 -28.5820 -0.1083
42.9400 -28.5953 -0.1069
42.9600 -28.6086 -0.1069
42.9800 -28.6219 -0.1054
43.0000 -28.6352 -0.1070
43.0200 -28.6485 -0.1043
43.0400 -28.6618 -0.1050
43.0600 -28.6752 -0.1041
43.0800 -28.6886 -0.1013
43.1000 -28.7019 -0.1007
43.1200 -28.7153 -0.1013
43.1400 -28.7286 -0.0993
43.1600 -28.7420 -0.0991
43.1800 -28.7553 -0.0993
43.2000 -28.7687 -0.0973
43.2200 -28.7820 -0.0977
43.2400 -28.7953 -0.0947
43.2600 -28.8086 -0.0942
43.2800 -28.8220 -0.0927
43.3000 -28.8353 -0.0939
43.3200 -28.8486 -0.0928
43.3400 -28.8620 -0.0912
43.3600 -28.8753 -0.0924
43.3800 -28.8887 -0.0887
43.4000 -28.9019 -0.0906
43.4200 -28.9152 -0.0904
43.4400 -28.9286 -0.0896
43.4600 -28.9419 -0.0872
43.4800 -28.9552 -0.0870
43.5000 -28.9686 -0.0871
43.5200 -28.9819 -0.0863
43.5400 -28.9953 -0.0874
43.5600 -29.0087 -0.0849
43.5800 -29.0220 -0.0847
43.6000 -29.0353 -0.0830
43.6200 -29.0486 -0.0832
43.6400 -29.0620 -0.0820
43.6600 -29.0753 -0.0841
43.6800 -29.0886 -0.0816
43.7000 -29.1019 -0.0793
43.7200 -29.1153 -0.0780
43.7400 -29.1286 -0.0774
43.7600 -29.1419 -0.0784
43.7800 -29.1552 -0.0791
43.8000 -29.1686 -0.0782
43.8200 -29.1819 -0.0781
43.8400 -29.1953 -0.0761
43.8600 -29.2086 -0.0735
43.8800 -29.2219 -0.0726
43.9000 -29.2353 -0.0718
43.9200 -29.2487 -0.0685
43.9400 -29.2620 -0.0680
43.9600 -29.2753 -0.0692
43.9800 -29.2886 -0.0665
44.0000 -29.3020 -0.0677
44.0200 -29.3153 -0.0657
44.0400 -29.3286 -0.0658
44.0600 -29.3419 -0.0642
44.0800 -29.3553 -0.0641
44.1000 -29.3686 -0.0636
44.1200 -29.3819 -0.0625
44.1400 -29.3952 -0.0641
44.1600 -29.4086 -0.0647
44.1800 -29.4219 -0.0634
44.2000 -29.4353 -0.0630
44.2200 -29.4486 -0.0601
44.2400 -29.4620 -0.0588
44.2600 -29.4753 -0.0604
44.2800 -29.4887 -0.0587
44.3000 -29.5020 -0.0585
44.3200 -29.5153 -0.0594
44.3400 -29.5286 -0.0587
44.3600 -29.5420 -0.0570
44.3800 -29.5553 -0.0562
44.4000 -29.5686 -0.0572
44.4200 -29.5819 -0.0553
44.4400 -29.5953 -0.0568
44.4600 -29.6086 -0.0547
44.4800 -29.6219 -0.0537
44.5000 -29.6352 -0.0533
44.5200 -29.6485 -0.0538
44.5400 -29.6619 -0.0517
44.5600 -29.6753 -0.0517
44.5800 -29.6886 -0.0504
44.6000 -29.7019 -0.0486
44.6200 -29.7153 -0.0469
44.6400 -29.7287 -0.0465
44.6600 -29.7420 -0.0439
44.6800 -29.7553 -0.0462
44.7000 -29.7686 -0.0432
44.7200 -29.7820 -0.0428
44.7400 -29.7953 -0.0416
44.7600 -29.8086 -0.0405
44.7800 -29.8220 -0.0385
44.8000 -29.8353 -0.0407
44.8200 -29.8486 -0.0365
44.8400 -29.8619 -0.0366
44.8600 -29.8752 -0.0343
44.8800 -29.8885 -0.0353
44.9000 -29.9019 -0.0336
44.9200 -29.9152 -0.0306
44.9400 -29.9286 -0.0305
44.9600 -29.9419 -0.0310
44.9800 -29.9553 -0.0311
45.0000 -29.9687 -0.0286
45.0200 -29.9820 -0.0274
45.0400 -29.9953 -0.0257
45.0600 -30.0086 -0.0252
45.0800 -30.0220 -0.0230
45.1000 -30.0353 -0.0230
45.1200 -30.0486 -0.0220
45.1400 -30.0619 -0.0212
45.1600 -30.0753 -0.0193
45.1800 -30.0886 -0.0185
45.2000 -30.1019 -0.0162
45.2200 -30.1152 -0.0166
45.2400 -30.1286 -0.0149
45.2600 -30.1419 -0.0151
45.2800 -30.1553 -0.0141
45.3000 -30.1686 -0.0123
45.3200 -30.1819 -0.0127
45.3400 -30.1953 -0.0102
45.3600 -30.2087 -0.0103
45.3800 -30.2220 -0.0100
45.4000 -30.2352 -0.0079
45.4200 -30.2486 -0.0091
45.4400 -30.2619 -0.0066
45.4600 -30.2753 -0.0043
45.4800 -30.2886 -0.0053
45.5000 -30.3020 -0.0054
45.5200 -30.3153 -0.0048
45.5400 -30.3287 -0.0044
45.5600 -30.3420 -0.0012
45.5800 -30.3552 -0.0020
45.6000 -30.3686 -0.0016
45.6200 -30.3819 -0.0011
45.6400 -30.3953 0.0003
45.6600 -30.4086 0.0009
45.6800 -30.4219 0.0018
45.7000 -30.4353 0.0024
45.7200 -30.4487 0.0032
45.7400 -30.4620 0.0038
45.7600 -30.4753 0.0034
45.7800 -30.4887 0.0050
45.8000 -30.5020 0.0048
45.8200 -30.5154 0.0053
45.8400 -30.5287 0.0047
45.8600 -30.5419 0.0065
45.8800 -30.5553 0.0093
45.9000 -30.5686 0.0093
45.9200 -30.5819 0.0102
45.9400 -30.5952 0.0108
45.9600 -30.6085 0.0082
45.9800 -30.6219 0.0124
46.0000 -30.6353 0.0115
46.0200 -30.6486 0.0123
46.0400 -30.6619 0.0118
46.0600 -30.6753 0.0112
46.0800 -30.6886 0.0135
46.1000 -30.7020 0.0151
46.1200 -30.7153 0.0153
46.1400 -30.7286 0.0165
46.1600 -30.7420 0.0162
46.1800 -30.7553 0.0178
46.2000 -30.7686 0.0173
46.2200 -30.7819 0.0182
46.2400 -30.7953 0.0196
46.2600 -30.8086 0.0197
46.2800 -30.8219 0.0216
46.3000 -30.8352 0.0226
46.3200 -30.8486 0.0233
46.3400 -30.8619 0.0243
46.3600 -30.8753 0.0252
46.3800 -30.8886 0.0258
46.4000 -30.9019 0.0275
46.4200 -30.9153 0.0295
46.4400 -30.9286 0.0285
46.4600 -30.9420 0.0285
46.4800 -30.9553 0.0313
46.5000 -30.9686 0.0301
46.5200 -30.9820 0.0329
46.5400 -30.9953 0.0334
46.5600 -31.0087 0.0326
46.5800 -31.0220 0.0342
46.6000 -31.0353 0.0355
46.6200 -31.0487 0.0349
46.6400 -31.0620 0.0366
46.6600 -31.0753 0.0354
46.6800 -31.0886 0.0385
46.7000 -31.1019 0.0385
46.7200 -31.1153 0.0392
46.7400 -31.1286 0.0379
46.7600 -31.1419 0.0403
46.7800 -31.1553 0.0413
46.8000 -31.1687 0.0416
46.8200 -31.1820 0.0441
46.8400 -31.1953 0.0445
46.8600 -31.2086 0.0457
46.8800 -31.2220 0.0442
46.9000 -31.2353 0.0468
46.9200 -31.2486 0.0452
46.9400 -31.2619 0.0469
46.9600 -31.2753 0.0493
46.9800 -31.2886 0.0497
47.0000 -31.3019 0.0517
47.0200 -31.3152 0.0530
47.0400 -31.3285 0.0519
47.0600 -31.3419 0.0541
47.0800 -31.3553 0.0557
47.1000 -31.3686 0.0552
47.1200 -31.3820 0.0592
47.1400 -31.3953 0.0587
47.1600 -31.4087 0.0581
47.1800 -31.4220 0.0601
47.2000 -31.4353 0.0596
47.2200 -31.4486 0.0625
47.2400 -31.4620 0.0615
47.2600 -31.4753 0.0632
47.2800 -31.4886 0.0626
47.3000 -31.5019 0.0649
47.3200 -31.5153 0.0643
47.3400 -31.5286 0.0650
47.3600 -31.5419 0.0644
47.3800 -31.5552 0.0681
47.4000 -31.5686 0.0661
47.4200 -31.5819 0.0684
47.4400 -31.5953 0.0693
47.4600 -31.6086 0.0701
47.4800 -31.6219 0.0702
47.5000 -31.6353 0.0719
47.5200 -31.6486 0.0706
47.5400 -31.6620 0.0713
47.5600 -31.6753 0.0729
47.5800 -31.6886 0.0720
47.6000 -31.7020 0.0756
47.6200 -31.7153 0.0756
47.6400 -31.7286 0.0730
47.6600 -31.7420 0.0743
47.6800 -31.7553 0.0770
47.7000 -31.7687 0.0786
47.7200 -31.7820 0.0781
47.7400 -31.7953 0.0791
47.7600 -31.8086 0.0813
47.7800 -31.8219 0.0820
47.8000 -31.8352 0.0819
47.8200 -31.8485 0.0825
47.8400 -31.8619 0.0828
47.8600 -31.8752 0.0848
47.8800 -31.8886 0.0851
47.9000 -31.9020 0.0889
47.9200 -31.9153 0.0900
47.9400 -31.9287 0.0891
47.9600 -31.9420 0.0883
47.9800 -31.9554 0.0895
48.0000 -31.9687 0.0901
48.0200 -31.9820 0.0894
48.0400 -31.9953 0.0906
48.0600 -32.0086 0.0927
48.0800 -32.0220 0.0929
48.1000 -32.0353 0.0918
48.1200 -32.0486 0.0923
48.1400 -32.0619 0.0925
48.1600 -32.0753 0.0948
48.1800 -32.0886 0.0939
48.2000 -32.1019 0.0960
48.2200 -32.1153 0.0967
48.2400 -32.1286 0.0998
48.2600 -32.1420 0.0983
48.2800 -32.1553 0.1006
48.3000 -32.1686 0.0997
48.3200 -32.1819 0.1006
48.3400 -32.1953 0.1018
48.3600 -32.2086 0.1042
48.3800 -32.2219 0.1048
48.4000 -32.2353 0.1067
48.4200 -32.2486 0.1053
48.4400 -32.2620 0.1044
48.4600 -32.2753 0.1058
48.4800 -32.2886 0.1072
48.5000 -32.3019 0.1087
48.5200 -32.3152 0.1099
48.5400 -32.3286 0.1094
48.5600 -32.3419 0.1099
48.5800 -32.3553 0.1134
48.6000 -32.3686 0.1137
48.6200 -32.3820 0.1108
48.6400 -32.3953 0.1137
48.6600 -32.4086 0.1145
48.6800 -32.4220 0.1153
48.7000 -32.4353 0.1175
48.7200 -32.4487 0.1189
48.7400 -32.4620 0.1199
48.7600 -32.4753 0.1217
48.7800 -32.4887 0.1207
48.8000 -32.5020 0.1215
48.8200 -32.5152 0.1213
48.8400 -32.5285 0.1219
48.8600 -32.5419 0.1231
48.8800 -32.5552 0.1246
48.9000 -32.5686 0.1259
48.9200 -32.5819 0.1257
48.9400 -32.5953 0.1295
48.9600 -32.6086 0.1305
48.9800 -32.6220 0.1288
49.0000 -32.6353 0.1292
49.0200 -32.6487 0.1312
49.0400 -32.6620 0.1290
49.0600 -32.6754 0.1327
49.0800 -32.6887 0.1312
49.1000 -32.7020 0.1332
49.1200 -32.7153 0.1345
49.1400 -32.7286 0.1362
49.1600 -32.7420 0.1357
49.1800 -32.7553 0.1361
49.2000 -32.7686 0.1379
49.2200 -32.7819 0.1378
49.2400 -32.7953 0.1393
49.2600 -32.8086 0.1402
49.2800 -32.8219 0.1407
49.3000 -32.8352 0.1413
49.3200 -32.8486 0.1455
49.3400 -32.8620 0.1437
49.3600 -32.8753 0.1443
49.3800 -32.8886 0.1437
49.4000 -32.9020 0.1459
49.4200 -32.9153 0.1451
49.4400 -32.9287 0.1478
49.4600 -32.9420 0.1460
49.4800 -32.9553 0.1484
49.5000 -32.9686 0.1477
49.5200 -32.9820 0.1486
49.5400 -32.9953 0.1509
49.5600 -33.0086 0.1503
49.5800 -33.0219 0.1528
49.6000 -33.0353 0.1538
49.6200 -33.0486 0.1574
49.6400 -33.0619 0.1528
49.6600 -33.0752 0.1562
49.6800 -33.0886 0.1577
49.7000 -33.1020 0.1586
49.7200 -33.1153 0.1583
49.7400 -33.1286 0.1619
49.7600 -33.1419 0.1586
49.7800 -33.1553 0.1606
49.8000 -33.1687 0.1618
49.8200 -33.1820 0.1603
49.8400 -33.1953 0.1616
49.8600 -33.2086 0.1650
49.8800 -33.2220 0.1653
49.9000 -33.2353 0.1653
49.9200 -33.2486 0.1677
49.9400 -33.2619 0.1663
49.9600 -33.2752 0.1687
49.9800 -33.2886 0.1697
50.0000 -33.3019 0.1700
50.0200 -33.3152 0.1712
50.0400 -33.3286 0.1729
50.0600 -33.3420 0.1729
50.0800 -33.3553 0.1740
50.1000 -33.3686 0.1770
50.1200 -33.3820 0.1747
50.1400 -33.3953 0.1775
50.1600 -33.4087 0.1774
50.1800 -33.4220 0.1777
50.2000 -33.4353 0.1808
50.2200 -33.4486 0.1810
50.2400 -33.4619 0.1807
50.2600 -33.4752 0.1821
50.2800 -33.4885 0.1824
50.3000 -33.5019 0.1814
50.3200 -33.5152 0.1843
50.3400 -33.5286 0.1849
50.3600 -33.5419 0.1854
50.3800 -33.5552 0.1850
50.4000 -33.5686 0.1874
50.4200 -33.5820 0.1867
50.4400 -33.5954 0.1884
50.4600 -33.6087 0.1897
50.4800 -33.6220 0.1898
50.5000 -33.6354 0.1904
50.5200 -33.6487 0.1934
50.5400 -33.6620 0.1941
50.5600 -33.6753 0.1947
50.5800 -33.6886 0.1963
50.6000 -33.7020 0.1973
50.6200 -33.7153 0.1979
50.6400 -33.7286 0.2010
50.6600 -33.7419 0.1987
50.6800 -33.7553 0.1999
50.7000 -33.7686 0.2038
50.7200 -33.7819 0.2030
50.7400 -33.7952 0.2036
50.7600 -33.8086 0.2060
50.7800 -33.8220 0.2026
50.8000 -33.8353 0.2063
50.8200 -33.8486 0.2071
50.8400 -33.8619 0.2081
50.8600 -33.8753 0.2084
50.8800 -33.8887 0.2108
50.9000 -33.9020 0.2100
50.9200 -33.9153 0.2119
50.9400 -33.9286 0.2143
50.9600 -33.9419 0.2129
50.9800 -33.9552 0.2126
51.0000 -33.9685 0.2157
51.0200 -33.9818 0.2151
51.0400 -33.9952 0.2156
51.0600 -34.0086 0.2175
51.0800 -34.0219 0.2165
51.1000 -34.0353 0.2188
51.1200 -34.0486 0.2207
51.1400 -34.0620 0.2200
51.1600 -34.0753 0.2216
51.1800 -34.0886 0.2232
51.2000 -34.1020 0.2220
51.2200 -34.1153 0.2227
51.2400 -34.1286 0.2246
51.2600 -34.1419 0.2236
51.2800 -34.1553 0.2250
51.3000 -34.1686 0.2273
51.3200 -34.1819 0.2265
51.3400 -34.1953 0.2269
51.3600 -34.2085 0.2281
51.3800 -34.2219 0.2269
51.4000 -34.2352 0.2275
51.4200 -34.2486 0.2301
51.4400 -34.2620 0.2309
51.4600 -34.2753 0.2313
51.4800 -34.2886 0.2345
51.5000 -34.3020 0.2346
51.5200 -34.3154 0.2357
51.5400 -34.3287 0.2362
51.5600 -34.3420 0.2354
51.5800 -34.3553 0.2344
51.6000 -34.3687 0.2385
51.6200 -34.3820 0.2396
51.6400 -34.3953 0.2408
51.6600 -34.4086 0.2432
51.6800 -34.4220 0.2411
51.7000 -34.4353 0.2423
51.7200 -34.4486 0.2438
51.7400 -34.4619 0.2459
51.7600 -34.4752 0.2443
51.7800 -34.4886 0.2497
51.8000 -34.5019 0.2448
51.8200 -34.5153 0.2478
51.8400 -34.5286 0.2491
51.8600 -34.5420 0.2480
51.8800 -34.5554 0.2495
51.9000 -34.5687 0.2496
51.9200 -34.5820 0.2485
51.9400 -34.5953 0.2517
51.9600 -34.6087 0.2534
51.9800 -34.6220 0.2545
52.0000 -34.6353 0.2551
52.0200 -34.6486 0.2571
52.0400 -34.6619 0.2567
52.0600 -34.6753 0.2576
52.0800 -34.6885 0.2598
52.1000 -34.7019 0.2619
52.1200 -34.7152 0.2607
52.1400 -34.7286 0.2634
52.1600 -34.7419 0.2619
52.1800 -34.7552 0.2655
52.2000 -34.7686 0.2658
52.2200 -34.7820 0.2652
52.2400 -34.7954 0.2659
52.2600 -34.8087 0.2685
52.2800 -34.8220 0.2685
52.3000 -34.8353 0.2689
52.3200 -34.8487 0.2736
52.3400 -34.8620 0.2733
52.3600 -34.8753 0.2742
52.3800 -34.8886 0.2768
52.4000 -34.9019 0.2765
52.4200 -34.9153 0.2767
52.4400 -34.9286 0.2795
52.4600 -34.9419 0.2805
52.4800 -34.9552 0.2830
52.5000 -34.9686 0.2850
52.5200 -34.9820 0.2848
52.5400 -34.9953 0.2840
52.5600 -35.0086 0.2850
52.5800 -35.0220 0.2873
52.6000 -35.0353 0.2881
52.6200 -35.0486 0.2910
52.6400 -35.0619 0.2897
52.6600 -35.0753 0.2898
52.6800 -35.0886 0.2923
52.7000 -35.1020 0.2914
52.7200 -35.1153 0.2927
52.7400 -35.1286 0.2935
52.7600 -35.1420 0.2961
52.7800 -35.1553 0.2948
52.8000 -35.1686 0.2981
52.8200 -35.1819 0.2976
52.8400 -35.1952 0.2976
52.8600 -35.2086 0.2980
52.8800 -35.2219 0.3019
52.9000 -35.2352 0.2995
52.9200 -35.2486 0.3038
52.9400 -35.2620 0.3023
52.9600 -35.2754 0.3038
52.9800 -35.2887 0.3028
53.0000 -35.3020 0.3055
53.0200 -35.3153 0.3039
53.0400 -35.3287 0.3067
53.0600 -35.3420 0.3074
53.0800 -35.3553 0.3062
53.1000 -35.3686 0.3095
53.1200 -35.3819 0.3073
53.1400 -35.3953 0.3076
53.1600 -35.4085 0.3087
53.1800 -35.4218 0.3095
53.2000 -35.4352 0.3073
53.2200 -35.4486 0.3120
53.2400 -35.4619 0.3098
53.2600 -35.4753 0.3101
53.2800 -35.4886 0.3134
53.3000 -35.5020 0.3138
53.3200 -35.5153 0.3124
53.3400 -35.5286 0.3142
53.3600 -35.5419 0.3138
53.3800 -35.5553 0.3140
53.4000 -35.5687 0.3169
53.4200 -35.5820 0.3194
53.4400 -35.5953 0.3191
53.4600 -35.6086 0.3206
53.4800 -35.6219 0.3192
53.5000 -35.6353 0.3177
53.5200 -35.6486 0.3202
53.5400 -35.6619 0.3216
53.5600 -35.6752 0.3238
53.5800 -35.6886 0.3266
53.6000 -35.7020 0.3280
53.6200 -35.7152 0.3295
53.6400 -35.7286 0.3372
53.6600 -35.7419 0.3170
53.6800 -35.7553 0.2116
53.7000 -35.7686 0.1376
53.7200 -35.7819 0.1110
53.7400 -35.7953 0.1063
53.7600 -35.8086 0.1124
53.7800 -35.8220 0.1156
53.8000 -35.8353 0.1153
53.8200 -35.8486 0.1150
53.8400 -35.8620 0.1152
53.8600 -35.8753 0.1138
53.8800 -35.8886 0.1166
53.9000 -35.9019 0.1171
53.9200 -35.9152 0.1137
53.9400 -35.9286 0.1142
53.9600 -35.9419 0.1126
53.9800 -35.9553 0.1132
54.0000 -35.9686 0.1145
54.0200 -35.9820 0.1141
54.0400 -35.9953 0.1133
54.0600 -36.0087 0.1141
54.0800 -36.0219 0.1114
54.1000 -36.0353 0.1149
54.1200 -36.0486 0.1155
54.1400 -36.0620 0.1155
54.1600 -36.0753 0.1133
54.1800 -36.0886 0.1137
54.2000 -36.1019 0.1145
54.2200 -36.1153 0.1135
54.2400 -36.1286 0.1176
54.2600 -36.1419 0.1178
54.2800 -36.1552 0.1177
54.3000 -36.1686 0.1190
54.3200 -36.1820 0.1200
54.3400 -36.1953 0.1181
54.3600 -36.2086 0.1210
54.3800 -36.2220 0.1216
54.4000 -36.2353 0.1221
54.4200 -36.2487 0.1236
54.4400 -36.2620 0.1238
54.4600 -36.2753 0.1232
54.4800 -36.2886 0.1253
54.5000 -36.3020 0.1261
54.5200 -36.3153 0.1251
54.5400 -36.3286 0.1277
54.5600 -36.3419 0.1279
54.5800 -36.3553 0.1283
54.6000 -36.3686 0.1274
54.6200 -36.3819 0.1287
54.6400 -36.3952 0.1287
54.6600 -36.4086 0.1293
54.6800 -36.4220 0.1275
54.7000 -36.4353 0.1296
54.7200 -36.4486 0.1329
54.7400 -36.4620 0.1327
54.7600 -36.4753 0.1325
54.7800 -36.4887 0.1334
54.8000 -36.5020 0.1343
54.8200 -36.5153 0.1322
54.8400 -36.5286 0.1369
54.8600 -36.5420 0.1363
54.8800 -36.5553 0.1373
54.9000 -36.5686 0.1356
54.9200 -36.5820 0.1371
54.9400 -36.5953 0.1358
54.9600 -36.6086 0.1362
54.9800 -36.6219 0.1375
55.0000 -36.6352 0.1355
55.0200 -36.6486 0.1376
55.0400 -36.6619 0.1399
55.0600 -36.6752 0.1403
55.0800 -36.6885 0.1403
55.1000 -36.7019 0.1416
55.1200 -36.7153 0.1378
55.1400 -36.7287 0.1408
55.1600 -36.7420 0.1409
55.1800 -36.7553 0.1430
55.2000 -36.7687 0.1416
55.2200 -36.7820 0.1429
55.2400 -36.7953 0.1394
55.2600 -36.8086 0.1415
55.2800 -36.8219 0.1446
55.3000 -36.8353 0.1427
55.3200 -36.8486 0.1451
55.3400 -36.8619 0.1445
55.3600 -36.8752 0.1436
55.3800 -36.8886 0.1433
55.4000 -36.9020 0.1447
55.4200 -36.9153 0.1436
55.4400 -36.9286 0.1452
55.4600 -36.9420 0.1463
55.4800 -36.9553 0.1446
55.5000 -36.9687 0.1453
55.5200 -36.9820 0.1484
55.5400 -36.9952 0.1442
55.5600 -37.0086 0.1474
55.5800 -37.0220 0.1487
55.6000 -37.0353 0.1483
55.6200 -37.0486 0.1481
55.6400 -37.0619 0.1499
55.6600 -37.0753 0.1454
55.6800 -37.0886 0.1500
55.7000 -37.1019 0.1506
55.7200 -37.1152 0.1505
55.7400 -37.1286 0.1495
55.7600 -37.1419 0.1528
55.7800 -37.1553 0.1512
55.8000 -37.1686 0.1555
55.8200 -37.1819 0.1568
55.8400 -37.1953 0.1549
55.8600 -37.2087 0.1566
55.8800 -37.2220 0.1575
55.9000 -37.2353 0.1565
55.9200 -37.2487 0.1581
55.9400 -37.2620 0.1594
55.9600 -37.2753 0.1576
55.9800 -37.2886 0.1588
56.0000 -37.3020 0.1606
56.0200 -37.3153 0.1597
56.0400 -37.3286 0.1604
56.0600 -37.3419 0.1587
56.0800 -37.3552 0.1577
56.1000 -37.3686 0.1599
56.1200 -37.3819 0.1622
56.1400 -37.3953 0.1613
56.1600 -37.4086 0.1611
56.1800 -37.4219 0.1611
56.2000 -37.4353 0.1606
56.2200 -37.4487 0.1631
56.2400 -37.4620 0.1626
56.2600 -37.4753 0.1623
56.2800 -37.4887 0.1619
56.3000 -37.5020 0.1645
56.3200 -37.5153 0.1635
56.3400 -37.5286 0.1637
56.3600 -37.5419 0.1652
56.3800 -37.5553 0.1661
56.4000 -37.5686 0.1664
56.4200 -37.5819 0.1685
56.4400 -37.5952 0.1659
56.4600 -37.6086 0.1677
56.4800 -37.6219 0.1676
56.5000 -37.6353 0.1674
56.5200 -37.6486 0.1677
56.5400 -37.6619 0.1703
56.5600 -37.6753 0.1698
56.5800 -37.6886 0.1691
56.6000 -37.7020 0.1716
56.6200 -37.7153 0.1689
56.6400 -37.7286 0.1694
56.6600 -37.7420 0.1726
56.6800 -37.7553 0.1704
56.7000 -37.7686 0.1714
56.7200 -37.7820 0.1725
56.7400 -37.7953 0.1719
56.7600 -37.8087 0.1718
56.7800 -37.8219 0.1719
56.8000 -37.8352 0.1704
56.8200 -37.8486 0.1724
56.8400 -37.8619 0.1736
56.8600 -37.8753 0.1751
56.8800 -37.8886 0.1746
56.9000 -37.9019 0.1782
56.9200 -37.9153 0.1748
56.9400 -37.9287 0.1769
56.9600 -37.9420 0.1798
56.9800 -37.9553 0.1795
57.0000 -37.9686 0.1790
57.0200 -37.9820 0.1810
57.0400 -37.9953 0.1810
57.0600 -38.0086 0.1813
57.0800 -38.0220 0.1823
57.1000 -38.0353 0.1820
57.1200 -38.0486 0.1843
57.1400 -38.0619 0.1857
57.1600 -38.0752 0.1855
57.1800 -38.0886 0.1859
57.2000 -38.1019 0.1886
57.2200 -38.1153 0.1851
57.2400 -38.1286 0.1847
57.2600 -38.1419 0.1861
57.2800 -38.1553 0.1864
57.3000 -38.1687 0.1865
57.3200 -38.1820 0.1878
57.3400 -38.1953 0.1862
57.3600 -38.2087 0.1872
57.3800 -38.2220 0.1909
57.4000 -38.2353 0.1893
57.4200 -38.2486 0.1889
57.4400 -38.2619 0.1910
57.4600 -38.2752 0.1910
57.4800 -38.2886 0.1929
57.5000 -38.3019 0.1948
57.5200 -38.3152 0.1907
57.5400 -38.3285 0.1930
57.5600 -38.3419 0.1950
57.5800 -38.3553 0.1957
57.6000 -38.3686 0.1955
57.6200 -38.3819 0.1968
57.6400 -38.3953 0.1974
57.6600 -38.4087 0.1958
57.6800 -38.4220 0.2000
57.7000 -38.4353 0.1979
57.7200 -38.4486 0.1982
57.7400 -38.4620 0.2009
57.7600 -38.4753 0.1999
57.7800 -38.4886 0.1985
57.8000 -38.5020 0.1993
57.8200 -38.5153 0.1998
57.8400 -38.5286 0.1980
57.8600 -38.5419 0.2033
57.8800 -38.5552 0.2020
57.9000 -38.5686 0.2029
57.9200 -38.5819 0.2040
57.9400 -38.5953 0.2052
57.9600 -38.6086 0.2021
57.9800 -38.6219 0.2060
58.0000 -38.6353 0.2057
58.0200 -38.6487 0.2049
58.0400 -38.6620 0.2074
58.0600 -38.6753 0.2067
58.0800 -38.6886 0.2096
58.1000 -38.7020 0.2105
58.1200 -38.7153 0.2116
58.1400 -38.7286 0.2089
58.1600 -38.7419 0.2127
58.1800 -38.7553 0.2106
58.2000 -38.7686 0.2119
58.2200 -38.7819 0.2129
58.2400 -38.7952 0.2139
58.2600 -38.8086 0.2138
58.2800 -38.8219 0.2152
58.3000 -38.8353 0.2134
58.3200 -38.8486 0.2118
58.3400 -38.8619 0.2150
58.3600 -38.8753 0.2146
58.3800 -38.8887 0.2141
58.4000 -38.9020 0.2145
58.4200 -38.9153 0.2140
58.4400 -38.9286 0.2123
58.4600 -38.9420 0.2142
58.4800 -38.9553 0.2156
58.5000 -38.9686 0.2131
58.5200 -38.9819 0.2173
58.5400 -38.9953 0.2151
58.5600 -39.0086 0.2159
58.5800 -39.0219 0.2179
58.6000 -39.0352 0.2183
58.6200 -39.0486 0.2175
58.6400 -39.0619 0.2212
58.6600 -39.0753 0.2203
58.6800 -39.0886 0.2197
58.7000 -39.1019 0.2233
58.7200 -39.1153 0.2248
58.7400 -39.1287 0.2229
58.7600 -39.1420 0.2247
58.7800 -39.1553 0.2250
58.8000 -39.1686 0.2267
58.8200 -39.1820 0.2289
58.8400 -39.1953 0.2295
58.8600 -39.2086 0.2284
58.8800 -39.2220 0.2297
58.9000 -39.2353 0.2287
58.9200 -39.2486 0.2271
58.9400 -39.2619 0.2293
58.9600 -39.2752 0.2304
58.9800 -39.2885 0.2307
59.0000 -39.3019 0.2336
59.0200 -39.3153 0.2338
59.0400 -39.3286 0.2325
59.0600 -39.3419 0.2351
59.0800 -39.3553 0.2329
59.1000 -39.3687 0.2352
59.1200 -39.3820 0.2383
59.1400 -39.3953 0.2368
59.1600 -39.4086 0.2363
59.1800 -39.4220 0.2396
59.2000 -39.4353 0.2400
59.2200 -39.4487 0.2398
59.2400 -39.4619 0.2409
59.2600 -39.4753 0.2427
59.2800 -39.4886 0.2411
59.3000 -39.5019 0.2430
59.3200 -39.5152 0.2410
59.3400 -39.5285 0.2407
59.3600 -39.5419 0.2413
59.3800 -39.5552 0.2425
59.4000 -39.5686 0.2405
59.4200 -39.5819 0.2447
59.4400 -39.5953 0.2448
59.4600 -39.6087 0.2444
59.4800 -39.6220 0.2440
59.5000 -39.6353 0.2452
59.5200 -39.6486 0.2440
59.5400 -39.6620 0.2472
59.5600 -39.6753 0.2478
59.5800 -39.6886 0.2477
59.6000 -39.7019 0.2514
59.6200 -39.7153 0.2491
59.6400 -39.7286 0.2484
59.6600 -39.7419 0.2510
59.6800 -39.7552 0.2500
59.7000 -39.7685 0.2493
59.7200 -39.7819 0.2502
59.7400 -39.7953 0.2527
59.7600 -39.8086 0.2539
59.7800 -39.8219 0.2563
59.8000 -39.8353 0.2567
59.8200 -39.8487 0.2548
59.8400 -39.8620 0.2566
59.8600 -39.8753 0.2552
59.8800 -39.8886 0.2548
59.9000 -39.9019 0.2575
59.9200 -39.9153 0.2610
59.9400 -39.9286 0.2585
59.9600 -39.9420 0.2608
59.9800 -39.9553 0.2595
60.0000 -39.9686 0.2603
60.0200 -39.9820 0.2624
60.0400 -39.9953 0.2643
60.0480 -40.0005 0.2636
