Raw Data
Time Displacement Force
(s) (mm) (N)
0.0000 -0.0001 -0.4365
0.0200 -0.0002 -0.4412
0.0400 -0.0021 -0.4561
0.0600 -0.0096 -0.4554
0.0800 -0.0214 -0.4465
0.1000 -0.0340 -0.4475
0.1200 -0.0467 -0.4479
0.1400 -0.0602 -0.4488
0.1600 -0.0742 -0.4470
0.1800 -0.0883 -0.4486
0.2000 -0.1021 -0.4473
0.2200 -0.1157 -0.4470
0.2400 -0.1291 -0.4478
0.2600 -0.1424 -0.4474
0.2800 -0.1557 -0.4495
0.3000 -0.1690 -0.4488
0.3200 -0.1824 -0.4506
0.3400 -0.1957 -0.4490
0.3600 -0.2091 -0.4491
0.3800 -0.2223 -0.4498
0.4000 -0.2357 -0.4475
0.4200 -0.2490 -0.4470
0.4400 -0.2624 -0.4471
0.4600 -0.2757 -0.4444
0.4800 -0.2891 -0.4450
0.5000 -0.3024 -0.4455
0.5200 -0.3158 -0.4444
0.5400 -0.3291 -0.4461
0.5600 -0.3424 -0.4445
0.5800 -0.3558 -0.4447
0.6000 -0.3691 -0.4430
0.6200 -0.3825 -0.4427
0.6400 -0.3958 -0.4402
0.6600 -0.4091 -0.4383
0.6800 -0.4224 -0.4386
0.7000 -0.4358 -0.4382
0.7200 -0.4490 -0.4354
0.7400 -0.4623 -0.4375
0.7600 -0.4757 -0.4333
0.7800 -0.4891 -0.4333
0.8000 -0.5024 -0.4299
0.8200 -0.5158 -0.4296
0.8400 -0.5291 -0.4267
0.8600 -0.5424 -0.4294
0.8800 -0.5558 -0.4262
0.9000 -0.5691 -0.4249
0.9200 -0.5824 -0.4251
0.9400 -0.5958 -0.4229
0.9600 -0.6091 -0.4219
0.9800 -0.6225 -0.4221
1.0000 -0.6358 -0.4187
1.0200 -0.6491 -0.4181
1.0400 -0.6624 -0.4177
1.0600 -0.6757 -0.4153
1.0800 -0.6890 -0.4152
1.1000 -0.7023 -0.4170
1.1200 -0.7156 -0.4156
1.1400 -0.7290 -0.4135
1.1600 -0.7424 -0.4149
1.1800 -0.7557 -0.4119
1.2000 -0.7691 -0.4148
1.2200 -0.7824 -0.4129
1.2400 -0.7958 -0.4126
1.2600 -0.8092 -0.4096
1.2800 -0.8225 -0.4126
1.3000 -0.8358 -0.4102
1.3200 -0.8491 -0.4101
1.3400 -0.8625 -0.4102
1.3600 -0.8758 -0.4112
1.3800 -0.8891 -0.4086
1.4000 -0.9024 -0.4077
1.4200 -0.9158 -0.4061
1.4400 -0.9291 -0.4032
1.4600 -0.9423 -0.4077
1.4800 -0.9557 -0.4045
1.5000 -0.9690 -0.4034
1.5200 -0.9824 -0.4045
1.5400 -0.9957 -0.4015
1.5600 -1.0090 -0.4012
1.5800 -1.0224 -0.4005
1.6000 -1.0358 -0.3989
1.6200 -1.0492 -0.3965
1.6400 -1.0625 -0.3971
1.6600 -1.0758 -0.3963
1.6800 -1.0891 -0.3943
1.7000 -1.1025 -0.3961
1.7200 -1.1158 -0.3942
1.7400 -1.1291 -0.3920
1.7600 -1.1424 -0.3927
1.7800 -1.1558 -0.3894
1.8000 -1.1691 -0.3901
1.8200 -1.1824 -0.3873
1.8400 -1.1957 -0.3887
1.8600 -1.2091 -0.3841
1.8800 -1.2224 -0.3866
1.9000 -1.2358 -0.3847
1.9200 -1.2491 -0.3854
1.9400 -1.2624 -0.3874
1.9600 -1.2758 -0.3843
1.9800 -1.2891 -0.3812
2.0000 -1.3024 -0.3831
2.0200 -1.3157 -0.3827
2.0400 -1.3291 -0.3805
2.0600 -1.3425 -0.3831
2.0800 -1.3558 -0.3792
2.1000 -1.3691 -0.3786
2.1200 -1.3824 -0.3810
2.1400 -1.3958 -0.3797
2.1600 -1.4091 -0.3797
2.1800 -1.4224 -0.3815
2.2000 -1.4357 -0.3799
2.2200 -1.4491 -0.3781
2.2400 -1.4624 -0.3800
2.2600 -1.4757 -0.3783
2.2800 -1.4890 -0.3776
2.3000 -1.5024 -0.3816
2.3200 -1.5158 -0.3803
2.3400 -1.5292 -0.3794
2.3600 -1.5425 -0.3804
2.3800 -1.5558 -0.3777
2.4000 -1.5692 -0.3791
2.4200 -1.5825 -0.3799
2.4400 -1.5958 -0.3777
2.4600 -1.6091 -0.3758
2.4800 -1.6224 -0.3761
2.5000 -1.6358 -0.3757
2.5200 -1.6491 -0.3744
2.5400 -1.6624 -0.3765
2.5600 -1.6757 -0.3729
2.5800 -1.6890 -0.3731
2.6000 -1.7024 -0.3732
2.6200 -1.7157 -0.3711
2.6400 -1.7291 -0.3706
2.6600 -1.7424 -0.3709
2.6800 -1.7558 -0.3694
2.7000 -1.7691 -0.3682
2.7200 -1.7824 -0.3702
2.7400 -1.7958 -0.3703
2.7600 -1.8091 -0.3697
2.7800 -1.8225 -0.3698
2.8000 -1.8358 -0.3688
2.8200 -1.8491 -0.3677
2.8400 -1.8624 -0.3700
2.8600 -1.8758 -0.3690
2.8800 -1.8891 -0.3675
2.9000 -1.9024 -0.3686
2.9200 -1.9157 -0.3662
2.9400 -1.9290 -0.3675
2.9600 -1.9424 -0.3693
2.9800 -1.9558 -0.3678
3.0000 -1.9691 -0.3660
3.0200 -1.9824 -0.3687
3.0400 -1.9958 -0.3670
3.0600 -2.0091 -0.3671
3.0800 -2.0224 -0.3686
3.1000 -2.0358 -0.3676
3.1200 -2.0491 -0.3642
3.1400 -2.0625 -0.3670
3.1600 -2.0758 -0.3637
3.1800 -2.0891 -0.3614
3.2000 -2.1025 -0.3641
3.2200 -2.1158 -0.3601
3.2400 -2.1291 -0.3609
3.2600 -2.1424 -0.3625
3.2800 -2.1557 -0.3638
3.3000 -2.1691 -0.3580
3.3200 -2.1824 -0.3609
3.3400 -2.1958 -0.3577
3.3600 -2.2091 -0.3575
3.3800 -2.2224 -0.3592
3.4000 -2.2358 -0.3569
3.4200 -2.2492 -0.3559
3.4400 -2.2625 -0.3561
3.4600 -2.2758 -0.3546
3.4800 -2.2891 -0.3524
3.5000 -2.3025 -0.3527
3.5200 -2.3158 -0.3517
3.5400 -2.3291 -0.3512
3.5600 -2.3424 -0.3495
3.5800 -2.3558 -0.3506
3.6000 -2.3691 -0.3485
3.6200 -2.3824 -0.3499
3.6400 -2.3957 -0.3484
3.6600 -2.4091 -0.3456
3.6800 -2.4224 -0.3473
3.7000 -2.4358 -0.3443
3.7200 -2.4491 -0.3424
3.7400 -2.4624 -0.3435
3.7600 -2.4758 -0.3443
3.7800 -2.4892 -0.3415
3.8000 -2.5025 -0.3397
3.8200 -2.5158 -0.3391
3.8400 -2.5291 -0.3373
3.8600 -2.5425 -0.3386
3.8800 -2.5558 -0.3391
3.9000 -2.5691 -0.3360
3.9200 -2.5824 -0.3370
3.9400 -2.5957 -0.3365
3.9600 -2.6091 -0.3336
3.9800 -2.6224 -0.3339
4.0000 -2.6357 -0.3348
4.0200 -2.6491 -0.3307
4.0400 -2.6624 -0.3315
4.0600 -2.6758 -0.3298
4.0800 -2.6891 -0.3300
4.1000 -2.7024 -0.3300
4.1200 -2.7158 -0.3325
4.1400 -2.7291 -0.3271
4.1600 -2.7425 -0.3295
4.1800 -2.7558 -0.3277
4.2000 -2.7691 -0.3288
4.2200 -2.7825 -0.3291
4.2400 -2.7958 -0.3293
4.2600 -2.8091 -0.3279
4.2800 -2.8224 -0.3279
4.3000 -2.8358 -0.3276
4.3200 -2.8491 -0.3266
4.3400 -2.8624 -0.3269
4.3600 -2.8757 -0.3253
4.3800 -2.8890 -0.3250
4.4000 -2.9024 -0.3267
4.4200 -2.9157 -0.3270
4.4400 -2.9290 -0.3265
4.4600 -2.9424 -0.3258
4.4800 -2.9557 -0.3261
4.5000 -2.9691 -0.3239
4.5200 -2.9825 -0.3265
4.5400 -2.9958 -0.3248
4.5600 -3.0091 -0.3234
4.5800 -3.0225 -0.3234
4.6000 -3.0358 -0.3247
4.6200 -3.0491 -0.3203
4.6400 -3.0624 -0.3224
4.6600 -3.0758 -0.3226
4.6800 -3.0891 -0.3205
4.7000 -3.1024 -0.3208
4.7200 -3.1157 -0.3198
4.7400 -3.1291 -0.3198
4.7600 -3.1424 -0.3208
4.7800 -3.1558 -0.3208
4.8000 -3.1691 -0.3179
4.8200 -3.1824 -0.3161
4.8400 -3.1958 -0.3155
4.8600 -3.2092 -0.3153
4.8800 -3.2225 -0.3145
4.9000 -3.2358 -0.3154
4.9200 -3.2491 -0.3112
4.9400 -3.2624 -0.3131
4.9600 -3.2758 -0.3097
4.9800 -3.2891 -0.3098
5.0000 -3.3024 -0.3072
5.0200 -3.3158 -0.3087
5.0400 -3.3291 -0.3066
5.0600 -3.3424 -0.3069
5.0800 -3.3557 -0.3041
5.1000 -3.3690 -0.3044
5.1200 -3.3824 -0.3050
5.1400 -3.3958 -0.3071
5.1600 -3.4091 -0.3037
5.1800 -3.4224 -0.3046
5.2000 -3.4358 -0.3045
5.2200 -3.4491 -0.3021
5.2400 -3.4625 -0.3035
5.2600 -3.4758 -0.3044
5.2800 -3.4891 -0.3022
5.3000 -3.5025 -0.3037
5.3200 -3.5158 -0.3017
5.3400 -3.5291 -0.3014
5.3600 -3.5424 -0.3036
5.3800 -3.5558 -0.3015
5.4000 -3.5691 -0.2977
5.4200 -3.5824 -0.3000
5.4400 -3.5957 -0.3011
5.4600 -3.6090 -0.2984
5.4800 -3.6224 -0.2973
5.5000 -3.6357 -0.2983
5.5200 -3.6490 -0.2957
5.5400 -3.6624 -0.2974
5.5600 -3.6757 -0.2945
5.5800 -3.6891 -0.2920
5.6000 -3.7025 -0.2924
5.6200 -3.7158 -0.2951
5.6400 -3.7291 -0.2924
5.6600 -3.7425 -0.2919
5.6800 -3.7558 -0.2914
5.7000 -3.7691 -0.2906
5.7200 -3.7824 -0.2933
5.7400 -3.7958 -0.2933
5.7600 -3.8091 -0.2884
5.7800 -3.8224 -0.2899
5.8000 -3.8357 -0.2884
5.8200 -3.8490 -0.2865
5.8400 -3.8624 -0.2890
5.8600 -3.8758 -0.2897
5.8800 -3.8891 -0.2886
5.9000 -3.9024 -0.2880
5.9200 -3.9157 -0.2880
5.9400 -3.9291 -0.2850
5.9600 -3.9425 -0.2846
5.9800 -3.9558 -0.2855
6.0000 -3.9691 -0.2808
6.0200 -3.9825 -0.2819
6.0400 -3.9958 -0.2824
6.0600 -4.0092 -0.2790
6.0800 -4.0225 -0.2800
6.1000 -4.0358 -0.2796
6.1200 -4.0492 -0.2775
6.1400 -4.0625 -0.2782
6.1600 -4.0757 -0.2813
6.1800 -4.0890 -0.2764
6.2000 -4.1024 -0.2773
6.2200 -4.1157 -0.2782
6.2400 -4.1291 -0.2766
6.2600 -4.1424 -0.2749
6.2800 -4.1557 -0.2759
6.3000 -4.1691 -0.2735
6.3200 -4.1825 -0.2736
6.3400 -4.1958 -0.2747
6.3600 -4.2091 -0.2734
6.3800 -4.2224 -0.2743
6.4000 -4.2358 -0.2744
6.4200 -4.2491 -0.2740
6.4400 -4.2625 -0.2739
6.4600 -4.2758 -0.2751
6.4800 -4.2891 -0.2725
6.5000 -4.3025 -0.2712
6.5200 -4.3157 -0.2760
6.5400 -4.3290 -0.2733
6.5600 -4.3424 -0.2744
6.5800 -4.3557 -0.2745
6.6000 -4.3691 -0.2734
6.6200 -4.3824 -0.2726
6.6400 -4.3957 -0.2736
6.6600 -4.4091 -0.2724
6.6800 -4.4225 -0.2731
6.7000 -4.4358 -0.2754
6.7200 -4.4491 -0.2733
6.7400 -4.4625 -0.2730
6.7600 -4.4758 -0.2733
6.7800 -4.4892 -0.2697
6.8000 -4.5024 -0.2698
6.8200 -4.5157 -0.2707
6.8400 -4.5291 -0.2701
6.8600 -4.5424 -0.2700
6.8800 -4.5557 -0.2707
6.9000 -4.5690 -0.2665
6.9200 -4.5824 -0.2677
6.9400 -4.5957 -0.2697
6.9600 -4.6091 -0.2671
6.9800 -4.6224 -0.2667
7.0000 -4.6358 -0.2671
7.0200 -4.6491 -0.2650
7.0400 -4.6625 -0.2648
7.0600 -4.6758 -0.2684
7.0800 -4.6891 -0.2632
7.1000 -4.7024 -0.2637
7.1200 -4.7158 -0.2646
7.1400 -4.7291 -0.2611
7.1600 -4.7425 -0.2607
7.1800 -4.7558 -0.2625
7.2000 -4.7691 -0.2580
7.2200 -4.7825 -0.2570
7.2400 -4.7957 -0.2578
7.2600 -4.8091 -0.2575
7.2800 -4.8224 -0.2576
7.3000 -4.8357 -0.2576
7.3200 -4.8491 -0.2538
7.3400 -4.8624 -0.2540
7.3600 -4.8757 -0.2560
7.3800 -4.8891 -0.2507
7.4000 -4.9025 -0.2515
7.4200 -4.9158 -0.2517
7.4400 -4.9291 -0.2518
7.4600 -4.9424 -0.2496
7.4800 -4.9558 -0.2511
7.5000 -4.9692 -0.2483
7.5200 -4.9825 -0.2481
7.5400 -4.9958 -0.2486
7.5600 -5.0091 -0.2471
7.5800 -5.0224 -0.2467
7.6000 -5.0357 -0.2473
7.6200 -5.0490 -0.2445
7.6400 -5.0624 -0.2444
7.6600 -5.0758 -0.2478
7.6800 -5.0891 -0.2425
7.7000 -5.1024 -0.2446
7.7200 -5.1158 -0.2448
7.7400 -5.1291 -0.2431
7.7600 -5.1425 -0.2432
7.7800 -5.1558 -0.2450
7.8000 -5.1691 -0.2434
7.8200 -5.1824 -0.2416
7.8400 -5.1958 -0.2423
7.8600 -5.2091 -0.2422
7.8800 -5.2224 -0.2405
7.9000 -5.2357 -0.2420
7.9200 -5.2491 -0.2408
7.9400 -5.2624 -0.2406
7.9600 -5.2757 -0.2416
7.9800 -5.2890 -0.2394
8.0000 -5.3024 -0.2401
8.0200 -5.3158 -0.2405
8.0400 -5.3291 -0.2383
8.0600 -5.3424 -0.2392
8.0800 -5.3558 -0.2391
8.1000 -5.3691 -0.2388
8.1200 -5.3825 -0.2364
8.1400 -5.3958 -0.2404
8.1600 -5.4091 -0.2371
8.1800 -5.4224 -0.2356
8.2000 -5.4358 -0.2347
8.2200 -5.4492 -0.2349
8.2400 -5.4625 -0.2329
8.2600 -5.4758 -0.2353
8.2800 -5.4891 -0.2340
8.3000 -5.5024 -0.2335
8.3200 -5.5157 -0.2337
8.3400 -5.5290 -0.2314
8.3600 -5.5423 -0.2307
8.3800 -5.5557 -0.2330
8.4000 -5.5691 -0.2318
8.4200 -5.5824 -0.2284
8.4400 -5.5957 -0.2306
8.4600 -5.6091 -0.2276
8.4800 -5.6225 -0.2277
8.5000 -5.6358 -0.2293
8.5200 -5.6491 -0.2285
8.5400 -5.6625 -0.2283
8.5600 -5.6758 -0.2275
8.5800 -5.6892 -0.2270
8.6000 -5.7025 -0.2264
8.6200 -5.7157 -0.2274
8.6400 -5.7291 -0.2254
8.6600 -5.7424 -0.2250
8.6800 -5.7557 -0.2248
8.7000 -5.7690 -0.2235
8.7200 -5.7824 -0.2215
8.7400 -5.7957 -0.2240
8.7600 -5.8091 -0.2204
8.7800 -5.8224 -0.2207
8.8000 -5.8357 -0.2240
8.8200 -5.8491 -0.2202
8.8400 -5.8625 -0.2182
8.8600 -5.8758 -0.2193
8.8800 -5.8891 -0.2202
8.9000 -5.9025 -0.2177
8.9200 -5.9158 -0.2185
8.9400 -5.9292 -0.2169
8.9600 -5.9425 -0.2179
8.9800 -5.9558 -0.2177
9.0000 -5.9691 -0.2168
9.0200 -5.9824 -0.2147
9.0400 -5.9957 -0.2172
9.0600 -6.0090 -0.2158
9.0800 -6.0224 -0.2154
9.1000 -6.0358 -0.2130
9.1200 -6.0491 -0.2141
9.1400 -6.0624 -0.2118
9.1600 -6.0758 -0.2131
9.1800 -6.0891 -0.2112
9.2000 -6.1025 -0.2092
9.2200 -6.1158 -0.2108
9.2400 -6.1290 -0.2111
9.2600 -6.1424 -0.2100
9.2800 -6.1557 -0.2106
9.3000 -6.1691 -0.2084
9.3200 -6.1824 -0.2079
9.3400 -6.1958 -0.2088
9.3600 -6.2091 -0.2076
9.3800 -6.2225 -0.2046
9.4000 -6.2358 -0.2051
9.4200 -6.2491 -0.2057
9.4400 -6.2624 -0.2054
9.4600 -6.2757 -0.2063
9.4800 -6.2891 -0.2056
9.5000 -6.3024 -0.2052
9.5200 -6.3157 -0.2066
9.5400 -6.3291 -0.2040
9.5600 -6.3425 -0.2025
9.5800 -6.3558 -0.2044
9.6000 -6.3691 -0.2033
9.6200 -6.3825 -0.2024
9.6400 -6.3958 -0.2040
9.6600 -6.4092 -0.2028
9.6800 -6.4225 -0.2035
9.7000 -6.4358 -0.2038
9.7200 -6.4491 -0.2010
9.7400 -6.4624 -0.1990
9.7600 -6.4757 -0.2023
9.7800 -6.4890 -0.2019
9.8000 -6.5024 -0.2011
9.8200 -6.5157 -0.2014
9.8400 -6.5291 -0.1987
9.8600 -6.5424 -0.1991
9.8800 -6.5557 -0.1987
9.9000 -6.5691 -0.1991
9.9200 -6.5825 -0.1977
9.9400 -6.5958 -0.1979
9.9600 -6.6091 -0.1943
9.9800 -6.6224 -0.1963
10.0000 -6.6358 -0.1967
10.0200 -6.6491 -0.1961
10.0400 -6.6624 -0.1919
10.0600 -6.6758 -0.1953
10.0800 -6.6891 -0.1954
10.1000 -6.7025 -0.1935
10.1200 -6.7158 -0.1950
10.1400 -6.7290 -0.1945
10.1600 -6.7424 -0.1917
10.1800 -6.7557 -0.1908
10.2000 -6.7691 -0.1907
10.2200 -6.7824 -0.1897
10.2400 -6.7957 -0.1907
10.2600 -6.8091 -0.1888
10.2800 -6.8225 -0.1891
10.3000 -6.8358 -0.1866
10.3200 -6.8491 -0.1888
10.3400 -6.8624 -0.1837
10.3600 -6.8758 -0.1850
10.3800 -6.8891 -0.1846
10.4000 -6.9025 -0.1860
10.4200 -6.9158 -0.1847
10.4400 -6.9291 -0.1847
10.4600 -6.9425 -0.1833
10.4800 -6.9558 -0.1824
10.5000 -6.9691 -0.1853
10.5200 -6.9824 -0.1837
10.5400 -6.9957 -0.1849
10.5600 -7.0091 -0.1833
10.5800 -7.0224 -0.1813
10.6000 -7.0358 -0.1838
10.6200 -7.0491 -0.1838
10.6400 -7.0625 -0.1818
10.6600 -7.0758 -0.1833
10.6800 -7.0891 -0.1838
10.7000 -7.1024 -0.1826
10.7200 -7.1158 -0.1809
10.7400 -7.1291 -0.1814
10.7600 -7.1424 -0.1812
10.7800 -7.1557 -0.1816
10.8000 -7.1691 -0.1825
10.8200 -7.1824 -0.1825
10.8400 -7.1957 -0.1824
10.8600 -7.2090 -0.1831
10.8800 -7.2224 -0.1797
10.9000 -7.2357 -0.1815
10.9200 -7.2491 -0.1826
10.9400 -7.2625 -0.1811
10.9600 -7.2758 -0.1822
10.9800 -7.2891 -0.1786
11.0000 -7.3025 -0.1806
11.0200 -7.3158 -0.1794
11.0400 -7.3291 -0.1819
11.0600 -7.3424 -0.1799
11.0800 -7.3558 -0.1806
11.1000 -7.3691 -0.1784
11.1200 -7.3824 -0.1748
11.1400 -7.3957 -0.1764
11.1600 -7.4090 -0.1750
11.1800 -7.4224 -0.1753
11.2000 -7.4357 -0.1745
11.2200 -7.4490 -0.1756
11.2400 -7.4624 -0.1728
11.2600 -7.4758 -0.1748
11.2800 -7.4891 -0.1718
11.3000 -7.5024 -0.1715
11.3200 -7.5158 -0.1700
11.3400 -7.5291 -0.1724
11.3600 -7.5425 -0.1684
11.3800 -7.5558 -0.1691
11.4000 -7.5691 -0.1696
11.4200 -7.5824 -0.1670
11.4400 -7.5958 -0.1687
11.4600 -7.6091 -0.1672
11.4800 -7.6225 -0.1681
11.5000 -7.6358 -0.1661
11.5200 -7.6491 -0.1676
11.5400 -7.6625 -0.1624
11.5600 -7.6758 -0.1638
11.5800 -7.6891 -0.1638
11.6000 -7.7024 -0.1636
11.6200 -7.7157 -0.1631
11.6400 -7.7290 -0.1643
11.6600 -7.7424 -0.1627
11.6800 -7.7557 -0.1620
11.7000 -7.7691 -0.1602
11.7200 -7.7825 -0.1600
11.7400 -7.7958 -0.1595
11.7600 -7.8091 -0.1603
11.7800 -7.8224 -0.1591
11.8000 -7.8358 -0.1619
11.8200 -7.8492 -0.1584
11.8400 -7.8625 -0.1559
11.8600 -7.8758 -0.1554
11.8800 -7.8891 -0.1579
11.9000 -7.9024 -0.1543
11.9200 -7.9157 -0.1542
11.9400 -7.9290 -0.1545
11.9600 -7.9424 -0.1539
11.9800 -7.9557 -0.1534
12.0000 -7.9691 -0.1540
12.0200 -7.9824 -0.1523
12.0400 -7.9957 -0.1523
12.0600 -8.0091 -0.1547
12.0800 -8.0225 -0.1539
12.1000 -8.0358 -0.1526
12.1200 -8.0491 -0.1515
12.1400 -8.0624 -0.1506
12.1600 -8.0757 -0.1503
12.1800 -8.0891 -0.1513
12.2000 -8.1025 -0.1479
12.2200 -8.1158 -0.1487
12.2400 -8.1291 -0.1491
12.2600 -8.1424 -0.1471
12.2800 -8.1558 -0.1493
12.3000 -8.1691 -0.1503
12.3200 -8.1824 -0.1483
12.3400 -8.1957 -0.1449
12.3600 -8.2091 -0.1451
12.3800 -8.2224 -0.1449
12.4000 -8.2357 -0.1457
12.4200 -8.2491 -0.1485
12.4400 -8.2624 -0.1457
12.4600 -8.2758 -0.1440
12.4800 -8.2891 -0.1446
12.5000 -8.3024 -0.1448
12.5200 -8.3158 -0.1444
12.5400 -8.3291 -0.1445
12.5600 -8.3425 -0.1408
12.5800 -8.3558 -0.1415
12.6000 -8.3691 -0.1424
12.6200 -8.3824 -0.1398
12.6400 -8.3958 -0.1402
12.6600 -8.4091 -0.1407
12.6800 -8.4223 -0.1399
12.7000 -8.4357 -0.1414
12.7200 -8.4490 -0.1418
12.7400 -8.4624 -0.1360
12.7600 -8.4757 -0.1355
12.7800 -8.4891 -0.1364
12.8000 -8.5024 -0.1360
12.8200 -8.5158 -0.1371
12.8400 -8.5291 -0.1352
12.8600 -8.5424 -0.1350
12.8800 -8.5558 -0.1342
12.9000 -8.5691 -0.1346
12.9200 -8.5825 -0.1335
12.9400 -8.5958 -0.1345
12.9600 -8.6091 -0.1319
12.9800 -8.6225 -0.1322
13.0000 -8.6358 -0.1312
13.0200 -8.6491 -0.1327
13.0400 -8.6624 -0.1304
13.0600 -8.6757 -0.1320
13.0800 -8.6891 -0.1309
13.1000 -8.7024 -0.1303
13.1200 -8.7157 -0.1302
13.1400 -8.7291 -0.1302
13.1600 -8.7424 -0.1295
13.1800 -8.7558 -0.1278
13.2000 -8.7691 -0.1286
13.2200 -8.7824 -0.1263
13.2400 -8.7958 -0.1278
13.2600 -8.8091 -0.1273
13.2800 -8.8225 -0.1282
13.3000 -8.8358 -0.1267
13.3200 -8.8491 -0.1274
13.3400 -8.8625 -0.1252
13.3600 -8.8758 -0.1238
13.3800 -8.8891 -0.1276
13.4000 -8.9024 -0.1280
13.4200 -8.9157 -0.1260
13.4400 -8.9291 -0.1260
13.4600 -8.9424 -0.1244
13.4800 -8.9557 -0.1250
13.5000 -8.9690 -0.1275
13.5200 -8.9824 -0.1234
13.5400 -8.9958 -0.1223
13.5600 -9.0091 -0.1246
13.5800 -9.0224 -0.1242
13.6000 -9.0358 -0.1243
13.6200 -9.0491 -0.1231
13.6400 -9.0625 -0.1233
13.6600 -9.0758 -0.1236
13.6800 -9.0891 -0.1253
13.7000 -9.1025 -0.1238
13.7200 -9.1158 -0.1228
13.7400 -9.1291 -0.1238
13.7600 -9.1424 -0.1239
13.7800 -9.1557 -0.1228
13.8000 -9.1691 -0.1266
13.8200 -9.1824 -0.1202
13.8400 -9.1957 -0.1224
13.8600 -9.2090 -0.1214
13.8800 -9.2224 -0.1216
13.9000 -9.2358 -0.1184
13.9200 -9.2492 -0.1201
13.9400 -9.2625 -0.1184
13.9600 -9.2758 -0.1201
13.9800 -9.2892 -0.1187
14.0000 -9.3025 -0.1170
14.0200 -9.3158 -0.1156
14.0400 -9.3291 -0.1177
14.0600 -9.3424 -0.1169
14.0800 -9.3557 -0.1159
14.1000 -9.3690 -0.1155
14.1200 -9.3823 -0.1128
14.1400 -9.3957 -0.1137
14.1600 -9.4090 -0.1118
14.1800 -9.4224 -0.1121
14.2000 -9.4358 -0.1111
14.2200 -9.4491 -0.1121
14.2400 -9.4625 -0.1107
14.2600 -9.4758 -0.1106
14.2800 -9.4892 -0.1096
14.3000 -9.5024 -0.1070
14.3200 -9.5158 -0.1056
14.3400 -9.5292 -0.1068
14.3600 -9.5425 -0.1042
14.3800 -9.5558 -0.1057
14.4000 -9.5691 -0.1030
14.4200 -9.5825 -0.1032
14.4400 -9.5958 -0.1012
14.4600 -9.6091 -0.1020
14.4800 -9.6224 -0.1019
14.5000 -9.6357 -0.1017
14.5200 -9.6491 -0.1020
14.5400 -9.6624 -0.1012
14.5600 -9.6757 -0.0999
14.5800 -9.6890 -0.0996
14.6000 -9.7024 -0.0985
14.6200 -9.7158 -0.0974
14.6400 -9.7291 -0.0979
14.6600 -9.7424 -0.0948
14.6800 -9.7558 -0.0957
14.7000 -9.7691 -0.0943
14.7200 -9.7825 -0.0934
14.7400 -9.7958 -0.0945
14.7600 -9.8091 -0.0960
14.7800 -9.8224 -0.0934
14.8000 -9.8358 -0.0909
14.8200 -9.8491 -0.0921
14.8400 -9.8624 -0.0924
14.8600 -9.8757 -0.0926
14.8800 -9.8890 -0.0921
14.9000 -9.9024 -0.0912
14.9200 -9.9158 -0.0905
14.9400 -9.9291 -0.0918
14.9600 -9.9424 -0.0927
14.9800 -9.9558 -0.0940
15.0000 -9.9691 -0.0920
15.0200 -9.9824 -0.0935
15.0400 -9.9958 -0.0925
15.0600 -10.0091 -0.0917
15.0800 -10.0225 -0.0891
15.1000 -10.0358 -0.0903
15.1200 -10.0491 -0.0913
15.1400 -10.0624 -0.0905
15.1600 -10.0757 -0.0896
15.1800 -10.0891 -0.0897
15.2000 -10.1024 -0.0906
15.2200 -10.1157 -0.0902
15.2400 -10.1291 -0.0892
15.2600 -10.1424 -0.0879
15.2800 -10.1558 -0.0876
15.3000 -10.1691 -0.0881
15.3200 -10.1824 -0.0891
15.3400 -10.1958 -0.0877
15.3600 -10.2092 -0.0871
15.3800 -10.2225 -0.0886
15.4000 -10.2358 -0.0873
15.4200 -10.2491 -0.0871
15.4400 -10.2625 -0.0869
15.4600 -10.2758 -0.0870
15.4800 -10.2891 -0.0839
15.5000 -10.3024 -0.0872
15.5200 -10.3158 -0.0853
15.5400 -10.3291 -0.0826
15.5600 -10.3424 -0.0834
15.5800 -10.3557 -0.0825
15.6000 -10.3690 -0.0828
15.6200 -10.3824 -0.0840
15.6400 -10.3957 -0.0832
15.6600 -10.4091 -0.0817
15.6800 -10.4224 -0.0813
15.7000 -10.4358 -0.0812
15.7200 -10.4492 -0.0804
15.7400 -10.4625 -0.0798
15.7600 -10.4758 -0.0797
15.7800 -10.4891 -0.0805
15.8000 -10.5025 -0.0792
15.8200 -10.5158 -0.0776
15.8400 -10.5291 -0.0769
15.8600 -10.5424 -0.0775
15.8800 -10.5558 -0.0749
15.9000 -10.5691 -0.0761
15.9200 -10.5824 -0.0753
15.9400 -10.5957 -0.0718
15.9600 -10.6090 -0.0728
15.9800 -10.6224 -0.0739
16.0000 -10.6357 -0.0721
16.0200 -10.6491 -0.0727
16.0400 -10.6624 -0.0718
16.0600 -10.6758 -0.0695
16.0800 -10.6892 -0.0690
16.1000 -10.7025 -0.0689
16.1200 -10.7158 -0.0707
16.1400 -10.7291 -0.0685
16.1600 -10.7425 -0.0702
16.1800 -10.7558 -0.0675
16.2000 -10.7691 -0.0676
16.2200 -10.7824 -0.0659
16.2400 -10.7957 -0.0663
16.2600 -10.8091 -0.0644
16.2800 -10.8224 -0.0656
16.3000 -10.8357 -0.0640
16.3200 -10.8490 -0.0650
16.3400 -10.8624 -0.0653
16.3600 -10.8758 -0.0653
16.3800 -10.8891 -0.0627
16.4000 -10.9024 -0.0624
16.4200 -10.9158 -0.0618
16.4400 -10.9292 -0.0614
16.4600 -10.9424 -0.0617
16.4800 -10.9557 -0.0621
16.5000 -10.9691 -0.0616
16.5200 -10.9824 -0.0616
16.5400 -10.9958 -0.0602
16.5600 -11.0091 -0.0613
16.5800 -11.0224 -0.0585
16.6000 -11.0358 -0.0583
16.6200 -11.0491 -0.0569
16.6400 -11.0624 -0.0595
16.6600 -11.0757 -0.0570
16.6800 -11.0891 -0.0591
16.7000 -11.1024 -0.0585
16.7200 -11.1158 -0.0572
16.7400 -11.1291 -0.0580
16.7600 -11.1424 -0.0579
16.7800 -11.1558 -0.0569
16.8000 -11.1692 -0.0573
16.8200 -11.1825 -0.0565
16.8400 -11.1958 -0.0566
16.8600 -11.2092 -0.0563
16.8800 -11.2225 -0.0555
16.9000 -11.2358 -0.0560
16.9200 -11.2491 -0.0522
16.9400 -11.2624 -0.0537
16.9600 -11.2758 -0.0530
16.9800 -11.2891 -0.0539
17.0000 -11.3024 -0.0541
17.0200 -11.3157 -0.0540
17.0400 -11.3290 -0.0509
17.0600 -11.3424 -0.0515
17.0800 -11.3557 -0.0500
17.1000 -11.3691 -0.0512
17.1200 -11.3824 -0.0494
17.1400 -11.3958 -0.0485
17.1600 -11.4092 -0.0470
17.1800 -11.4225 -0.0490
17.2000 -11.4358 -0.0482
17.2200 -11.4491 -0.0461
17.2400 -11.4625 -0.0471
17.2600 -11.4758 -0.0471
17.2800 -11.4891 -0.0459
17.3000 -11.5024 -0.0458
17.3200 -11.5158 -0.0454
17.3400 -11.5291 -0.0446
17.3600 -11.5424 -0.0424
17.3800 -11.5557 -0.0439
17.4000 -11.5690 -0.0417
17.4200 -11.5824 -0.0430
17.4400 -11.5958 -0.0416
17.4600 -11.6091 -0.0418
17.4800 -11.6224 -0.0410
17.5000 -11.6357 -0.0409
17.5200 -11.6491 -0.0403
17.5400 -11.6624 -0.0432
17.5600 -11.6758 -0.0412
17.5800 -11.6891 -0.0401
17.6000 -11.7024 -0.0375
17.6200 -11.7158 -0.0392
17.6400 -11.7291 -0.0395
17.6600 -11.7424 -0.0389
17.6800 -11.7558 -0.0365
17.7000 -11.7691 -0.0351
17.7200 -11.7824 -0.0355
17.7400 -11.7957 -0.0368
17.7600 -11.8091 -0.0349
17.7800 -11.8224 -0.0343
17.8000 -11.8358 -0.0346
17.8200 -11.8491 -0.0353
17.8400 -11.8624 -0.0328
17.8600 -11.8758 -0.0336
17.8800 -11.8892 -0.0327
17.9000 -11.9025 -0.0337
17.9200 -11.9158 -0.0337
17.9400 -11.9291 -0.0325
17.9600 -11.9425 -0.0328
17.9800 -11.9558 -0.0343
18.0000 -11.9691 -0.0326
18.0200 -11.9824 -0.0325
18.0400 -11.9958 -0.0326
18.0600 -12.0091 -0.0303
18.0800 -12.0224 -0.0312
18.1000 -12.0357 -0.0291
18.1200 -12.0490 -0.0310
18.1400 -12.0624 -0.0303
18.1600 -12.0758 -0.0316
18.1800 -12.0891 -0.0283
18.2000 -12.1024 -0.0280
18.2200 -12.1158 -0.0276
18.2400 -12.1292 -0.0286
18.2600 -12.1425 -0.0285
18.2800 -12.1558 -0.0286
18.3000 -12.1691 -0.0277
18.3200 -12.1824 -0.0269
18.3400 -12.1958 -0.0272
18.3600 -12.2091 -0.0263
18.3800 -12.2224 -0.0264
18.4000 -12.2357 -0.0273
18.4200 -12.2491 -0.0267
18.4400 -12.2624 -0.0271
18.4600 -12.2757 -0.0280
18.4800 -12.2890 -0.0269
18.5000 -12.3024 -0.0260
18.5200 -12.3158 -0.0259
18.5400 -12.3291 -0.0256
18.5600 -12.3424 -0.0268
18.5800 -12.3558 -0.0245
18.6000 -12.3692 -0.0248
18.6200 -12.3825 -0.0240
18.6400 -12.3958 -0.0253
18.6600 -12.4091 -0.0193
18.6800 -12.4224 -0.0214
18.7000 -12.4358 -0.0205
18.7200 -12.4491 -0.0214
18.7400 -12.4624 -0.0218
18.7600 -12.4758 -0.0228
18.7800 -12.4891 -0.0194
18.8000 -12.5024 -0.0203
18.8200 -12.5157 -0.0214
18.8400 -12.5290 -0.0191
18.8600 -12.5424 -0.0187
18.8800 -12.5557 -0.0159
18.9000 -12.5690 -0.0155
18.9200 -12.5824 -0.0142
18.9400 -12.5957 -0.0160
18.9600 -12.6091 -0.0148
18.9800 -12.6225 -0.0172
19.0000 -12.6358 -0.0172
19.0200 -12.6491 -0.0153
19.0400 -12.6625 -0.0130
19.0600 -12.6759 -0.0146
19.0800 -12.6892 -0.0155
19.1000 -12.7024 -0.0141
19.1200 -12.7158 -0.0154
19.1400 -12.7291 -0.0136
19.1600 -12.7424 -0.0147
19.1800 -12.7557 -0.0134
19.2000 -12.7691 -0.0119
19.2200 -12.7824 -0.0108
19.2400 -12.7958 -0.0118
19.2600 -12.8091 -0.0121
19.2800 -12.8224 -0.0092
19.3000 -12.8358 -0.0116
19.3200 -12.8491 -0.0090
19.3400 -12.8625 -0.0091
19.3600 -12.8758 -0.0098
19.3800 -12.8891 -0.0089
19.4000 -12.9024 -0.0088
19.4200 -12.9158 -0.0084
19.4400 -12.9291 -0.0077
19.4600 -12.9424 -0.0073
19.4800 -12.9558 -0.0065
19.5000 -12.9691 -0.0041
19.5200 -12.9824 -0.0047
19.5400 -12.9957 -0.0060
19.5600 -13.0090 -0.0038
19.5800 -13.0224 -0.0051
19.6000 -13.0357 -0.0051
19.6200 -13.0491 -0.0031
19.6400 -13.0624 -0.0023
19.6600 -13.0758 -0.0033
19.6800 -13.0891 -0.0012
19.7000 -13.1025 -0.0009
19.7200 -13.1158 0.0001
19.7400 -13.1291 -0.0007
19.7600 -13.1425 0.0006
19.7800 -13.1558 -0.0001
19.8000 -13.1691 0.0014
19.8200 -13.1824 0.0032
19.8400 -13.1958 0.0028
19.8600 -13.2091 0.0047
19.8800 -13.2224 0.0055
19.9000 -13.2357 0.0052
19.9200 -13.2490 0.0066
19.9400 -13.2623 0.0077
19.9600 -13.2757 0.0071
19.9800 -13.2891 0.0070
20.0000 -13.3024 0.0076
20.0200 -13.3158 0.0076
20.0400 -13.3292 0.0074
20.0600 -13.3425 0.0110
20.0800 -13.3558 0.0086
20.1000 -13.3691 0.0107
20.1200 -13.3825 0.0121
20.1400 -13.3958 0.0118
20.1600 -13.4091 0.0133
20.1800 -13.4224 0.0148
20.2000 -13.4358 0.0127
20.2200 -13.4491 0.0129
20.2400 -13.4624 0.0144
20.2600 -13.4757 0.0120
20.2800 -13.4890 0.0146
20.3000 -13.5024 0.0146
20.3200 -13.5158 0.0162
20.3400 -13.5291 0.0141
20.3600 -13.5424 0.0160
20.3800 -13.5557 0.0122
20.4000 -13.5691 0.0131
20.4200 -13.5825 0.0122
20.4400 -13.5958 0.0132
20.4600 -13.6091 0.0119
20.4800 -13.6224 0.0126
20.5000 -13.6358 0.0133
20.5200 -13.6491 0.0119
20.5400 -13.6625 0.0136
20.5600 -13.6758 0.0131
20.5800 -13.6891 0.0122
20.6000 -13.7024 0.0144
20.6200 -13.7157 0.0116
20.6400 -13.7290 0.0130
20.6600 -13.7424 0.0141
20.6800 -13.7557 0.0131
20.7000 -13.7691 0.0143
20.7200 -13.7824 0.0149
20.7400 -13.7957 0.0113
20.7600 -13.8091 0.0133
20.7800 -13.8225 0.0142
20.8000 -13.8358 0.0150
20.8200 -13.8491 0.0152
20.8400 -13.8624 0.0174
20.8600 -13.8758 0.0154
20.8800 -13.8892 0.0133
20.9000 -13.9025 0.0177
20.9200 -13.9158 0.0165
20.9400 -13.9291 0.0181
20.9600 -13.9425 0.0184
20.9800 -13.9557 0.0178
21.0000 -13.9690 0.0179
21.0200 -13.9824 0.0198
21.0400 -13.9957 0.0186
21.0600 -14.0091 0.0207
21.0800 -14.0224 0.0222
21.1000 -14.0357 0.0233
21.1200 -14.0491 0.0227
21.1400 -14.0625 0.0266
21.1600 -14.0758 0.0249
21.1800 -14.0891 0.0252
21.2000 -14.1025 0.0263
21.2200 -14.1158 0.0261
21.2400 -14.1292 0.0272
21.2600 -14.1424 0.0296
21.2800 -14.1557 0.0281
21.3000 -14.1691 0.0291
21.3200 -14.1824 0.0328
21.3400 -14.1957 0.0308
21.3600 -14.2090 0.0311
21.3800 -14.2224 0.0332
21.4000 -14.2357 0.0323
21.4200 -14.2491 0.0332
21.4400 -14.2624 0.0349
21.4600 -14.2757 0.0344
21.4800 -14.2891 0.0347
21.5000 -14.3025 0.0382
21.5200 -14.3158 0.0361
21.5400 -14.3291 0.0380
21.5600 -14.3424 0.0390
21.5800 -14.3558 0.0365
21.6000 -14.3691 0.0368
21.6200 -14.3825 0.0398
21.6400 -14.3958 0.0408
21.6600 -14.4091 0.0409
21.6800 -14.4225 0.0417
21.7000 -14.4358 0.0403
21.7200 -14.4491 0.0409
21.7400 -14.4624 0.0423
21.7600 -14.4757 0.0430
21.7800 -14.4891 0.0421
21.8000 -14.5024 0.0439
21.8200 -14.5157 0.0442
21.8400 -14.5291 0.0448
21.8600 -14.5425 0.0461
21.8800 -14.5558 0.0468
21.9000 -14.5691 0.0446
21.9200 -14.5824 0.0484
21.9400 -14.5958 0.0473
21.9600 -14.6091 0.0488
21.9800 -14.6224 0.0514
22.0000 -14.6358 0.0489
22.0200 -14.6491 0.0506
22.0400 -14.6624 0.0505
22.0600 -14.6757 0.0491
22.0800 -14.6890 0.0482
22.1000 -14.7024 0.0522
22.1200 -14.7157 0.0512
22.1400 -14.7291 0.0507
22.1600 -14.7424 0.0534
22.1800 -14.7558 0.0532
22.2000 -14.7691 0.0514
22.2200 -14.7825 0.0558
22.2400 -14.7958 0.0558
22.2600 -14.8091 0.0530
22.2800 -14.8225 0.0555
22.3000 -14.8358 0.0528
22.3200 -14.8491 0.0555
22.3400 -14.8624 0.0565
22.3600 -14.8757 0.0547
22.3800 -14.8891 0.0556
22.4000 -14.9024 0.0587
22.4200 -14.9157 0.0571
22.4400 -14.9290 0.0554
22.4600 -14.9424 0.0575
22.4800 -14.9558 0.0585
22.5000 -14.9691 0.0576
22.5200 -14.9824 0.0592
22.5400 -14.9958 0.0605
22.5600 -15.0091 0.0614
22.5800 -15.0225 0.0631
22.6000 -15.0358 0.0617
22.6200 -15.0491 0.0605
22.6400 -15.0624 0.0631
22.6600 -15.0758 0.0610
22.6800 -15.0892 0.0601
22.7000 -15.1025 0.0597
22.7200 -15.1158 0.0622
22.7400 -15.1291 0.0610
22.7600 -15.1424 0.0646
22.7800 -15.1557 0.0625
22.8000 -15.1690 0.0618
22.8200 -15.1823 0.0653
22.8400 -15.1957 0.0630
22.8600 -15.2091 0.0652
22.8800 -15.2224 0.0645
22.9000 -15.2357 0.0649
22.9200 -15.2491 0.0629
22.9400 -15.2625 0.0677
22.9600 -15.2758 0.0673
22.9800 -15.2891 0.0673
23.0000 -15.3025 0.0681
23.0200 -15.3158 0.0693
23.0400 -15.3292 0.0659
23.0600 -15.3425 0.0680
23.0800 -15.3558 0.0693
23.1000 -15.3691 0.0680
23.1200 -15.3824 0.0722
23.1400 -15.3957 0.0694
23.1600 -15.4090 0.0694
23.1800 -15.4223 0.0714
23.2000 -15.4357 0.0734
23.2200 -15.4490 0.0727
23.2400 -15.4624 0.0751
23.2600 -15.4757 0.0738
23.2800 -15.4891 0.0747
23.3000 -15.5025 0.0775
23.3200 -15.5158 0.0738
23.3400 -15.5291 0.0747
23.3600 -15.5425 0.0757
23.3800 -15.5558 0.0792
23.4000 -15.5692 0.0759
23.4200 -15.5825 0.0799
23.4400 -15.5958 0.0768
23.4600 -15.6091 0.0787
23.4800 -15.6224 0.0782
23.5000 -15.6357 0.0817
23.5200 -15.6490 0.0790
23.5400 -15.6624 0.0824
23.5600 -15.6757 0.0810
23.5800 -15.6891 0.0799
23.6000 -15.7024 0.0844
23.6200 -15.7158 0.0822
23.6400 -15.7291 0.0811
23.6600 -15.7425 0.0839
23.6800 -15.7558 0.0827
23.7000 -15.7691 0.0829
23.7200 -15.7824 0.0851
23.7400 -15.7958 0.0838
23.7600 -15.8091 0.0855
23.7800 -15.8225 0.0848
23.8000 -15.8358 0.0882
23.8200 -15.8491 0.0828
23.8400 -15.8625 0.0875
23.8600 -15.8758 0.0844
23.8800 -15.8891 0.0872
23.9000 -15.9024 0.0878
23.9200 -15.9157 0.0906
23.9400 -15.9291 0.0880
23.9600 -15.9424 0.0880
23.9800 -15.9557 0.0887
24.0000 -15.9691 0.0893
24.0200 -15.9825 0.0896
24.0400 -15.9959 0.0903
24.0600 -16.0092 0.0891
24.0800 -16.0225 0.0905
24.1000 -16.0358 0.0934
24.1200 -16.0492 0.0914
24.1400 -16.0625 0.0930
24.1600 -16.0758 0.0919
24.1800 -16.0891 0.0921
24.2000 -16.1024 0.0932
24.2200 -16.1157 0.0955
24.2400 -16.1290 0.0937
24.2600 -16.1423 0.0941
24.2800 -16.1557 0.0941
24.3000 -16.1691 0.0911
24.3200 -16.1824 0.0941
24.3400 -16.1957 0.0948
24.3600 -16.2091 0.0951
24.3800 -16.2225 0.0942
24.4000 -16.2358 0.0985
24.4200 -16.2491 0.0956
24.4400 -16.2624 0.0987
24.4600 -16.2758 0.0967
24.4800 -16.2891 0.0999
24.5000 -16.3024 0.0998
24.5200 -16.3158 0.1007
24.5400 -16.3291 0.1001
24.5600 -16.3425 0.1042
24.5800 -16.3558 0.1069
24.6000 -16.3690 0.1048
24.6200 -16.3823 0.1094
24.6400 -16.3957 0.1086
24.6600 -16.4091 0.1080
24.6800 -16.4224 0.1088
24.7000 -16.4357 0.1109
24.7200 -16.4491 0.1082
24.7400 -16.4624 0.1117
24.7600 -16.4758 0.1118
24.7800 -16.4891 0.1121
24.8000 -16.5024 0.1140
24.8200 -16.5158 0.1138
24.8400 -16.5292 0.1111
24.8600 -16.5425 0.1153
24.8800 -16.5558 0.1171
24.9000 -16.5691 0.1161
24.9200 -16.5825 0.1166
24.9400 -16.5958 0.1165
24.9600 -16.6091 0.1161
24.9800 -16.6224 0.1179
25.0000 -16.6358 0.1185
25.0200 -16.6491 0.1169
25.0400 -16.6625 0.1188
25.0600 -16.6758 0.1195
25.0800 -16.6891 0.1192
25.1000 -16.7025 0.1197
25.1200 -16.7158 0.1228
25.1400 -16.7291 0.1201
25.1600 -16.7424 0.1231
25.1800 -16.7558 0.1223
25.2000 -16.7691 0.1199
25.2200 -16.7825 0.1220
25.2400 -16.7958 0.1241
25.2600 -16.8091 0.1212
25.2800 -16.8225 0.1216
25.3000 -16.8358 0.1214
25.3200 -16.8491 0.1221
25.3400 -16.8624 0.1221
25.3600 -16.8757 0.1245
25.3800 -16.8891 0.1239
25.4000 -16.9025 0.1231
25.4200 -16.9158 0.1248
25.4400 -16.9291 0.1254
25.4600 -16.9424 0.1278
25.4800 -16.9558 0.1286
25.5000 -16.9691 0.1267
25.5200 -16.9824 0.1294
25.5400 -16.9957 0.1303
25.5600 -17.0091 0.1290
25.5800 -17.0224 0.1300
25.6000 -17.0357 0.1336
25.6200 -17.0490 0.1308
25.6400 -17.0624 0.1312
25.6600 -17.0757 0.1334
25.6800 -17.0891 0.1307
25.7000 -17.1024 0.1344
25.7200 -17.1157 0.1365
25.7400 -17.1291 0.1372
25.7600 -17.1424 0.1372
25.7800 -17.1557 0.1362
25.8000 -17.1691 0.1345
25.8200 -17.1825 0.1366
25.8400 -17.1958 0.1384
25.8600 -17.2091 0.1363
25.8800 -17.2224 0.1366
25.9000 -17.2358 0.1392
25.9200 -17.2491 0.1378
25.9400 -17.2625 0.1404
25.9600 -17.2758 0.1412
25.9800 -17.2891 0.1395
26.0000 -17.3025 0.1410
26.0200 -17.3158 0.1436
26.0400 -17.3291 0.1406
26.0600 -17.3424 0.1430
26.0800 -17.3557 0.1443
26.1000 -17.3691 0.1431
26.1200 -17.3824 0.1435
26.1400 -17.3957 0.1439
26.1600 -17.4090 0.1426
26.1800 -17.4224 0.1442
26.2000 -17.4358 0.1469
26.2200 -17.4491 0.1460
26.2400 -17.4625 0.1458
26.2600 -17.4758 0.1495
26.2800 -17.4892 0.1466
26.3000 -17.5025 0.1484
26.3200 -17.5158 0.1493
26.3400 -17.5291 0.1479
26.3600 -17.5424 0.1478
26.3800 -17.5558 0.1509
26.4000 -17.5691 0.1488
26.4200 -17.5824 0.1495
26.4400 -17.5957 0.1515
26.4600 -17.6091 0.1510
26.4800 -17.6225 0.1519
26.5000 -17.6358 0.1529
26.5200 -17.6491 0.1525
26.5400 -17.6625 0.1543
26.5600 -17.6758 0.1574
26.5800 -17.6891 0.1548
26.6000 -17.7024 0.1563
26.6200 -17.7158 0.1574
26.6400 -17.7291 0.1579
26.6600 -17.7425 0.1576
26.6800 -17.7558 0.1596
26.7000 -17.7691 0.1578
26.7200 -17.7824 0.1583
26.7400 -17.7958 0.1612
26.7600 -17.8091 0.1590
26.7800 -17.8224 0.1597
26.8000 -17.8357 0.1635
26.8200 -17.8491 0.1610
26.8400 -17.8624 0.1620
26.8600 -17.8757 0.1649
26.8800 -17.8891 0.1631
26.9000 -17.9024 0.1633
26.9200 -17.9158 0.1664
26.9400 -17.9291 0.1642
26.9600 -17.9424 0.1665
26.9800 -17.9558 0.1670
27.0000 -17.9692 0.1670
27.0200 -17.9825 0.1681
27.0400 -17.9958 0.1704
27.0600 -18.0091 0.1667
27.0800 -18.0224 0.1697
27.1000 -18.0358 0.1705
27.1200 -18.0491 0.1686
27.1400 -18.0624 0.1705
27.1600 -18.0757 0.1708
27.1800 -18.0890 0.1710
27.2000 -18.1024 0.1714
27.2200 -18.1157 0.1706
27.2400 -18.1291 0.1720
27.2600 -18.1424 0.1722
27.2800 -18.1558 0.1766
27.3000 -18.1692 0.1755
27.3200 -18.1825 0.1756
27.3400 -18.1958 0.1771
27.3600 -18.2092 0.1766
27.3800 -18.2225 0.1768
27.4000 -18.2358 0.1804
27.4200 -18.2491 0.1770
27.4400 -18.2624 0.1771
27.4600 -18.2758 0.1794
27.4800 -18.2891 0.1795
27.5000 -18.3024 0.1798
27.5200 -18.3157 0.1824
27.5400 -18.3291 0.1812
27.5600 -18.3424 0.1815
27.5800 -18.3557 0.1832
27.6000 -18.3690 0.1832
27.6200 -18.3824 0.1848
27.6400 -18.3958 0.1865
27.6600 -18.4091 0.1848
27.6800 -18.4224 0.1842
27.7000 -18.4358 0.1871
27.7200 -18.4491 0.1885
27.7400 -18.4625 0.1882
27.7600 -18.4758 0.1890
27.7800 -18.4891 0.1913
27.8000 -18.5025 0.1904
27.8200 -18.5158 0.1939
27.8400 -18.5291 0.1902
27.8600 -18.5424 0.1917
27.8800 -18.5557 0.1928
27.9000 -18.5691 0.1928
27.9200 -18.5824 0.1935
27.9400 -18.5957 0.1942
27.9600 -18.6091 0.1945
27.9800 -18.6224 0.1966
28.0000 -18.6358 0.1987
28.0200 -18.6491 0.1982
28.0400 -18.6624 0.1971
28.0600 -18.6758 0.1996
28.0800 -18.6891 0.1976
28.1000 -18.7025 0.1981
28.1200 -18.7158 0.1987
28.1400 -18.7291 0.1990
28.1600 -18.7425 0.1977
28.1800 -18.7558 0.2023
28.2000 -18.7691 0.2024
28.2200 -18.7824 0.2042
28.2400 -18.7957 0.2046
28.2600 -18.8091 0.2054
28.2800 -18.8224 0.2050
28.3000 -18.8357 0.2066
28.3200 -18.8491 0.2059
28.3400 -18.8624 0.2062
28.3600 -18.8758 0.2073
28.3800 -18.8892 0.2084
28.4000 -18.9025 0.2066
28.4200 -18.9158 0.2092
28.4400 -18.9292 0.2078
28.4600 -18.9425 0.2098
28.4800 -18.9558 0.2110
28.5000 -18.9691 0.2111
28.5200 -18.9824 0.2090
28.5400 -18.9957 0.2132
28.5600 -19.0090 0.2112
28.5800 -19.0223 0.2106
28.6000 -19.0357 0.2114
28.6200 -19.0491 0.2110
28.6400 -19.0624 0.2115
28.6600 -19.0758 0.2127
28.6800 -19.0891 0.2134
28.7000 -19.1024 0.2126
28.7200 -19.1158 0.2170
28.7400 -19.1292 0.2162
28.7600 -19.1425 0.2170
28.7800 -19.1558 0.2176
28.8000 -19.1691 0.2173
28.8200 -19.1825 0.2157
28.8400 -19.1958 0.2196
28.8600 -19.2091 0.2206
28.8800 -19.2225 0.2183
28.9000 -19.2358 0.2214
28.9200 -19.2491 0.2217
28.9400 -19.2624 0.2201
28.9600 -19.2757 0.2241
28.9800 -19.2891 0.2226
29.0000 -19.3024 0.2236
29.0200 -19.3157 0.2263
29.0400 -19.3290 0.2274
29.0600 -19.3424 0.2256
29.0800 -19.3558 0.2307
29.1000 -19.3691 0.2294
29.1200 -19.3824 0.2269
29.1400 -19.3958 0.2298
29.1600 -19.4091 0.2319
29.1800 -19.4225 0.2294
29.2000 -19.4358 0.2318
29.2200 -19.4491 0.2294
29.2400 -19.4624 0.2310
29.2600 -19.4758 0.2320
29.2800 -19.4891 0.2334
29.3000 -19.5024 0.2341
29.3200 -19.5157 0.2350
29.3400 -19.5290 0.2352
29.3600 -19.5424 0.2349
29.3800 -19.5558 0.2365
29.4000 -19.5691 0.2363
29.4200 -19.5824 0.2337
29.4400 -19.5958 0.2360
29.4600 -19.6091 0.2382
29.4800 -19.6225 0.2360
29.5000 -19.6358 0.2400
29.5200 -19.6491 0.2398
29.5400 -19.6625 0.2401
29.5600 -19.6758 0.2430
29.5800 -19.6891 0.2427
29.6000 -19.7024 0.2412
29.6200 -19.7157 0.2455
29.6400 -19.7291 0.2438
29.6600 -19.7423 0.2425
29.6800 -19.7557 0.2452
29.7000 -19.7690 0.2441
29.7200 -19.7824 0.2451
29.7400 -19.7958 0.2472
29.7600 -19.8091 0.2467
29.7800 -19.8224 0.2447
29.8000 -19.8358 0.2488
29.8200 -19.8492 0.2505
29.8400 -19.8624 0.2510
29.8600 -19.8758 0.2505
29.8800 -19.8891 0.2518
29.9000 -19.9025 0.2522
29.9200 -19.9158 0.2524
29.9400 -19.9291 0.2550
29.9600 -19.9424 0.2543
29.9800 -19.9558 0.2570
30.0000 -19.9691 0.2583
30.0200 -19.9824 0.2575
30.0400 -19.9957 0.2591
30.0600 -20.0090 0.2583
30.0800 -20.0224 0.2582
30.1000 -20.0357 0.2610
30.1200 -20.0491 0.2606
30.1400 -20.0624 0.2342
30.1600 -20.0758 0.1830
30.1800 -20.0892 0.1262
30.2000 -20.1025 0.0738
30.2200 -20.1158 0.0267
30.2400 -20.1291 -0.0240
30.2600 -20.1425 -0.0814
30.2800 -20.1558 -0.1431
30.3000 -20.1691 -0.2065
30.3200 -20.1824 -0.2725
30.3400 -20.1958 -0.3280
30.3600 -20.2091 -0.3801
30.3800 -20.2224 -0.4235
30.4000 -20.2357 -0.4491
30.4200 -20.2490 -0.4675
30.4400 -20.2624 -0.4952
30.4600 -20.2757 -0.5235
30.4800 -20.2891 -0.5592
30.5000 -20.3024 -0.5956
30.5200 -20.3158 -0.6309
30.5400 -20.3292 -0.6673
30.5600 -20.3425 -0.7079
30.5800 -20.3558 -0.7419
30.6000 -20.3691 -0.7753
30.6200 -20.3825 -0.7902
30.6400 -20.3958 -0.7891
30.6600 -20.4091 -0.7862
30.6800 -20.4224 -0.7842
30.7000 -20.4358 -0.7834
30.7200 -20.4491 -0.7816
30.7400 -20.4624 -0.7819
30.7600 -20.4757 -0.7778
30.7800 -20.4890 -0.7777
30.8000 -20.5024 -0.7787
30.8200 -20.5158 -0.7748
30.8400 -20.5291 -0.7735
30.8600 -20.5424 -0.7723
30.8800 -20.5558 -0.7684
30.9000 -20.5691 -0.7675
30.9200 -20.5824 -0.7653
30.9400 -20.5957 -0.7650
30.9600 -20.6091 -0.7625
30.9800 -20.6224 -0.7622
31.0000 -20.6358 -0.7595
31.0200 -20.6491 -0.7570
31.0400 -20.6624 -0.7579
31.0600 -20.6758 -0.7542
31.0800 -20.6891 -0.7538
31.1000 -20.7024 -0.7533
31.1200 -20.7157 -0.7524
31.1400 -20.7291 -0.7511
31.1600 -20.7424 -0.7498
31.1800 -20.7557 -0.7471
31.2000 -20.7691 -0.7459
31.2200 -20.7824 -0.7453
31.2400 -20.7958 -0.7416
31.2600 -20.8092 -0.7393
31.2800 -20.8225 -0.7396
31.3000 -20.8358 -0.7355
31.3200 -20.8491 -0.7339
31.3400 -20.8625 -0.7320
31.3600 -20.8758 -0.7295
31.3800 -20.8891 -0.7284
31.4000 -20.9024 -0.7276
31.4200 -20.9158 -0.7250
31.4400 -20.9291 -0.7222
31.4600 -20.9424 -0.7216
31.4800 -20.9557 -0.7210
31.5000 -20.9690 -0.7182
31.5200 -20.9824 -0.7176
31.5400 -20.9958 -0.7156
31.5600 -21.0091 -0.7110
31.5800 -21.0224 -0.7108
31.6000 -21.0358 -0.7091
31.6200 -21.0491 -0.7073
31.6400 -21.0625 -0.7078
31.6600 -21.0758 -0.7060
31.6800 -21.0891 -0.7033
31.7000 -21.1025 -0.7028
31.7200 -21.1158 -0.7000
31.7400 -21.1291 -0.6984
31.7600 -21.1424 -0.6980
31.7800 -21.1558 -0.6942
31.8000 -21.1691 -0.6911
31.8200 -21.1824 -0.6908
31.8400 -21.1957 -0.6900
31.8600 -21.2090 -0.6859
31.8800 -21.2224 -0.6850
31.9000 -21.2358 -0.6800
31.9200 -21.2491 -0.6811
31.9400 -21.2624 -0.6814
31.9600 -21.2758 -0.6767
31.9800 -21.2891 -0.6758
32.0000 -21.3025 -0.6744
32.0200 -21.3158 -0.6718
32.0400 -21.3291 -0.6702
32.0600 -21.3424 -0.6703
32.0800 -21.3558 -0.6665
32.1000 -21.3691 -0.6645
32.1200 -21.3825 -0.6623
32.1400 -21.3958 -0.6622
32.1600 -21.4091 -0.6589
32.1800 -21.4224 -0.6597
32.2000 -21.4357 -0.6579
32.2200 -21.4491 -0.6558
32.2400 -21.4624 -0.6540
32.2600 -21.4758 -0.6537
32.2800 -21.4891 -0.6524
32.3000 -21.5024 -0.6534
32.3200 -21.5158 -0.6521
32.3400 -21.5292 -0.6479
32.3600 -21.5425 -0.6471
32.3800 -21.5558 -0.6461
32.4000 -21.5691 -0.6447
32.4200 -21.5824 -0.6436
32.4400 -21.5958 -0.6422
32.4600 -21.6091 -0.6402
32.4800 -21.6224 -0.6407
32.5000 -21.6358 -0.6375
32.5200 -21.6491 -0.6365
32.5400 -21.6624 -0.6364
32.5600 -21.6757 -0.6352
32.5800 -21.6890 -0.6314
32.6000 -21.7024 -0.6327
32.6200 -21.7158 -0.6318
32.6400 -21.7291 -0.6283
32.6600 -21.7424 -0.6272
32.6800 -21.7558 -0.6263
32.7000 -21.7691 -0.6226
32.7200 -21.7825 -0.6230
32.7400 -21.7958 -0.6214
32.7600 -21.8091 -0.6190
32.7800 -21.8225 -0.6180
32.8000 -21.8358 -0.6166
32.8200 -21.8491 -0.6151
32.8400 -21.8624 -0.6131
32.8600 -21.8757 -0.6120
32.8800 -21.8891 -0.6084
32.9000 -21.9024 -0.6085
32.9200 -21.9157 -0.6079
32.9400 -21.9291 -0.6059
32.9600 -21.9424 -0.6062
32.9800 -21.9558 -0.6038
33.0000 -21.9691 -0.6022
33.0200 -21.9824 -0.6026
33.0400 -21.9958 -0.6003
33.0600 -22.0091 -0.5992
33.0800 -22.0225 -0.5982
33.1000 -22.0358 -0.5976
33.1200 -22.0491 -0.5950
33.1400 -22.0624 -0.5920
33.1600 -22.0758 -0.5909
33.1800 -22.0891 -0.5899
33.2000 -22.1024 -0.5915
33.2200 -22.1158 -0.5900
33.2400 -22.1292 -0.5881
33.2600 -22.1425 -0.5842
33.2800 -22.1557 -0.5838
33.3000 -22.1690 -0.5825
33.3200 -22.1823 -0.5816
33.3400 -22.1957 -0.5810
33.3600 -22.2090 -0.5794
33.3800 -22.2223 -0.5788
33.4000 -22.2357 -0.5807
33.4200 -22.2491 -0.5767
33.4400 -22.2625 -0.5754
33.4600 -22.2758 -0.5738
33.4800 -22.2891 -0.5731
33.5000 -22.3025 -0.5724
33.5200 -22.3159 -0.5710
33.5400 -22.3292 -0.5685
33.5600 -22.3424 -0.5680
33.5800 -22.3558 -0.5689
33.6000 -22.3691 -0.5659
33.6200 -22.3824 -0.5641
33.6400 -22.3957 -0.5635
33.6600 -22.4090 -0.5635
33.6800 -22.4224 -0.5627
33.7000 -22.4358 -0.5608
33.7200 -22.4491 -0.5582
33.7400 -22.4624 -0.5575
33.7600 -22.4758 -0.5575
33.7800 -22.4891 -0.5542
33.8000 -22.5025 -0.5551
33.8200 -22.5158 -0.5540
33.8400 -22.5291 -0.5524
33.8600 -22.5424 -0.5521
33.8800 -22.5558 -0.5501
33.9000 -22.5691 -0.5484
33.9200 -22.5824 -0.5476
33.9400 -22.5958 -0.5473
33.9600 -22.6091 -0.5435
33.9800 -22.6224 -0.5434
34.0000 -22.6357 -0.5404
34.0200 -22.6490 -0.5399
34.0400 -22.6624 -0.5403
34.0600 -22.6758 -0.5363
34.0800 -22.6891 -0.5355
34.1000 -22.7024 -0.5353
34.1200 -22.7158 -0.5339
34.1400 -22.7291 -0.5338
34.1600 -22.7425 -0.5317
34.1800 -22.7558 -0.5316
34.2000 -22.7691 -0.5306
34.2200 -22.7825 -0.5294
34.2400 -22.7958 -0.5290
34.2600 -22.8092 -0.5275
34.2800 -22.8225 -0.5266
34.3000 -22.8358 -0.5264
34.3200 -22.8491 -0.5234
34.3400 -22.8625 -0.5246
34.3600 -22.8757 -0.5230
34.3800 -22.8890 -0.5217
34.4000 -22.9024 -0.5193
34.4200 -22.9157 -0.5188
34.4400 -22.9291 -0.5162
34.4600 -22.9424 -0.5176
34.4800 -22.9557 -0.5162
34.5000 -22.9691 -0.5145
34.5200 -22.9825 -0.5134
34.5400 -22.9958 -0.5136
34.5600 -23.0091 -0.5105
34.5800 -23.0225 -0.5093
34.6000 -23.0358 -0.5091
34.6200 -23.0492 -0.5075
34.6400 -23.0624 -0.5079
34.6600 -23.0758 -0.5055
34.6800 -23.0891 -0.5039
34.7000 -23.1025 -0.5006
34.7200 -23.1157 -0.5014
34.7400 -23.1290 -0.4997
34.7600 -23.1424 -0.4977
34.7800 -23.1558 -0.4976
34.8000 -23.1691 -0.4962
34.8200 -23.1824 -0.4953
34.8400 -23.1957 -0.4953
34.8600 -23.2091 -0.4926
34.8800 -23.2225 -0.4904
34.9000 -23.2358 -0.4882
34.9200 -23.2491 -0.4689
34.9400 -23.2624 -0.4547
34.9600 -23.2758 -0.4490
34.9800 -23.2892 -0.4455
35.0000 -23.3025 -0.4443
35.0200 -23.3158 -0.4436
35.0400 -23.3291 -0.4451
35.0600 -23.3425 -0.4441
35.0800 -23.3557 -0.4426
35.1000 -23.3690 -0.4427
35.1200 -23.3824 -0.4438
35.1400 -23.3957 -0.4417
35.1600 -23.4091 -0.4430
35.1800 -23.4224 -0.4408
35.2000 -23.4357 -0.4411
35.2200 -23.4491 -0.4418
35.2400 -23.4625 -0.4408
35.2600 -23.4758 -0.4399
35.2800 -23.4891 -0.4401
35.3000 -23.5024 -0.4367
35.3200 -23.5158 -0.4391
35.3400 -23.5291 -0.4368
35.3600 -23.5424 -0.4368
35.3800 -23.5558 -0.4346
35.4000 -23.5692 -0.4325
35.4200 -23.5825 -0.4325
35.4400 -23.5958 -0.4339
35.4600 -23.6090 -0.4330
35.4800 -23.6224 -0.4323
35.5000 -23.6357 -0.4294
35.5200 -23.6491 -0.4292
35.5400 -23.6624 -0.4277
35.5600 -23.6757 -0.4298
35.5800 -23.6891 -0.4271
35.6000 -23.7025 -0.4249
35.6200 -23.7158 -0.4252
35.6400 -23.7291 -0.4213
35.6600 -23.7425 -0.4219
35.6800 -23.7558 -0.4204
35.7000 -23.7692 -0.4190
35.7200 -23.7824 -0.4184
35.7400 -23.7957 -0.4193
35.7600 -23.8091 -0.4167
35.7800 -23.8224 -0.4168
35.8000 -23.8357 -0.4170
35.8200 -23.8490 -0.4153
35.8400 -23.8624 -0.4133
35.8600 -23.8757 -0.4130
35.8800 -23.8891 -0.4114
35.9000 -23.9024 -0.4112
35.9200 -23.9158 -0.4098
35.9400 -23.9291 -0.4094
35.9600 -23.9425 -0.4064
35.9800 -23.9558 -0.4072
36.0000 -23.9691 -0.4068
36.0200 -23.9824 -0.4087
36.0400 -23.9958 -0.4059
36.0600 -24.0092 -0.4056
36.0800 -24.0225 -0.4035
36.1000 -24.0358 -0.4027
36.1200 -24.0491 -0.4007
36.1400 -24.0625 -0.4005
36.1600 -24.0758 -0.3984
36.1800 -24.0891 -0.4010
36.2000 -24.1024 -0.3993
36.2200 -24.1158 -0.3979
36.2400 -24.1291 -0.3968
36.2600 -24.1424 -0.3956
36.2800 -24.1557 -0.3951
36.3000 -24.1691 -0.3949
36.3200 -24.1825 -0.3919
36.3400 -24.1958 -0.3924
36.3600 -24.2091 -0.3911
36.3800 -24.2224 -0.3895
36.4000 -24.2358 -0.3886
36.4200 -24.2491 -0.3900
36.4400 -24.2625 -0.3886
36.4600 -24.2758 -0.3871
36.4800 -24.2891 -0.3840
36.5000 -24.3024 -0.3849
36.5200 -24.3157 -0.3832
36.5400 -24.3290 -0.3834
36.5600 -24.3424 -0.3820
36.5800 -24.3557 -0.3817
36.6000 -24.3691 -0.3817
36.6200 -24.3824 -0.3801
36.6400 -24.3958 -0.3778
36.6600 -24.4091 -0.3765
36.6800 -24.4225 -0.3746
36.7000 -24.4358 -0.3752
36.7200 -24.4491 -0.3738
36.7400 -24.4624 -0.3727
36.7600 -24.4758 -0.3729
36.7800 -24.4891 -0.3712
36.8000 -24.5024 -0.3706
36.8200 -24.5157 -0.3677
36.8400 -24.5291 -0.3684
36.8600 -24.5424 -0.3663
36.8800 -24.5557 -0.3663
36.9000 -24.5690 -0.3654
36.9200 -24.5824 -0.3648
36.9400 -24.5958 -0.3626
36.9600 -24.6091 -0.3619
36.9800 -24.6225 -0.3616
37.0000 -24.6358 -0.3608
37.0200 -24.6491 -0.3566
37.0400 -24.6625 -0.3591
37.0600 -24.6758 -0.3575
37.0800 -24.6891 -0.3588
37.1000 -24.7025 -0.3551
37.1200 -24.7158 -0.3546
37.1400 -24.7292 -0.3540
37.1600 -24.7425 -0.3524
37.1800 -24.7558 -0.3506
37.2000 -24.7691 -0.3499
37.2200 -24.7824 -0.3485
37.2400 -24.7957 -0.3477
37.2600 -24.8090 -0.3488
37.2800 -24.8223 -0.3454
37.3000 -24.8357 -0.3452
37.3200 -24.8491 -0.3440
37.3400 -24.8624 -0.3456
37.3600 -24.8757 -0.3437
37.3800 -24.8891 -0.3426
37.4000 -24.9025 -0.3404
37.4200 -24.9158 -0.3393
37.4400 -24.9291 -0.3399
37.4600 -24.9425 -0.3375
37.4800 -24.9558 -0.3374
37.5000 -24.9692 -0.3353
37.5200 -24.9825 -0.3352
37.5400 -24.9958 -0.3338
37.5600 -25.0091 -0.3334
37.5800 -25.0224 -0.3317
37.6000 -25.0357 -0.3324
37.6200 -25.0490 -0.3316
37.6400 -25.0623 -0.3316
37.6600 -25.0757 -0.3282
37.6800 -25.0891 -0.3285
37.7000 -25.1024 -0.3273
37.7200 -25.1157 -0.3250
37.7400 -25.1291 -0.3233
37.7600 -25.1425 -0.3237
37.7800 -25.1559 -0.3243
37.8000 -25.1692 -0.3243
37.8200 -25.1825 -0.3225
37.8400 -25.1958 -0.3197
37.8600 -25.2091 -0.3204
37.8800 -25.2225 -0.3201
37.9000 -25.2358 -0.3181
37.9200 -25.2491 -0.3167
37.9400 -25.2624 -0.3139
37.9600 -25.2758 -0.3130
37.9800 -25.2891 -0.3148
38.0000 -25.3024 -0.3131
38.0200 -25.3157 -0.3113
38.0400 -25.3291 -0.3127
38.0600 -25.3424 -0.3096
38.0800 -25.3558 -0.3102
38.1000 -25.3691 -0.3092
38.1200 -25.3825 -0.3085
38.1400 -25.3958 -0.3064
38.1600 -25.4091 -0.3066
38.1800 -25.4224 -0.3068
38.2000 -25.4357 -0.3039
38.2200 -25.4491 -0.3054
38.2400 -25.4624 -0.3027
38.2600 -25.4757 -0.3036
38.2800 -25.4890 -0.3027
38.3000 -25.5024 -0.3017
38.3200 -25.5157 -0.2983
38.3400 -25.5290 -0.2995
38.3600 -25.5424 -0.2938
38.3800 -25.5557 -0.2951
38.4000 -25.5691 -0.2947
38.4200 -25.5824 -0.2954
38.4400 -25.5957 -0.2919
38.4600 -25.6091 -0.2935
38.4800 -25.6225 -0.2920
38.5000 -25.6358 -0.2899
38.5200 -25.6491 -0.2920
38.5400 -25.6625 -0.2915
38.5600 -25.6758 -0.2898
38.5800 -25.6892 -0.2886
38.6000 -25.7025 -0.2868
38.6200 -25.7158 -0.2872
38.6400 -25.7291 -0.2868
38.6600 -25.7424 -0.2851
38.6800 -25.7557 -0.2831
38.7000 -25.7690 -0.2827
38.7200 -25.7823 -0.2805
38.7400 -25.7957 -0.2793
38.7600 -25.8091 -0.2787
38.7800 -25.8224 -0.2781
38.8000 -25.8358 -0.2765
38.8200 -25.8491 -0.2768
38.8400 -25.8625 -0.2764
38.8600 -25.8758 -0.2756
38.8800 -25.8891 -0.2736
38.9000 -25.9024 -0.2751
38.9200 -25.9158 -0.2717
38.9400 -25.9291 -0.2730
38.9600 -25.9425 -0.2725
38.9800 -25.9558 -0.2717
39.0000 -25.9691 -0.2687
39.0200 -25.9825 -0.2674
39.0400 -25.9958 -0.2662
39.0600 -26.0091 -0.2659
39.0800 -26.0224 -0.2644
39.1000 -26.0357 -0.2644
39.1200 -26.0491 -0.2647
39.1400 -26.0624 -0.2624
39.1600 -26.0757 -0.2602
39.1800 -26.0891 -0.2595
39.2000 -26.1024 -0.2605
39.2200 -26.1158 -0.2585
39.2400 -26.1291 -0.2603
39.2600 -26.1424 -0.2595
39.2800 -26.1558 -0.2568
39.3000 -26.1691 -0.2551
39.3200 -26.1825 -0.2549
39.3400 -26.1958 -0.2552
39.3600 -26.2091 -0.2535
39.3800 -26.2225 -0.2537
39.4000 -26.2358 -0.2519
39.4200 -26.2491 -0.2502
39.4400 -26.2624 -0.2479
39.4600 -26.2757 -0.2463
39.4800 -26.2891 -0.2463
39.5000 -26.3024 -0.2481
39.5200 -26.3158 -0.2478
39.5400 -26.3291 -0.2454
39.5600 -26.3425 -0.2465
39.5800 -26.3558 -0.2422
39.6000 -26.3691 -0.2438
39.6200 -26.3824 -0.2417
39.6400 -26.3958 -0.2417
39.6600 -26.4091 -0.2388
39.6800 -26.4224 -0.2390
39.7000 -26.4358 -0.2367
39.7200 -26.4491 -0.2391
39.7400 -26.4624 -0.2374
39.7600 -26.4758 -0.2353
39.7800 -26.4891 -0.2339
39.8000 -26.5024 -0.2359
39.8200 -26.5157 -0.2342
39.8400 -26.5291 -0.2345
39.8600 -26.5424 -0.2332
39.8800 -26.5557 -0.2344
39.9000 -26.5691 -0.2319
39.9200 -26.5825 -0.2325
39.9400 -26.5958 -0.2275
39.9600 -26.6091 -0.2284
39.9800 -26.6224 -0.2291
40.0000 -26.6358 -0.2284
40.0200 -26.6491 -0.2274
40.0400 -26.6625 -0.2276
40.0600 -26.6758 -0.2254
40.0800 -26.6891 -0.2267
40.1000 -26.7024 -0.2260
40.1200 -26.7158 -0.2227
40.1400 -26.7291 -0.2239
40.1600 -26.7424 -0.2212
40.1800 -26.7557 -0.2221
40.2000 -26.7691 -0.2212
40.2200 -26.7824 -0.2212
40.2400 -26.7958 -0.2181
40.2600 -26.8091 -0.2170
40.2800 -26.8224 -0.2170
40.3000 -26.8358 -0.2153
40.3200 -26.8491 -0.2157
40.3400 -26.8624 -0.2160
40.3600 -26.8757 -0.2117
40.3800 -26.8891 -0.2141
40.4000 -26.9025 -0.2107
40.4200 -26.9158 -0.2081
40.4400 -26.9291 -0.2093
40.4600 -26.9425 -0.2085
40.4800 -26.9558 -0.2074
40.5000 -26.9691 -0.2065
40.5200 -26.9824 -0.2061
40.5400 -26.9957 -0.2029
40.5600 -27.0090 -0.2005
40.5800 -27.0224 -0.2023
40.6000 -27.0357 -0.1989
40.6200 -27.0490 -0.2011
40.6400 -27.0624 -0.1979
40.6600 -27.0758 -0.1973
40.6800 -27.0891 -0.1953
40.7000 -27.1024 -0.1961
40.7200 -27.1158 -0.1938
40.7400 -27.1292 -0.1957
40.7600 -27.1425 -0.1931
40.7800 -27.1558 -0.1918
40.8000 -27.1691 -0.1906
40.8200 -27.1824 -0.1913
40.8400 -27.1958 -0.1885
40.8600 -27.2091 -0.1895
40.8800 -27.2224 -0.1897
40.9000 -27.2357 -0.1888
40.9200 -27.2491 -0.1870
40.9400 -27.2625 -0.1858
40.9600 -27.2758 -0.1868
40.9800 -27.2891 -0.1854
41.0000 -27.3025 -0.1858
41.0200 -27.3158 -0.1834
41.0400 -27.3292 -0.1833
41.0600 -27.3425 -0.1833
41.0800 -27.3558 -0.1818
41.1000 -27.3691 -0.1819
41.1200 -27.3825 -0.1821
41.1400 -27.3958 -0.1811
41.1600 -27.4091 -0.1786
41.1800 -27.4224 -0.1796
41.2000 -27.4358 -0.1777
41.2200 -27.4491 -0.1795
41.2400 -27.4624 -0.1781
41.2600 -27.4757 -0.1762
41.2800 -27.4891 -0.1735
41.3000 -27.5024 -0.1741
41.3200 -27.5158 -0.1728
41.3400 -27.5291 -0.1722
41.3600 -27.5424 -0.1720
41.3800 -27.5558 -0.1714
41.4000 -27.5691 -0.1698
41.4200 -27.5825 -0.1697
41.4400 -27.5958 -0.1686
41.4600 -27.6092 -0.1690
41.4800 -27.6225 -0.1677
41.5000 -27.6358 -0.1669
41.5200 -27.6491 -0.1661
41.5400 -27.6624 -0.1657
41.5600 -27.6758 -0.1639
41.5800 -27.6891 -0.1608
41.6000 -27.7023 -0.1629
41.6200 -27.7157 -0.1598
41.6400 -27.7290 -0.1582
41.6600 -27.7424 -0.1582
41.6800 -27.7557 -0.1561
41.7000 -27.7690 -0.1554
41.7200 -27.7824 -0.1573
41.7400 -27.7958 -0.1549
41.7600 -27.8092 -0.1544
41.7800 -27.8225 -0.1547
41.8000 -27.8358 -0.1537
41.8200 -27.8492 -0.1508
41.8400 -27.8625 -0.1515
41.8600 -27.8758 -0.1486
41.8800 -27.8891 -0.1477
41.9000 -27.9024 -0.1494
41.9200 -27.9158 -0.1485
41.9400 -27.9291 -0.1467
41.9600 -27.9424 -0.1473
41.9800 -27.9557 -0.1445
42.0000 -27.9691 -0.1442
42.0200 -27.9824 -0.1429
42.0400 -27.9957 -0.1428
42.0600 -28.0090 -0.1411
42.0800 -28.0224 -0.1409
42.1000 -28.0358 -0.1390
42.1200 -28.0491 -0.1378
42.1400 -28.0624 -0.1398
42.1600 -28.0758 -0.1393
42.1800 -28.0891 -0.1370
42.2000 -28.1025 -0.1386
42.2200 -28.1158 -0.1348
42.2400 -28.1291 -0.1325
42.2600 -28.1425 -0.1340
42.2800 -28.1558 -0.1346
42.3000 -28.1691 -0.1324
42.3200 -28.1824 -0.1347
42.3400 -28.1957 -0.1322
42.3600 -28.2091 -0.1305
42.3800 -28.2224 -0.1288
42.4000 -28.2357 -0.1316
42.4200 -28.2491 -0.1276
42.4400 -28.2624 -0.1289
42.4600 -28.2758 -0.1270
42.4800 -28.2891 -0.1240
42.5000 -28.3024 -0.1256
42.5200 -28.3157 -0.1257
42.5400 -28.3291 -0.1236
42.5600 -28.3425 -0.1233
42.5800 -28.3558 -0.1223
42.6000 -28.3691 -0.1211
42.6200 -28.3825 -0.1228
42.6400 -28.3958 -0.1211
42.6600 -28.4091 -0.1200
42.6800 -28.4224 -0.1194
42.7000 -28.4357 -0.1178
42.7200 -28.4491 -0.1154
42.7400 -28.4624 -0.1169
42.7600 -28.4757 -0.1154
42.7800 -28.4890 -0.1163
42.8000 -28.5024 -0.1153
42.8200 -28.5158 -0.1146
42.8400 -28.5291 -0.1103
42.8600 -28.5425 -0.1118
42.8800 -28.5558 -0.1092
42.9000 -28.5691 -0.1076
42.9200 -28.5825 -0.1076
42.9400 -28.5958 -0.1077
42.9600 -28.6091 -0.1055
42.9800 -28.6224 -0.1069
43.0000 -28.6357 -0.1063
43.0200 -28.6490 -0.1052
43.0400 -28.6623 -0.1053
43.0600 -28.6757 -0.1030
43.0800 -28.6890 -0.1013
43.1000 -28.7024 -0.1023
43.1200 -28.7158 -0.0999
43.1400 -28.7291 -0.0993
43.1600 -28.7424 -0.0998
43.1800 -28.7558 -0.0993
43.2000 -28.7692 -0.0963
43.2200 -28.7825 -0.0974
43.2400 -28.7958 -0.0972
43.2600 -28.8091 -0.0942
43.2800 -28.8225 -0.0942
43.3000 -28.8358 -0.0919
43.3200 -28.8491 -0.0903
43.3400 -28.8625 -0.0920
43.3600 -28.8758 -0.0888
43.3800 -28.8891 -0.0893
43.4000 -28.9024 -0.0906
43.4200 -28.9157 -0.0891
43.4400 -28.9291 -0.0865
43.4600 -28.9424 -0.0874
43.4800 -28.9557 -0.0857
43.5000 -28.9690 -0.0850
43.5200 -28.9824 -0.0842
43.5400 -28.9958 -0.0838
43.5600 -29.0091 -0.0798
43.5800 -29.0224 -0.0813
43.6000 -29.0358 -0.0807
43.6200 -29.0491 -0.0787
43.6400 -29.0625 -0.0785
43.6600 -29.0758 -0.0795
43.6800 -29.0891 -0.0796
43.7000 -29.1024 -0.0808
43.7200 -29.1158 -0.0786
43.7400 -29.1291 -0.0770
43.7600 -29.1424 -0.0767
43.7800 -29.1557 -0.0767
43.8000 -29.1690 -0.0745
43.8200 -29.1824 -0.0739
43.8400 -29.1958 -0.0740
43.8600 -29.2091 -0.0702
43.8800 -29.2224 -0.0718
43.9000 -29.2358 -0.0705
43.9200 -29.2492 -0.0678
43.9400 -29.2625 -0.0688
43.9600 -29.2758 -0.0704
43.9800 -29.2891 -0.0684
44.0000 -29.3025 -0.0683
44.0200 -29.3158 -0.0658
44.0400 -29.3291 -0.0636
44.0600 -29.3424 -0.0632
44.0800 -29.3558 -0.0637
44.1000 -29.3691 -0.0610
44.1200 -29.3824 -0.0627
44.1400 -29.3957 -0.0609
44.1600 -29.4090 -0.0601
44.1800 -29.4224 -0.0587
44.2000 -29.4358 -0.0594
44.2200 -29.4491 -0.0565
44.2400 -29.4624 -0.0588
44.2600 -29.4758 -0.0572
44.2800 -29.4892 -0.0555
44.3000 -29.5025 -0.0550
44.3200 -29.5158 -0.0563
44.3400 -29.5291 -0.0511
44.3600 -29.5425 -0.0546
44.3800 -29.5558 -0.0522
44.4000 -29.5691 -0.0499
44.4200 -29.5824 -0.0483
44.4400 -29.5958 -0.0488
44.4600 -29.6091 -0.0462
44.4800 -29.6224 -0.0473
44.5000 -29.6357 -0.0467
44.5200 -29.6490 -0.0433
44.5400 -29.6624 -0.0441
44.5600 -29.6757 -0.0442
44.5800 -29.6891 -0.0423
44.6000 -29.7024 -0.0427
44.6200 -29.7158 -0.0403
44.6400 -29.7292 -0.0396
44.6600 -29.7425 -0.0386
44.6800 -29.7558 -0.0385
44.7000 -29.7691 -0.0349
44.7200 -29.7825 -0.0385
44.7400 -29.7958 -0.0371
44.7600 -29.8091 -0.0343
44.7800 -29.8224 -0.0330
44.8000 -29.8358 -0.0347
44.8200 -29.8491 -0.0300
44.8400 -29.8624 -0.0297
44.8600 -29.8757 -0.0305
44.8800 -29.8890 -0.0286
44.9000 -29.9024 -0.0294
44.9200 -29.9157 -0.0276
44.9400 -29.9290 -0.0263
44.9600 -29.9424 -0.0269
44.9800 -29.9558 -0.0250
45.0000 -29.9692 -0.0224
45.0200 -29.9825 -0.0240
45.0400 -29.9958 -0.0233
45.0600 -30.0091 -0.0216
45.0800 -30.0225 -0.0201
45.1000 -30.0358 -0.0191
45.1200 -30.0491 -0.0146
45.1400 -30.0624 -0.0168
45.1600 -30.0758 -0.0160
45.1800 -30.0891 -0.0145
45.2000 -30.1024 -0.0135
45.2200 -30.1157 -0.0143
45.2400 -30.1290 -0.0107
45.2600 -30.1424 -0.0129
45.2800 -30.1558 -0.0113
45.3000 -30.1691 -0.0097
45.3200 -30.1824 -0.0075
45.3400 -30.1958 -0.0095
45.3600 -30.2092 -0.0054
45.3800 -30.2225 -0.0084
45.4000 -30.2357 -0.0065
45.4200 -30.2490 -0.0050
45.4400 -30.2624 -0.0039
45.4600 -30.2758 -0.0038
45.4800 -30.2891 -0.0009
45.5000 -30.3024 -0.0011
45.5200 -30.3158 -0.0015
45.5400 -30.3291 0.0000
45.5600 -30.3424 0.0005
45.5800 -30.3557 -0.0013
45.6000 -30.3690 0.0010
45.6200 -30.3824 0.0006
45.6400 -30.3957 0.0024
45.6600 -30.4091 0.0048
45.6800 -30.4224 0.0042
45.7000 -30.4358 0.0034
45.7200 -30.4492 0.0074
45.7400 -30.4625 0.0050
45.7600 -30.4758 0.0067
45.7800 -30.4891 0.0069
45.8000 -30.5025 0.0095
45.8200 -30.5158 0.0074
45.8400 -30.5291 0.0107
45.8600 -30.5424 0.0101
45.8800 -30.5558 0.0108
45.9000 -30.5691 0.0115
45.9200 -30.5824 0.0137
45.9400 -30.5957 0.0113
45.9600 -30.6090 0.0146
45.9800 -30.6224 0.0129
46.0000 -30.6357 0.0130
46.0200 -30.6491 0.0158
46.0400 -30.6624 0.0169
46.0600 -30.6757 0.0172
46.0800 -30.6891 0.0195
46.1000 -30.7025 0.0187
46.1200 -30.7158 0.0175
46.1400 -30.7291 0.0215
46.1600 -30.7425 0.0222
46.1800 -30.7558 0.0233
46.2000 -30.7691 0.0224
46.2200 -30.7824 0.0230
46.2400 -30.7958 0.0229
46.2600 -30.8091 0.0267
46.2800 -30.8224 0.0262
46.3000 -30.8357 0.0243
46.3200 -30.8490 0.0265
46.3400 -30.8624 0.0267
46.3600 -30.8758 0.0266
46.3800 -30.8891 0.0287
46.4000 -30.9024 0.0300
46.4200 -30.9157 0.0278
46.4400 -30.9291 0.0309
46.4600 -30.9425 0.0325
46.4800 -30.9558 0.0319
46.5000 -30.9691 0.0346
46.5200 -30.9824 0.0332
46.5400 -30.9958 0.0341
46.5600 -31.0091 0.0371
46.5800 -31.0225 0.0391
46.6000 -31.0358 0.0352
46.6200 -31.0492 0.0421
46.6400 -31.0625 0.0399
46.6600 -31.0757 0.0394
46.6800 -31.0891 0.0403
46.7000 -31.1024 0.0423
46.7200 -31.1158 0.0408
46.7400 -31.1291 0.0466
46.7600 -31.1424 0.0455
46.7800 -31.1558 0.0472
46.8000 -31.1692 0.0461
46.8200 -31.1825 0.0493
46.8400 -31.1958 0.0481
46.8600 -31.2091 0.0513
46.8800 -31.2224 0.0509
46.9000 -31.2358 0.0508
46.9200 -31.2491 0.0522
46.9400 -31.2624 0.0531
46.9600 -31.2757 0.0523
46.9800 -31.2891 0.0555
47.0000 -31.3024 0.0559
47.0200 -31.3157 0.0540
47.0400 -31.3290 0.0576
47.0600 -31.3424 0.0585
47.0800 -31.3558 0.0568
47.1000 -31.3691 0.0594
47.1200 -31.3824 0.0585
47.1400 -31.3958 0.0608
47.1600 -31.4092 0.0582
47.1800 -31.4225 0.0636
47.2000 -31.4358 0.0630
47.2200 -31.4491 0.0676
47.2400 -31.4624 0.0657
47.2600 -31.4758 0.0656
47.2800 -31.4891 0.0660
47.3000 -31.5024 0.0687
47.3200 -31.5157 0.0679
47.3400 -31.5291 0.0697
47.3600 -31.5424 0.0708
47.3800 -31.5557 0.0714
47.4000 -31.5690 0.0724
47.4200 -31.5824 0.0739
47.4400 -31.5958 0.0717
47.4600 -31.6091 0.0722
47.4800 -31.6224 0.0739
47.5000 -31.6357 0.0737
47.5200 -31.6491 0.0770
47.5400 -31.6625 0.0780
47.5600 -31.6758 0.0775
47.5800 -31.6891 0.0776
47.6000 -31.7024 0.0802
47.6200 -31.7158 0.0781
47.6400 -31.7291 0.0811
47.6600 -31.7424 0.0808
47.6800 -31.7558 0.0803
47.7000 -31.7691 0.0814
47.7200 -31.7825 0.0833
47.7400 -31.7958 0.0832
47.7600 -31.8091 0.0853
47.7800 -31.8224 0.0859
47.8000 -31.8357 0.0835
47.8200 -31.8490 0.0845
47.8400 -31.8623 0.0873
47.8600 -31.8757 0.0869
47.8800 -31.8891 0.0894
47.9000 -31.9025 0.0886
47.9200 -31.9158 0.0916
47.9400 -31.9291 0.0909
47.9600 -31.9425 0.0912
47.9800 -31.9559 0.0890
48.0000 -31.9692 0.0933
48.0200 -31.9825 0.0921
48.0400 -31.9958 0.0931
48.0600 -32.0091 0.0918
48.0800 -32.0224 0.0966
48.1000 -32.0357 0.0941
48.1200 -32.0491 0.0988
48.1400 -32.0624 0.0981
48.1600 -32.0758 0.0981
48.1800 -32.0891 0.1002
48.2000 -32.1024 0.1011
48.2200 -32.1158 0.1007
48.2400 -32.1291 0.1022
48.2600 -32.1425 0.1024
48.2800 -32.1558 0.1023
48.3000 -32.1691 0.1047
48.3200 -32.1824 0.1055
48.3400 -32.1958 0.1051
48.3600 -32.2091 0.1083
48.3800 -32.2224 0.1094
48.4000 -32.2358 0.1090
48.4200 -32.2491 0.1083
48.4400 -32.2625 0.1097
48.4600 -32.2757 0.1094
48.4800 -32.2890 0.1123
48.5000 -32.3024 0.1122
48.5200 -32.3157 0.1134
48.5400 -32.3291 0.1143
48.5600 -32.3424 0.1163
48.5800 -32.3557 0.1146
48.6000 -32.3691 0.1174
48.6200 -32.3825 0.1191
48.6400 -32.3958 0.1178
48.6600 -32.4091 0.1180
48.6800 -32.4225 0.1204
48.7000 -32.4358 0.1189
48.7200 -32.4492 0.1224
48.7400 -32.4625 0.1225
48.7600 -32.4758 0.1227
48.7800 -32.4891 0.1235
48.8000 -32.5025 0.1252
48.8200 -32.5157 0.1248
48.8400 -32.5290 0.1266
48.8600 -32.5423 0.1287
48.8800 -32.5557 0.1279
48.9000 -32.5691 0.1313
48.9200 -32.5824 0.1329
48.9400 -32.5957 0.1313
48.9600 -32.6091 0.1310
48.9800 -32.6225 0.1344
49.0000 -32.6358 0.1348
49.0200 -32.6491 0.1377
49.0400 -32.6625 0.1364
49.0600 -32.6758 0.1372
49.0800 -32.6892 0.1366
49.1000 -32.7025 0.1387
49.1200 -32.7158 0.1372
49.1400 -32.7291 0.1390
49.1600 -32.7425 0.1407
49.1800 -32.7558 0.1399
49.2000 -32.7691 0.1419
49.2200 -32.7824 0.1446
49.2400 -32.7958 0.1439
49.2600 -32.8091 0.1459
49.2800 -32.8224 0.1471
49.3000 -32.8357 0.1457
49.3200 -32.8491 0.1449
49.3400 -32.8625 0.1473
49.3600 -32.8758 0.1454
49.3800 -32.8891 0.1489
49.4000 -32.9024 0.1498
49.4200 -32.9158 0.1488
49.4400 -32.9292 0.1478
49.4600 -32.9425 0.1505
49.4800 -32.9558 0.1491
49.5000 -32.9691 0.1514
49.5200 -32.9825 0.1523
49.5400 -32.9958 0.1524
49.5600 -33.0090 0.1521
49.5800 -33.0224 0.1566
49.6000 -33.0357 0.1554
49.6200 -33.0491 0.1574
49.6400 -33.0624 0.1591
49.6600 -33.0757 0.1588
49.6800 -33.0891 0.1608
49.7000 -33.1025 0.1645
49.7200 -33.1158 0.1612
49.7400 -33.1291 0.1642
49.7600 -33.1424 0.1661
49.7800 -33.1558 0.1669
49.8000 -33.1692 0.1672
49.8200 -33.1825 0.1685
49.8400 -33.1958 0.1699
49.8600 -33.2091 0.1696
49.8800 -33.2225 0.1717
49.9000 -33.2358 0.1712
49.9200 -33.2490 0.1737
49.9400 -33.2624 0.1760
49.9600 -33.2757 0.1751
49.9800 -33.2891 0.1762
50.0000 -33.3024 0.1783
50.0200 -33.3157 0.1771
50.0400 -33.3291 0.1792
50.0600 -33.3425 0.1819
50.0800 -33.3558 0.1822
50.1000 -33.3691 0.1824
50.1200 -33.3825 0.1815
50.1400 -33.3958 0.1840
50.1600 -33.4092 0.1843
50.1800 -33.4225 0.1872
50.2000 -33.4357 0.1867
50.2200 -33.4491 0.1881
50.2400 -33.4624 0.1899
50.2600 -33.4757 0.1898
50.2800 -33.4890 0.1895
50.3000 -33.5024 0.1947
50.3200 -33.5157 0.1937
50.3400 -33.5291 0.1945
50.3600 -33.5424 0.1940
50.3800 -33.5558 0.1948
50.4000 -33.5691 0.1935
50.4200 -33.5825 0.1957
50.4400 -33.5958 0.1944
50.4600 -33.6091 0.1953
50.4800 -33.6225 0.1995
50.5000 -33.6358 0.1958
50.5200 -33.6492 0.1971
50.5400 -33.6625 0.1983
50.5600 -33.6758 0.1997
50.5800 -33.6891 0.1996
50.6000 -33.7025 0.2012
50.6200 -33.7158 0.2035
50.6400 -33.7291 0.2046
50.6600 -33.7424 0.2036
50.6800 -33.7557 0.2041
50.7000 -33.7691 0.2032
50.7200 -33.7824 0.2061
50.7400 -33.7957 0.2032
50.7600 -33.8091 0.2062
50.7800 -33.8225 0.2096
50.8000 -33.8358 0.2093
50.8200 -33.8491 0.2093
50.8400 -33.8624 0.2132
50.8600 -33.8758 0.2091
50.8800 -33.8891 0.2109
50.9000 -33.9025 0.2105
50.9200 -33.9158 0.2135
50.9400 -33.9291 0.2133
50.9600 -33.9424 0.2161
50.9800 -33.9557 0.2152
51.0000 -33.9690 0.2174
51.0200 -33.9823 0.2181
51.0400 -33.9957 0.2178
51.0600 -34.0090 0.2175
51.0800 -34.0224 0.2208
51.1000 -34.0357 0.2209
51.1200 -34.0491 0.2210
51.1400 -34.0625 0.2214
51.1600 -34.0758 0.2228
51.1800 -34.0891 0.2226
51.2000 -34.1024 0.2268
51.2200 -34.1158 0.2273
51.2400 -34.1291 0.2264
51.2600 -34.1424 0.2292
51.2800 -34.1557 0.2279
51.3000 -34.1691 0.2292
51.3200 -34.1824 0.2336
51.3400 -34.1957 0.2315
51.3600 -34.2090 0.2292
51.3800 -34.2224 0.2311
51.4000 -34.2357 0.2323
51.4200 -34.2491 0.2324
51.4400 -34.2625 0.2357
51.4600 -34.2758 0.2326
51.4800 -34.2891 0.2336
51.5000 -34.3025 0.2361
51.5200 -34.3158 0.2377
51.5400 -34.3291 0.2370
51.5600 -34.3425 0.2381
51.5800 -34.3558 0.2374
51.6000 -34.3692 0.2391
51.6200 -34.3825 0.2409
51.6400 -34.3958 0.2414
51.6600 -34.4091 0.2416
51.6800 -34.4224 0.2427
51.7000 -34.4358 0.2446
51.7200 -34.4490 0.2454
51.7400 -34.4623 0.2469
51.7600 -34.4757 0.2461
51.7800 -34.4891 0.2481
51.8000 -34.5024 0.2501
51.8200 -34.5157 0.2522
51.8400 -34.5291 0.2518
51.8600 -34.5425 0.2560
51.8800 -34.5559 0.2547
51.9000 -34.5692 0.2571
51.9200 -34.5825 0.2584
51.9400 -34.5958 0.2603
51.9600 -34.6092 0.2610
51.9800 -34.6225 0.2601
52.0000 -34.6358 0.2647
52.0200 -34.6491 0.2626
52.0400 -34.6624 0.2668
52.0600 -34.6757 0.2663
52.0800 -34.6890 0.2676
52.1000 -34.7023 0.2700
52.1200 -34.7157 0.2723
52.1400 -34.7290 0.2704
52.1600 -34.7424 0.2723
52.1800 -34.7557 0.2732
52.2000 -34.7691 0.2730
52.2200 -34.7825 0.2745
52.2400 -34.7958 0.2752
52.2600 -34.8092 0.2740
52.2800 -34.8225 0.2754
52.3000 -34.8358 0.2788
52.3200 -34.8492 0.2775
52.3400 -34.8625 0.2798
52.3600 -34.8757 0.2793
52.3800 -34.8891 0.2813
52.4000 -34.9024 0.2844
52.4200 -34.9157 0.2831
52.4400 -34.9290 0.2839
52.4600 -34.9424 0.2853
52.4800 -34.9557 0.2850
52.5000 -34.9691 0.2860
52.5200 -34.9825 0.2880
52.5400 -34.9958 0.2913
52.5600 -35.0091 0.2898
52.5800 -35.0225 0.2914
52.6000 -35.0358 0.2940
52.6200 -35.0491 0.2931
52.6400 -35.0624 0.2922
52.6600 -35.0757 0.2962
52.6800 -35.0891 0.2977
52.7000 -35.1024 0.2997
52.7200 -35.1158 0.2969
52.7400 -35.1291 0.2980
52.7600 -35.1424 0.3008
52.7800 -35.1558 0.3026
52.8000 -35.1691 0.3015
52.8200 -35.1824 0.3016
52.8400 -35.1957 0.3024
52.8600 -35.2091 0.3038
52.8800 -35.2224 0.3078
52.9000 -35.2357 0.3058
52.9200 -35.2491 0.3037
52.9400 -35.2625 0.3049
52.9600 -35.2758 0.3076
52.9800 -35.2892 0.3095
53.0000 -35.3025 0.3123
53.0200 -35.3158 0.3091
53.0400 -35.3292 0.3103
53.0600 -35.3425 0.3100
53.0800 -35.3558 0.3128
53.1000 -35.3691 0.3117
53.1200 -35.3824 0.3115
53.1400 -35.3957 0.3148
53.1600 -35.4090 0.3134
53.1800 -35.4223 0.3175
53.2000 -35.4357 0.3159
53.2200 -35.4491 0.3172
53.2400 -35.4624 0.3174
53.2600 -35.4757 0.3194
53.2800 -35.4891 0.3163
53.3000 -35.5025 0.3169
53.3200 -35.5158 0.3181
53.3400 -35.5291 0.3195
53.3600 -35.5424 0.3196
53.3800 -35.5558 0.3242
53.4000 -35.5691 0.3238
53.4200 -35.5825 0.3265
53.4400 -35.5958 0.3272
53.4600 -35.6091 0.3277
53.4800 -35.6224 0.3321
53.5000 -35.6358 0.3344
53.5200 -35.6491 0.2600
53.5400 -35.6624 0.1604
53.5600 -35.6757 0.1129
53.5800 -35.6891 0.1044
53.6000 -35.7024 0.1102
53.6200 -35.7157 0.1129
53.6400 -35.7290 0.1113
53.6600 -35.7424 0.1126
53.6800 -35.7558 0.1115
53.7000 -35.7691 0.1107
53.7200 -35.7824 0.1116
53.7400 -35.7958 0.1130
53.7600 -35.8091 0.1116
53.7800 -35.8225 0.1152
53.8000 -35.8358 0.1107
53.8200 -35.8491 0.1114
53.8400 -35.8625 0.1115
53.8600 -35.8758 0.1135
53.8800 -35.8891 0.1121
53.9000 -35.9024 0.1122
53.9200 -35.9157 0.1108
53.9400 -35.9291 0.1095
53.9600 -35.9424 0.1112
53.9800 -35.9557 0.1124
54.0000 -35.9691 0.1120
54.0200 -35.9824 0.1151
54.0400 -35.9958 0.1141
54.0600 -36.0092 0.1137
54.0800 -36.0224 0.1126
54.1000 -36.0358 0.1141
54.1200 -36.0491 0.1138
54.1400 -36.0624 0.1138
54.1600 -36.0758 0.1151
54.1800 -36.0891 0.1149
54.2000 -36.1024 0.1150
54.2200 -36.1158 0.1134
54.2400 -36.1291 0.1133
54.2600 -36.1424 0.1137
54.2800 -36.1557 0.1170
54.3000 -36.1691 0.1176
54.3200 -36.1825 0.1190
54.3400 -36.1958 0.1195
54.3600 -36.2091 0.1199
54.3800 -36.2224 0.1202
54.4000 -36.2358 0.1224
54.4200 -36.2491 0.1228
54.4400 -36.2624 0.1229
54.4600 -36.2758 0.1237
54.4800 -36.2891 0.1226
54.5000 -36.3025 0.1229
54.5200 -36.3158 0.1246
54.5400 -36.3291 0.1242
54.5600 -36.3424 0.1262
54.5800 -36.3557 0.1280
54.6000 -36.3691 0.1271
54.6200 -36.3824 0.1292
54.6400 -36.3957 0.1282
54.6600 -36.4091 0.1289
54.6800 -36.4225 0.1305
54.7000 -36.4358 0.1312
54.7200 -36.4491 0.1309
54.7400 -36.4624 0.1312
54.7600 -36.4758 0.1324
54.7800 -36.4892 0.1318
54.8000 -36.5025 0.1324
54.8200 -36.5158 0.1309
54.8400 -36.5291 0.1330
54.8600 -36.5425 0.1334
54.8800 -36.5558 0.1344
54.9000 -36.5691 0.1334
54.9200 -36.5825 0.1345
54.9400 -36.5958 0.1355
54.9600 -36.6091 0.1355
54.9800 -36.6224 0.1344
55.0000 -36.6357 0.1378
55.0200 -36.6490 0.1373
55.0400 -36.6624 0.1370
55.0600 -36.6757 0.1356
55.0800 -36.6890 0.1363
55.1000 -36.7024 0.1368
55.1200 -36.7158 0.1370
55.1400 -36.7291 0.1370
55.1600 -36.7424 0.1383
55.1800 -36.7558 0.1391
55.2000 -36.7692 0.1410
55.2200 -36.7825 0.1380
55.2400 -36.7958 0.1393
55.2600 -36.8091 0.1387
55.2800 -36.8224 0.1399
55.3000 -36.8358 0.1388
55.3200 -36.8491 0.1410
55.3400 -36.8624 0.1406
55.3600 -36.8757 0.1411
55.3800 -36.8891 0.1400
55.4000 -36.9024 0.1401
55.4200 -36.9158 0.1393
55.4400 -36.9291 0.1412
55.4600 -36.9424 0.1399
55.4800 -36.9558 0.1424
55.5000 -36.9692 0.1422
55.5200 -36.9824 0.1428
55.5400 -36.9957 0.1424
55.5600 -37.0091 0.1437
55.5800 -37.0225 0.1427
55.6000 -37.0358 0.1456
55.6200 -37.0491 0.1485
55.6400 -37.0624 0.1487
55.6600 -37.0758 0.1471
55.6800 -37.0891 0.1482
55.7000 -37.1024 0.1488
55.7200 -37.1157 0.1525
55.7400 -37.1291 0.1494
55.7600 -37.1424 0.1512
55.7800 -37.1558 0.1497
55.8000 -37.1691 0.1523
55.8200 -37.1824 0.1513
55.8400 -37.1958 0.1538
55.8600 -37.2091 0.1519
55.8800 -37.2225 0.1536
55.9000 -37.2358 0.1523
55.9200 -37.2491 0.1543
55.9400 -37.2625 0.1550
55.9600 -37.2758 0.1546
55.9800 -37.2891 0.1533
56.0000 -37.3024 0.1558
56.0200 -37.3158 0.1569
56.0400 -37.3291 0.1566
56.0600 -37.3424 0.1543
56.0800 -37.3557 0.1569
56.1000 -37.3690 0.1563
56.1200 -37.3824 0.1572
56.1400 -37.3957 0.1582
56.1600 -37.4091 0.1596
56.1800 -37.4224 0.1612
56.2000 -37.4358 0.1609
56.2200 -37.4492 0.1604
56.2400 -37.4625 0.1619
56.2600 -37.4758 0.1614
56.2800 -37.4892 0.1625
56.3000 -37.5025 0.1606
56.3200 -37.5158 0.1617
56.3400 -37.5291 0.1623
56.3600 -37.5424 0.1622
56.3800 -37.5558 0.1634
56.4000 -37.5691 0.1623
56.4200 -37.5824 0.1655
56.4400 -37.5957 0.1633
56.4600 -37.6091 0.1647
56.4800 -37.6224 0.1623
56.5000 -37.6357 0.1653
56.5200 -37.6491 0.1648
56.5400 -37.6624 0.1651
56.5600 -37.6758 0.1639
56.5800 -37.6891 0.1679
56.6000 -37.7024 0.1644
56.6200 -37.7158 0.1678
56.6400 -37.7291 0.1674
56.6600 -37.7425 0.1693
56.6800 -37.7558 0.1677
56.7000 -37.7691 0.1700
56.7200 -37.7825 0.1701
56.7400 -37.7958 0.1704
56.7600 -37.8091 0.1709
56.7800 -37.8224 0.1710
56.8000 -37.8357 0.1706
56.8200 -37.8491 0.1716
56.8400 -37.8624 0.1730
56.8600 -37.8757 0.1709
56.8800 -37.8891 0.1733
56.9000 -37.9024 0.1737
56.9200 -37.9158 0.1724
56.9400 -37.9291 0.1764
56.9600 -37.9425 0.1751
56.9800 -37.9557 0.1775
57.0000 -37.9691 0.1772
57.0200 -37.9825 0.1800
57.0400 -37.9958 0.1778
57.0600 -38.0091 0.1809
57.0800 -38.0225 0.1785
57.1000 -38.0358 0.1825
57.1200 -38.0491 0.1841
57.1400 -38.0624 0.1841
57.1600 -38.0757 0.1823
57.1800 -38.0890 0.1835
57.2000 -38.1024 0.1846
57.2200 -38.1157 0.1838
57.2400 -38.1290 0.1835
57.2600 -38.1424 0.1835
57.2800 -38.1558 0.1837
57.3000 -38.1692 0.1849
57.3200 -38.1825 0.1848
57.3400 -38.1958 0.1826
57.3600 -38.2091 0.1856
57.3800 -38.2225 0.1854
57.4000 -38.2358 0.1850
57.4200 -38.2491 0.1861
57.4400 -38.2624 0.1886
57.4600 -38.2757 0.1896
57.4800 -38.2891 0.1912
57.5000 -38.3024 0.1895
57.5200 -38.3157 0.1863
57.5400 -38.3290 0.1908
57.5600 -38.3424 0.1883
57.5800 -38.3558 0.1916
57.6000 -38.3691 0.1926
57.6200 -38.3824 0.1946
57.6400 -38.3958 0.1926
57.6600 -38.4092 0.1956
57.6800 -38.4225 0.1936
57.7000 -38.4358 0.1948
57.7200 -38.4491 0.1928
57.7400 -38.4625 0.1941
57.7600 -38.4758 0.1959
57.7800 -38.4891 0.1962
57.8000 -38.5024 0.1959
57.8200 -38.5158 0.1962
57.8400 -38.5291 0.1978
57.8600 -38.5424 0.1997
57.8800 -38.5557 0.1999
57.9000 -38.5691 0.2002
57.9200 -38.5824 0.1991
57.9400 -38.5957 0.1996
57.9600 -38.6090 0.2030
57.9800 -38.6224 0.2020
58.0000 -38.6358 0.2032
58.0200 -38.6491 0.2034
58.0400 -38.6624 0.2027
58.0600 -38.6758 0.2047
58.0800 -38.6891 0.2073
58.1000 -38.7025 0.2091
58.1200 -38.7158 0.2081
58.1400 -38.7291 0.2065
58.1600 -38.7424 0.2090
58.1800 -38.7558 0.2099
58.2000 -38.7691 0.2100
58.2200 -38.7824 0.2095
58.2400 -38.7957 0.2080
58.2600 -38.8090 0.2094
58.2800 -38.8224 0.2100
58.3000 -38.8358 0.2128
58.3200 -38.8491 0.2139
58.3400 -38.8624 0.2135
58.3600 -38.8758 0.2119
58.3800 -38.8892 0.2148
58.4000 -38.9025 0.2154
58.4200 -38.9158 0.2149
58.4400 -38.9291 0.2140
58.4600 -38.9425 0.2143
58.4800 -38.9558 0.2140
58.5000 -38.9691 0.2162
58.5200 -38.9824 0.2157
58.5400 -38.9958 0.2170
58.5600 -39.0091 0.2159
58.5800 -39.0224 0.2179
58.6000 -39.0357 0.2169
58.6200 -39.0490 0.2204
58.6400 -39.0624 0.2201
58.6600 -39.0758 0.2196
58.6800 -39.0891 0.2198
58.7000 -39.1024 0.2215
58.7200 -39.1158 0.2204
58.7400 -39.1292 0.2239
58.7600 -39.1425 0.2241
58.7800 -39.1558 0.2244
58.8000 -39.1691 0.2259
58.8200 -39.1825 0.2250
58.8400 -39.1958 0.2241
58.8600 -39.2091 0.2250
58.8800 -39.2224 0.2248
58.9000 -39.2358 0.2248
58.9200 -39.2491 0.2262
58.9400 -39.2624 0.2283
58.9600 -39.2757 0.2274
58.9800 -39.2890 0.2290
59.0000 -39.3024 0.2295
59.0200 -39.3157 0.2294
59.0400 -39.3291 0.2301
59.0600 -39.3424 0.2315
59.0800 -39.3558 0.2313
59.1000 -39.3692 0.2329
59.1200 -39.3825 0.2337
59.1400 -39.3958 0.2341
59.1600 -39.4091 0.2339
59.1800 -39.4225 0.2330
59.2000 -39.4358 0.2348
59.2200 -39.4491 0.2368
59.2400 -39.4624 0.2380
59.2600 -39.4757 0.2365
59.2800 -39.4891 0.2402
59.3000 -39.5024 0.2394
59.3200 -39.5157 0.2406
59.3400 -39.5290 0.2396
59.3600 -39.5424 0.2422
59.3800 -39.5557 0.2401
59.4000 -39.5690 0.2409
59.4200 -39.5824 0.2410
59.4400 -39.5958 0.2437
59.4600 -39.6092 0.2448
59.4800 -39.6225 0.2462
59.5000 -39.6358 0.2440
59.5200 -39.6491 0.2446
59.5400 -39.6625 0.2463
59.5600 -39.6758 0.2445
59.5800 -39.6891 0.2463
59.6000 -39.7024 0.2462
59.6200 -39.7157 0.2475
59.6400 -39.7291 0.2479
59.6600 -39.7424 0.2473
59.6800 -39.7557 0.2467
59.7000 -39.7690 0.2464
59.7200 -39.7824 0.2525
59.7400 -39.7958 0.2516
59.7600 -39.8091 0.2528
59.7800 -39.8224 0.2533
59.8000 -39.8358 0.2537
59.8200 -39.8492 0.2537
59.8400 -39.8625 0.2564
59.8600 -39.8758 0.2531
59.8800 -39.8891 0.2570
59.9000 -39.9024 0.2577
59.9200 -39.9158 0.2599
59.9400 -39.9291 0.2580
59.9600 -39.9424 0.2609
59.9800 -39.9558 0.2592
60.0000 -39.9691 0.2619
60.0200 -39.9824 0.2557
60.0400 -39.9957 0.2126
60.0470 -40.0003 0.1953
