Raw Data
Time Displacement Force
(s) (mm) (N)
0.0000 -0.0001 -0.4347
0.0200 -0.0001 -0.4388
0.0400 -0.0020 -0.4564
0.0600 -0.0094 -0.4555
0.0800 -0.0213 -0.4464
0.1000 -0.0340 -0.4495
0.1200 -0.0468 -0.4477
0.1400 -0.0601 -0.4504
0.1600 -0.0740 -0.4478
0.1800 -0.0880 -0.4470
0.2000 -0.1019 -0.4446
0.2200 -0.1154 -0.4473
0.2400 -0.1288 -0.4466
0.2600 -0.1422 -0.4482
0.2800 -0.1554 -0.4491
0.3000 -0.1688 -0.4475
0.3200 -0.1821 -0.4482
0.3400 -0.1955 -0.4480
0.3600 -0.2088 -0.4468
0.3800 -0.2221 -0.4483
0.4000 -0.2354 -0.4476
0.4200 -0.2488 -0.4473
0.4400 -0.2622 -0.4441
0.4600 -0.2755 -0.4458
0.4800 -0.2888 -0.4434
0.5000 -0.3022 -0.4451
0.5200 -0.3156 -0.4431
0.5400 -0.3289 -0.4406
0.5600 -0.3422 -0.4394
0.5800 -0.3555 -0.4429
0.6000 -0.3689 -0.4390
0.6200 -0.3822 -0.4390
0.6400 -0.3955 -0.4373
0.6600 -0.4088 -0.4364
0.6800 -0.4222 -0.4345
0.7000 -0.4355 -0.4348
0.7200 -0.4488 -0.4323
0.7400 -0.4621 -0.4324
0.7600 -0.4754 -0.4331
0.7800 -0.4888 -0.4301
0.8000 -0.5022 -0.4297
0.8200 -0.5155 -0.4308
0.8400 -0.5288 -0.4268
0.8600 -0.5422 -0.4246
0.8800 -0.5556 -0.4244
0.9000 -0.5689 -0.4229
0.9200 -0.5822 -0.4231
0.9400 -0.5955 -0.4219
0.9600 -0.6089 -0.4205
0.9800 -0.6222 -0.4221
1.0000 -0.6355 -0.4213
1.0200 -0.6488 -0.4205
1.0400 -0.6622 -0.4190
1.0600 -0.6755 -0.4193
1.0800 -0.6888 -0.4158
1.1000 -0.7021 -0.4167
1.1200 -0.7154 -0.4157
1.1400 -0.7288 -0.4139
1.1600 -0.7422 -0.4123
1.1800 -0.7555 -0.4132
1.2000 -0.7688 -0.4141
1.2200 -0.7822 -0.4125
1.2400 -0.7956 -0.4108
1.2600 -0.8089 -0.4105
1.2800 -0.8222 -0.4107
1.3000 -0.8356 -0.4117
1.3200 -0.8489 -0.4088
1.3400 -0.8623 -0.4077
1.3600 -0.8756 -0.4088
1.3800 -0.8889 -0.4054
1.4000 -0.9022 -0.4051
1.4200 -0.9155 -0.4047
1.4400 -0.9288 -0.4015
1.4600 -0.9421 -0.4032
1.4800 -0.9554 -0.4038
1.5000 -0.9688 -0.4014
1.5200 -0.9821 -0.3998
1.5400 -0.9955 -0.4007
1.5600 -1.0088 -0.3981
1.5800 -1.0222 -0.3991
1.6000 -1.0356 -0.3974
1.6200 -1.0489 -0.3958
1.6400 -1.0622 -0.3927
1.6600 -1.0756 -0.3954
1.6800 -1.0889 -0.3924
1.7000 -1.1023 -0.3951
1.7200 -1.1156 -0.3933
1.7400 -1.1289 -0.3930
1.7600 -1.1422 -0.3898
1.7800 -1.1555 -0.3898
1.8000 -1.1688 -0.3867
1.8200 -1.1821 -0.3860
1.8400 -1.1955 -0.3854
1.8600 -1.2088 -0.3837
1.8800 -1.2222 -0.3829
1.9000 -1.2355 -0.3849
1.9200 -1.2488 -0.3845
1.9400 -1.2622 -0.3824
1.9600 -1.2756 -0.3814
1.9800 -1.2889 -0.3815
2.0000 -1.3022 -0.3815
2.0200 -1.3155 -0.3822
2.0400 -1.3288 -0.3787
2.0600 -1.3422 -0.3781
2.0800 -1.3555 -0.3787
2.1000 -1.3689 -0.3800
2.1200 -1.3822 -0.3782
2.1400 -1.3955 -0.3789
2.1600 -1.4089 -0.3778
2.1800 -1.4222 -0.3787
2.2000 -1.4355 -0.3781
2.2200 -1.4488 -0.3797
2.2400 -1.4622 -0.3786
2.2600 -1.4755 -0.3803
2.2800 -1.4888 -0.3790
2.3000 -1.5022 -0.3781
2.3200 -1.5156 -0.3781
2.3400 -1.5290 -0.3786
2.3600 -1.5423 -0.3766
2.3800 -1.5556 -0.3785
2.4000 -1.5689 -0.3780
2.4200 -1.5823 -0.3770
2.4400 -1.5956 -0.3759
2.4600 -1.6089 -0.3763
2.4800 -1.6222 -0.3743
2.5000 -1.6355 -0.3755
2.5200 -1.6488 -0.3733
2.5400 -1.6621 -0.3725
2.5600 -1.6754 -0.3745
2.5800 -1.6888 -0.3748
2.6000 -1.7022 -0.3735
2.6200 -1.7155 -0.3726
2.6400 -1.7288 -0.3713
2.6600 -1.7422 -0.3695
2.6800 -1.7556 -0.3707
2.7000 -1.7689 -0.3693
2.7200 -1.7822 -0.3668
2.7400 -1.7955 -0.3718
2.7600 -1.8089 -0.3695
2.7800 -1.8222 -0.3718
2.8000 -1.8356 -0.3681
2.8200 -1.8489 -0.3693
2.8400 -1.8622 -0.3675
2.8600 -1.8755 -0.3720
2.8800 -1.8889 -0.3678
2.9000 -1.9021 -0.3684
2.9200 -1.9154 -0.3669
2.9400 -1.9288 -0.3682
2.9600 -1.9422 -0.3658
2.9800 -1.9555 -0.3670
3.0000 -1.9688 -0.3675
3.0200 -1.9822 -0.3673
3.0400 -1.9955 -0.3671
3.0600 -2.0089 -0.3676
3.0800 -2.0222 -0.3649
3.1000 -2.0355 -0.3649
3.1200 -2.0488 -0.3640
3.1400 -2.0622 -0.3623
3.1600 -2.0756 -0.3616
3.1800 -2.0889 -0.3601
3.2000 -2.1022 -0.3605
3.2200 -2.1156 -0.3626
3.2400 -2.1289 -0.3596
3.2600 -2.1422 -0.3607
3.2800 -2.1555 -0.3598
3.3000 -2.1688 -0.3606
3.3200 -2.1822 -0.3571
3.3400 -2.1955 -0.3565
3.3600 -2.2088 -0.3541
3.3800 -2.2222 -0.3555
3.4000 -2.2356 -0.3549
3.4200 -2.2489 -0.3549
3.4400 -2.2622 -0.3545
3.4600 -2.2755 -0.3557
3.4800 -2.2888 -0.3550
3.5000 -2.3022 -0.3538
3.5200 -2.3155 -0.3532
3.5400 -2.3288 -0.3510
3.5600 -2.3422 -0.3487
3.5800 -2.3555 -0.3504
3.6000 -2.3689 -0.3492
3.6200 -2.3822 -0.3472
3.6400 -2.3955 -0.3463
3.6600 -2.4088 -0.3464
3.6800 -2.4222 -0.3448
3.7000 -2.4355 -0.3452
3.7200 -2.4488 -0.3437
3.7400 -2.4622 -0.3431
3.7600 -2.4755 -0.3412
3.7800 -2.4889 -0.3393
3.8000 -2.5022 -0.3391
3.8200 -2.5155 -0.3403
3.8400 -2.5289 -0.3407
3.8600 -2.5422 -0.3380
3.8800 -2.5556 -0.3355
3.9000 -2.5689 -0.3357
3.9200 -2.5822 -0.3346
3.9400 -2.5955 -0.3352
3.9600 -2.6088 -0.3351
3.9800 -2.6222 -0.3338
4.0000 -2.6355 -0.3320
4.0200 -2.6488 -0.3305
4.0400 -2.6622 -0.3296
4.0600 -2.6756 -0.3307
4.0800 -2.6889 -0.3284
4.1000 -2.7022 -0.3284
4.1200 -2.7155 -0.3280
4.1400 -2.7289 -0.3281
4.1600 -2.7422 -0.3271
4.1800 -2.7555 -0.3260
4.2000 -2.7688 -0.3267
4.2200 -2.7822 -0.3271
4.2400 -2.7955 -0.3285
4.2600 -2.8089 -0.3272
4.2800 -2.8222 -0.3279
4.3000 -2.8356 -0.3266
4.3200 -2.8489 -0.3273
4.3400 -2.8622 -0.3274
4.3600 -2.8755 -0.3293
4.3800 -2.8888 -0.3293
4.4000 -2.9021 -0.3282
4.4200 -2.9155 -0.3258
4.4400 -2.9288 -0.3262
4.4600 -2.9421 -0.3264
4.4800 -2.9555 -0.3249
4.5000 -2.9689 -0.3257
4.5200 -2.9822 -0.3256
4.5400 -2.9955 -0.3254
4.5600 -3.0089 -0.3230
4.5800 -3.0223 -0.3232
4.6000 -3.0356 -0.3211
4.6200 -3.0489 -0.3239
4.6400 -3.0622 -0.3217
4.6600 -3.0755 -0.3210
4.6800 -3.0888 -0.3209
4.7000 -3.1022 -0.3199
4.7200 -3.1155 -0.3193
4.7400 -3.1288 -0.3200
4.7600 -3.1422 -0.3186
4.7800 -3.1555 -0.3169
4.8000 -3.1689 -0.3186
4.8200 -3.1822 -0.3181
4.8400 -3.1956 -0.3201
4.8600 -3.2089 -0.3176
4.8800 -3.2223 -0.3176
4.9000 -3.2355 -0.3138
4.9200 -3.2489 -0.3139
4.9400 -3.2622 -0.3120
4.9600 -3.2756 -0.3128
4.9800 -3.2889 -0.3111
5.0000 -3.3022 -0.3111
5.0200 -3.3155 -0.3101
5.0400 -3.3289 -0.3123
5.0600 -3.3422 -0.3085
5.0800 -3.3555 -0.3077
5.1000 -3.3688 -0.3070
5.1200 -3.3821 -0.3055
5.1400 -3.3955 -0.3079
5.1600 -3.4088 -0.3063
5.1800 -3.4222 -0.3066
5.2000 -3.4355 -0.3052
5.2200 -3.4489 -0.3061
5.2400 -3.4622 -0.3031
5.2600 -3.4755 -0.3049
5.2800 -3.4889 -0.3030
5.3000 -3.5022 -0.3026
5.3200 -3.5156 -0.3013
5.3400 -3.5289 -0.3014
5.3600 -3.5422 -0.2986
5.3800 -3.5555 -0.3004
5.4000 -3.5689 -0.3014
5.4200 -3.5822 -0.3000
5.4400 -3.5954 -0.2984
5.4600 -3.6088 -0.2975
5.4800 -3.6221 -0.2954
5.5000 -3.6355 -0.2926
5.5200 -3.6488 -0.2935
5.5400 -3.6621 -0.2960
5.5600 -3.6755 -0.2956
5.5800 -3.6889 -0.2942
5.6000 -3.7023 -0.2941
5.6200 -3.7156 -0.2941
5.6400 -3.7289 -0.2930
5.6600 -3.7423 -0.2918
5.6800 -3.7556 -0.2906
5.7000 -3.7689 -0.2911
5.7200 -3.7822 -0.2901
5.7400 -3.7955 -0.2888
5.7600 -3.8089 -0.2889
5.7800 -3.8222 -0.2882
5.8000 -3.8355 -0.2896
5.8200 -3.8488 -0.2891
5.8400 -3.8622 -0.2891
5.8600 -3.8755 -0.2856
5.8800 -3.8888 -0.2872
5.9000 -3.9021 -0.2850
5.9200 -3.9155 -0.2858
5.9400 -3.9289 -0.2847
5.9600 -3.9422 -0.2832
5.9800 -3.9555 -0.2835
6.0000 -3.9689 -0.2825
6.0200 -3.9822 -0.2827
6.0400 -3.9956 -0.2799
6.0600 -4.0089 -0.2797
6.0800 -4.0222 -0.2793
6.1000 -4.0356 -0.2793
6.1200 -4.0489 -0.2817
6.1400 -4.0622 -0.2795
6.1600 -4.0755 -0.2784
6.1800 -4.0888 -0.2771
6.2000 -4.1022 -0.2768
6.2200 -4.1155 -0.2754
6.2400 -4.1288 -0.2776
6.2600 -4.1421 -0.2764
6.2800 -4.1555 -0.2754
6.3000 -4.1689 -0.2767
6.3200 -4.1822 -0.2770
6.3400 -4.1955 -0.2754
6.3600 -4.2088 -0.2766
6.3800 -4.2222 -0.2738
6.4000 -4.2356 -0.2746
6.4200 -4.2489 -0.2740
6.4400 -4.2622 -0.2730
6.4600 -4.2755 -0.2719
6.4800 -4.2889 -0.2745
6.5000 -4.3022 -0.2729
6.5200 -4.3155 -0.2734
6.5400 -4.3288 -0.2721
6.5600 -4.3421 -0.2745
6.5800 -4.3555 -0.2724
6.6000 -4.3688 -0.2740
6.6200 -4.3821 -0.2717
6.6400 -4.3955 -0.2715
6.6600 -4.4089 -0.2720
6.6800 -4.4222 -0.2721
6.7000 -4.4356 -0.2720
6.7200 -4.4489 -0.2732
6.7400 -4.4622 -0.2719
6.7600 -4.4756 -0.2725
6.7800 -4.4889 -0.2722
6.8000 -4.5022 -0.2727
6.8200 -4.5155 -0.2718
6.8400 -4.5288 -0.2723
6.8600 -4.5421 -0.2694
6.8800 -4.5554 -0.2694
6.9000 -4.5688 -0.2698
6.9200 -4.5821 -0.2694
6.9400 -4.5955 -0.2677
6.9600 -4.6089 -0.2682
6.9800 -4.6222 -0.2649
7.0000 -4.6355 -0.2650
7.0200 -4.6489 -0.2636
7.0400 -4.6623 -0.2631
7.0600 -4.6756 -0.2636
7.0800 -4.6889 -0.2622
7.1000 -4.7022 -0.2625
7.1200 -4.7156 -0.2607
7.1400 -4.7289 -0.2592
7.1600 -4.7422 -0.2595
7.1800 -4.7555 -0.2571
7.2000 -4.7689 -0.2576
7.2200 -4.7822 -0.2559
7.2400 -4.7955 -0.2557
7.2600 -4.8088 -0.2566
7.2800 -4.8222 -0.2567
7.3000 -4.8355 -0.2556
7.3200 -4.8488 -0.2550
7.3400 -4.8621 -0.2542
7.3600 -4.8755 -0.2530
7.3800 -4.8889 -0.2524
7.4000 -4.9022 -0.2520
7.4200 -4.9155 -0.2517
7.4400 -4.9289 -0.2504
7.4600 -4.9422 -0.2485
7.4800 -4.9556 -0.2500
7.5000 -4.9689 -0.2506
7.5200 -4.9822 -0.2488
7.5400 -4.9955 -0.2511
7.5600 -5.0089 -0.2486
7.5800 -5.0222 -0.2486
7.6000 -5.0355 -0.2473
7.6200 -5.0488 -0.2468
7.6400 -5.0621 -0.2457
7.6600 -5.0755 -0.2455
7.6800 -5.0889 -0.2455
7.7000 -5.1022 -0.2477
7.7200 -5.1155 -0.2451
7.7400 -5.1289 -0.2463
7.7600 -5.1422 -0.2449
7.7800 -5.1556 -0.2447
7.8000 -5.1689 -0.2444
7.8200 -5.1822 -0.2449
7.8400 -5.1955 -0.2429
7.8600 -5.2089 -0.2428
7.8800 -5.2221 -0.2423
7.9000 -5.2355 -0.2429
7.9200 -5.2488 -0.2390
7.9400 -5.2622 -0.2398
7.9600 -5.2755 -0.2378
7.9800 -5.2888 -0.2391
8.0000 -5.3021 -0.2386
8.0200 -5.3155 -0.2379
8.0400 -5.3289 -0.2366
8.0600 -5.3422 -0.2384
8.0800 -5.3555 -0.2374
8.1000 -5.3689 -0.2363
8.1200 -5.3823 -0.2380
8.1400 -5.3956 -0.2379
8.1600 -5.4089 -0.2386
8.1800 -5.4222 -0.2394
8.2000 -5.4356 -0.2360
8.2200 -5.4489 -0.2361
8.2400 -5.4622 -0.2353
8.2600 -5.4755 -0.2330
8.2800 -5.4889 -0.2335
8.3000 -5.5022 -0.2327
8.3200 -5.5155 -0.2322
8.3400 -5.5288 -0.2333
8.3600 -5.5421 -0.2296
8.3800 -5.5555 -0.2304
8.4000 -5.5688 -0.2298
8.4200 -5.5821 -0.2335
8.4400 -5.5955 -0.2310
8.4600 -5.6089 -0.2307
8.4800 -5.6223 -0.2284
8.5000 -5.6356 -0.2283
8.5200 -5.6489 -0.2288
8.5400 -5.6622 -0.2302
8.5600 -5.6756 -0.2290
8.5800 -5.6889 -0.2283
8.6000 -5.7022 -0.2288
8.6200 -5.7155 -0.2270
8.6400 -5.7288 -0.2257
8.6600 -5.7422 -0.2247
8.6800 -5.7555 -0.2245
8.7000 -5.7688 -0.2255
8.7200 -5.7821 -0.2254
8.7400 -5.7955 -0.2243
8.7600 -5.8088 -0.2225
8.7800 -5.8221 -0.2230
8.8000 -5.8355 -0.2218
8.8200 -5.8489 -0.2234
8.8400 -5.8623 -0.2197
8.8600 -5.8756 -0.2213
8.8800 -5.8889 -0.2208
8.9000 -5.9022 -0.2202
8.9200 -5.9156 -0.2175
8.9400 -5.9289 -0.2154
8.9600 -5.9422 -0.2149
8.9800 -5.9555 -0.2159
9.0000 -5.9688 -0.2154
9.0200 -5.9822 -0.2184
9.0400 -5.9955 -0.2160
9.0600 -6.0088 -0.2145
9.0800 -6.0221 -0.2149
9.1000 -6.0355 -0.2162
9.1200 -6.0489 -0.2135
9.1400 -6.0622 -0.2118
9.1600 -6.0755 -0.2121
9.1800 -6.0889 -0.2106
9.2000 -6.1022 -0.2103
9.2200 -6.1155 -0.2091
9.2400 -6.1288 -0.2082
9.2600 -6.1421 -0.2088
9.2800 -6.1555 -0.2079
9.3000 -6.1689 -0.2065
9.3200 -6.1822 -0.2088
9.3400 -6.1955 -0.2046
9.3600 -6.2089 -0.2051
9.3800 -6.2222 -0.2041
9.4000 -6.2355 -0.2047
9.4200 -6.2488 -0.2044
9.4400 -6.2622 -0.2044
9.4600 -6.2755 -0.2053
9.4800 -6.2888 -0.2042
9.5000 -6.3022 -0.2059
9.5200 -6.3155 -0.2036
9.5400 -6.3289 -0.2028
9.5600 -6.3422 -0.2014
9.5800 -6.3556 -0.2025
9.6000 -6.3689 -0.2013
9.6200 -6.3822 -0.2022
9.6400 -6.3956 -0.2004
9.6600 -6.4089 -0.2024
9.6800 -6.4222 -0.2005
9.7000 -6.4355 -0.2012
9.7200 -6.4489 -0.1994
9.7400 -6.4622 -0.1993
9.7600 -6.4755 -0.2010
9.7800 -6.4888 -0.1975
9.8000 -6.5021 -0.1978
9.8200 -6.5155 -0.1956
9.8400 -6.5288 -0.1959
9.8600 -6.5422 -0.1969
9.8800 -6.5555 -0.1961
9.9000 -6.5689 -0.1969
9.9200 -6.5822 -0.1949
9.9400 -6.5956 -0.1948
9.9600 -6.6089 -0.1948
9.9800 -6.6222 -0.1957
10.0000 -6.6356 -0.1934
10.0200 -6.6489 -0.1943
10.0400 -6.6622 -0.1932
10.0600 -6.6755 -0.1963
10.0800 -6.6889 -0.1939
10.1000 -6.7022 -0.1931
10.1200 -6.7155 -0.1907
10.1400 -6.7288 -0.1918
10.1600 -6.7421 -0.1909
10.1800 -6.7555 -0.1909
10.2000 -6.7689 -0.1897
10.2200 -6.7822 -0.1904
10.2400 -6.7955 -0.1894
10.2600 -6.8088 -0.1874
10.2800 -6.8222 -0.1887
10.3000 -6.8356 -0.1882
10.3200 -6.8489 -0.1875
10.3400 -6.8622 -0.1861
10.3600 -6.8755 -0.1876
10.3800 -6.8889 -0.1847
10.4000 -6.9022 -0.1850
10.4200 -6.9155 -0.1837
10.4400 -6.9289 -0.1834
10.4600 -6.9422 -0.1842
10.4800 -6.9555 -0.1831
10.5000 -6.9688 -0.1858
10.5200 -6.9821 -0.1852
10.5400 -6.9955 -0.1847
10.5600 -7.0088 -0.1818
10.5800 -7.0222 -0.1826
10.6000 -7.0355 -0.1850
10.6200 -7.0489 -0.1846
10.6400 -7.0622 -0.1848
10.6600 -7.0756 -0.1830
10.6800 -7.0889 -0.1837
10.7000 -7.1022 -0.1826
10.7200 -7.1155 -0.1851
10.7400 -7.1289 -0.1818
10.7600 -7.1422 -0.1834
10.7800 -7.1555 -0.1854
10.8000 -7.1688 -0.1848
10.8200 -7.1822 -0.1843
10.8400 -7.1955 -0.1847
10.8600 -7.2088 -0.1808
10.8800 -7.2221 -0.1817
10.9000 -7.2355 -0.1814
10.9200 -7.2489 -0.1805
10.9400 -7.2622 -0.1804
10.9600 -7.2755 -0.1812
10.9800 -7.2889 -0.1790
11.0000 -7.3022 -0.1792
11.0200 -7.3156 -0.1777
11.0400 -7.3289 -0.1740
11.0600 -7.3422 -0.1753
11.0800 -7.3555 -0.1780
11.1000 -7.3689 -0.1755
11.1200 -7.3822 -0.1755
11.1400 -7.3955 -0.1754
11.1600 -7.4088 -0.1740
11.1800 -7.4222 -0.1732
11.2000 -7.4355 -0.1728
11.2200 -7.4488 -0.1729
11.2400 -7.4621 -0.1732
11.2600 -7.4755 -0.1714
11.2800 -7.4889 -0.1719
11.3000 -7.5022 -0.1686
11.3200 -7.5155 -0.1712
11.3400 -7.5289 -0.1659
11.3600 -7.5422 -0.1686
11.3800 -7.5556 -0.1688
11.4000 -7.5689 -0.1688
11.4200 -7.5822 -0.1671
11.4400 -7.5955 -0.1701
11.4600 -7.6089 -0.1665
11.4800 -7.6222 -0.1685
11.5000 -7.6355 -0.1661
11.5200 -7.6489 -0.1657
11.5400 -7.6623 -0.1638
11.5600 -7.6756 -0.1648
11.5800 -7.6888 -0.1637
11.6000 -7.7021 -0.1641
11.6200 -7.7155 -0.1637
11.6400 -7.7288 -0.1622
11.6600 -7.7421 -0.1635
11.6800 -7.7555 -0.1632
11.7000 -7.7688 -0.1622
11.7200 -7.7822 -0.1613
11.7400 -7.7956 -0.1616
11.7600 -7.8089 -0.1607
11.7800 -7.8222 -0.1588
11.8000 -7.8356 -0.1600
11.8200 -7.8490 -0.1598
11.8400 -7.8623 -0.1577
11.8600 -7.8756 -0.1601
11.8800 -7.8888 -0.1579
11.9000 -7.9022 -0.1571
11.9200 -7.9155 -0.1585
11.9400 -7.9288 -0.1565
11.9600 -7.9421 -0.1567
11.9800 -7.9555 -0.1569
12.0000 -7.9689 -0.1557
12.0200 -7.9822 -0.1541
12.0400 -7.9955 -0.1559
12.0600 -8.0088 -0.1536
12.0800 -8.0222 -0.1537
12.1000 -8.0356 -0.1535
12.1200 -8.0489 -0.1527
12.1400 -8.0622 -0.1532
12.1600 -8.0755 -0.1544
12.1800 -8.0889 -0.1541
12.2000 -8.1022 -0.1507
12.2200 -8.1155 -0.1530
12.2400 -8.1288 -0.1501
12.2600 -8.1422 -0.1507
12.2800 -8.1555 -0.1483
12.3000 -8.1688 -0.1487
12.3200 -8.1821 -0.1480
12.3400 -8.1955 -0.1504
12.3600 -8.2088 -0.1459
12.3800 -8.2222 -0.1453
12.4000 -8.2355 -0.1451
12.4200 -8.2488 -0.1447
12.4400 -8.2622 -0.1432
12.4600 -8.2756 -0.1437
12.4800 -8.2889 -0.1398
12.5000 -8.3022 -0.1424
12.5200 -8.3156 -0.1432
12.5400 -8.3289 -0.1419
12.5600 -8.3422 -0.1403
12.5800 -8.3555 -0.1411
12.6000 -8.3688 -0.1406
12.6200 -8.3822 -0.1405
12.6400 -8.3955 -0.1396
12.6600 -8.4088 -0.1387
12.6800 -8.4221 -0.1366
12.7000 -8.4354 -0.1398
12.7200 -8.4488 -0.1378
12.7400 -8.4622 -0.1390
12.7600 -8.4755 -0.1377
12.7800 -8.4888 -0.1347
12.8000 -8.5022 -0.1327
12.8200 -8.5156 -0.1361
12.8400 -8.5289 -0.1351
12.8600 -8.5422 -0.1336
12.8800 -8.5555 -0.1361
12.9000 -8.5689 -0.1336
12.9200 -8.5822 -0.1334
12.9400 -8.5956 -0.1338
12.9600 -8.6089 -0.1332
12.9800 -8.6222 -0.1334
13.0000 -8.6356 -0.1336
13.0200 -8.6489 -0.1305
13.0400 -8.6621 -0.1297
13.0600 -8.6755 -0.1301
13.0800 -8.6888 -0.1304
13.1000 -8.7022 -0.1298
13.1200 -8.7155 -0.1304
13.1400 -8.7288 -0.1303
13.1600 -8.7422 -0.1270
13.1800 -8.7555 -0.1291
13.2000 -8.7689 -0.1279
13.2200 -8.7822 -0.1277
13.2400 -8.7955 -0.1278
13.2600 -8.8089 -0.1274
13.2800 -8.8223 -0.1261
13.3000 -8.8356 -0.1269
13.3200 -8.8489 -0.1260
13.3400 -8.8622 -0.1262
13.3600 -8.8756 -0.1274
13.3800 -8.8889 -0.1262
13.4000 -8.9022 -0.1241
13.4200 -8.9155 -0.1269
13.4400 -8.9288 -0.1266
13.4600 -8.9422 -0.1249
13.4800 -8.9555 -0.1269
13.5000 -8.9688 -0.1256
13.5200 -8.9822 -0.1237
13.5400 -8.9955 -0.1237
13.5600 -9.0089 -0.1250
13.5800 -9.0222 -0.1229
13.6000 -9.0355 -0.1244
13.6200 -9.0489 -0.1260
13.6400 -9.0623 -0.1226
13.6600 -9.0756 -0.1239
13.6800 -9.0889 -0.1222
13.7000 -9.1022 -0.1208
13.7200 -9.1156 -0.1220
13.7400 -9.1289 -0.1230
13.7600 -9.1421 -0.1199
13.7800 -9.1555 -0.1218
13.8000 -9.1688 -0.1195
13.8200 -9.1822 -0.1180
13.8400 -9.1955 -0.1205
13.8600 -9.2088 -0.1196
13.8800 -9.2222 -0.1184
13.9000 -9.2356 -0.1200
13.9200 -9.2489 -0.1178
13.9400 -9.2622 -0.1160
13.9600 -9.2756 -0.1175
13.9800 -9.2889 -0.1178
14.0000 -9.3023 -0.1165
14.0200 -9.3155 -0.1177
14.0400 -9.3288 -0.1157
14.0600 -9.3421 -0.1147
14.0800 -9.3555 -0.1136
14.1000 -9.3688 -0.1134
14.1200 -9.3821 -0.1103
14.1400 -9.3954 -0.1133
14.1600 -9.4088 -0.1094
14.1800 -9.4222 -0.1072
14.2000 -9.4355 -0.1082
14.2200 -9.4488 -0.1110
14.2400 -9.4622 -0.1084
14.2600 -9.4756 -0.1094
14.2800 -9.4889 -0.1072
14.3000 -9.5022 -0.1058
14.3200 -9.5155 -0.1071
14.3400 -9.5289 -0.1062
14.3600 -9.5423 -0.1040
14.3800 -9.5556 -0.1064
14.4000 -9.5689 -0.1043
14.4200 -9.5822 -0.1029
14.4400 -9.5956 -0.1046
14.4600 -9.6089 -0.1034
14.4800 -9.6222 -0.1017
14.5000 -9.6355 -0.1019
14.5200 -9.6488 -0.1026
14.5400 -9.6622 -0.1000
14.5600 -9.6755 -0.0994
14.5800 -9.6888 -0.1003
14.6000 -9.7022 -0.0978
14.6200 -9.7156 -0.0996
14.6400 -9.7289 -0.0995
14.6600 -9.7422 -0.0974
14.6800 -9.7555 -0.0995
14.7000 -9.7689 -0.0992
14.7200 -9.7822 -0.0970
14.7400 -9.7955 -0.0958
14.7600 -9.8088 -0.0963
14.7800 -9.8222 -0.0949
14.8000 -9.8355 -0.0959
14.8200 -9.8488 -0.0956
14.8400 -9.8621 -0.0952
14.8600 -9.8754 -0.0962
14.8800 -9.8888 -0.0943
14.9000 -9.9022 -0.0927
14.9200 -9.9155 -0.0928
14.9400 -9.9289 -0.0936
14.9600 -9.9422 -0.0934
14.9800 -9.9556 -0.0935
15.0000 -9.9689 -0.0924
15.0200 -9.9822 -0.0912
15.0400 -9.9955 -0.0946
15.0600 -10.0089 -0.0938
15.0800 -10.0222 -0.0899
15.1000 -10.0355 -0.0915
15.1200 -10.0488 -0.0914
15.1400 -10.0622 -0.0911
15.1600 -10.0755 -0.0933
15.1800 -10.0888 -0.0920
15.2000 -10.1021 -0.0901
15.2200 -10.1155 -0.0891
15.2400 -10.1288 -0.0897
15.2600 -10.1422 -0.0880
15.2800 -10.1555 -0.0898
15.3000 -10.1688 -0.0906
15.3200 -10.1822 -0.0885
15.3400 -10.1956 -0.0876
15.3600 -10.2089 -0.0892
15.3800 -10.2222 -0.0845
15.4000 -10.2355 -0.0887
15.4200 -10.2489 -0.0877
15.4400 -10.2623 -0.0871
15.4600 -10.2756 -0.0857
15.4800 -10.2889 -0.0861
15.5000 -10.3022 -0.0849
15.5200 -10.3155 -0.0877
15.5400 -10.3288 -0.0858
15.5600 -10.3421 -0.0848
15.5800 -10.3554 -0.0840
15.6000 -10.3688 -0.0846
15.6200 -10.3822 -0.0802
15.6400 -10.3955 -0.0814
15.6600 -10.4088 -0.0817
15.6800 -10.4222 -0.0819
15.7000 -10.4356 -0.0821
15.7200 -10.4489 -0.0816
15.7400 -10.4622 -0.0787
15.7600 -10.4756 -0.0787
15.7800 -10.4889 -0.0781
15.8000 -10.5023 -0.0768
15.8200 -10.5156 -0.0775
15.8400 -10.5289 -0.0771
15.8600 -10.5422 -0.0737
15.8800 -10.5555 -0.0729
15.9000 -10.5688 -0.0733
15.9200 -10.5821 -0.0743
15.9400 -10.5954 -0.0743
15.9600 -10.6088 -0.0751
15.9800 -10.6221 -0.0703
16.0000 -10.6355 -0.0715
16.0200 -10.6488 -0.0698
16.0400 -10.6622 -0.0691
16.0600 -10.6756 -0.0687
16.0800 -10.6889 -0.0692
16.1000 -10.7022 -0.0658
16.1200 -10.7155 -0.0671
16.1400 -10.7289 -0.0682
16.1600 -10.7422 -0.0651
16.1800 -10.7556 -0.0667
16.2000 -10.7689 -0.0658
16.2200 -10.7822 -0.0641
16.2400 -10.7955 -0.0655
16.2600 -10.8088 -0.0664
16.2800 -10.8221 -0.0635
16.3000 -10.8354 -0.0664
16.3200 -10.8488 -0.0639
16.3400 -10.8622 -0.0626
16.3600 -10.8755 -0.0637
16.3800 -10.8888 -0.0662
16.4000 -10.9022 -0.0628
16.4200 -10.9156 -0.0604
16.4400 -10.9289 -0.0634
16.4600 -10.9422 -0.0620
16.4800 -10.9555 -0.0623
16.5000 -10.9688 -0.0618
16.5200 -10.9822 -0.0608
16.5400 -10.9956 -0.0593
16.5600 -11.0089 -0.0628
16.5800 -11.0222 -0.0609
16.6000 -11.0355 -0.0623
16.6200 -11.0489 -0.0644
16.6400 -11.0622 -0.0602
16.6600 -11.0755 -0.0596
16.6800 -11.0888 -0.0606
16.7000 -11.1022 -0.0590
16.7200 -11.1155 -0.0574
16.7400 -11.1288 -0.0602
16.7600 -11.1422 -0.0576
16.7800 -11.1556 -0.0597
16.8000 -11.1690 -0.0594
16.8200 -11.1823 -0.0564
16.8400 -11.1956 -0.0558
16.8600 -11.2089 -0.0575
16.8800 -11.2223 -0.0544
16.9000 -11.2356 -0.0547
16.9200 -11.2489 -0.0563
16.9400 -11.2622 -0.0532
16.9600 -11.2755 -0.0525
16.9800 -11.2889 -0.0539
17.0000 -11.3021 -0.0522
17.0200 -11.3155 -0.0545
17.0400 -11.3288 -0.0544
17.0600 -11.3421 -0.0525
17.0800 -11.3555 -0.0520
17.1000 -11.3688 -0.0537
17.1200 -11.3822 -0.0480
17.1400 -11.3956 -0.0516
17.1600 -11.4089 -0.0493
17.1800 -11.4222 -0.0496
17.2000 -11.4355 -0.0475
17.2200 -11.4489 -0.0484
17.2400 -11.4622 -0.0447
17.2600 -11.4756 -0.0465
17.2800 -11.4889 -0.0466
17.3000 -11.5022 -0.0470
17.3200 -11.5155 -0.0450
17.3400 -11.5289 -0.0456
17.3600 -11.5422 -0.0426
17.3800 -11.5555 -0.0438
17.4000 -11.5688 -0.0432
17.4200 -11.5822 -0.0436
17.4400 -11.5955 -0.0410
17.4600 -11.6088 -0.0435
17.4800 -11.6221 -0.0408
17.5000 -11.6355 -0.0398
17.5200 -11.6489 -0.0407
17.5400 -11.6622 -0.0400
17.5600 -11.6755 -0.0375
17.5800 -11.6888 -0.0408
17.6000 -11.7022 -0.0376
17.6200 -11.7156 -0.0386
17.6400 -11.7289 -0.0367
17.6600 -11.7422 -0.0340
17.6800 -11.7556 -0.0338
17.7000 -11.7689 -0.0341
17.7200 -11.7822 -0.0328
17.7400 -11.7955 -0.0334
17.7600 -11.8088 -0.0344
17.7800 -11.8222 -0.0320
17.8000 -11.8355 -0.0322
17.8200 -11.8488 -0.0357
17.8400 -11.8622 -0.0342
17.8600 -11.8755 -0.0331
17.8800 -11.8889 -0.0347
17.9000 -11.9022 -0.0333
17.9200 -11.9155 -0.0315
17.9400 -11.9289 -0.0328
17.9600 -11.9422 -0.0331
17.9800 -11.9555 -0.0306
18.0000 -11.9688 -0.0328
18.0200 -11.9822 -0.0296
18.0400 -11.9955 -0.0310
18.0600 -12.0089 -0.0325
18.0800 -12.0222 -0.0293
18.1000 -12.0355 -0.0303
18.1200 -12.0488 -0.0318
18.1400 -12.0622 -0.0303
18.1600 -12.0756 -0.0303
18.1800 -12.0889 -0.0310
18.2000 -12.1022 -0.0300
18.2200 -12.1155 -0.0305
18.2400 -12.1289 -0.0291
18.2600 -12.1422 -0.0296
18.2800 -12.1555 -0.0277
18.3000 -12.1688 -0.0294
18.3200 -12.1822 -0.0288
18.3400 -12.1956 -0.0272
18.3600 -12.2089 -0.0297
18.3800 -12.2222 -0.0274
18.4000 -12.2355 -0.0284
18.4200 -12.2488 -0.0280
18.4400 -12.2622 -0.0291
18.4600 -12.2755 -0.0268
18.4800 -12.2888 -0.0292
18.5000 -12.3022 -0.0271
18.5200 -12.3155 -0.0271
18.5400 -12.3289 -0.0269
18.5600 -12.3422 -0.0271
18.5800 -12.3555 -0.0261
18.6000 -12.3689 -0.0287
18.6200 -12.3822 -0.0251
18.6400 -12.3955 -0.0255
18.6600 -12.4088 -0.0259
18.6800 -12.4222 -0.0235
18.7000 -12.4356 -0.0242
18.7200 -12.4489 -0.0243
18.7400 -12.4622 -0.0218
18.7600 -12.4756 -0.0217
18.7800 -12.4889 -0.0214
18.8000 -12.5022 -0.0212
18.8200 -12.5155 -0.0198
18.8400 -12.5288 -0.0234
18.8600 -12.5421 -0.0209
18.8800 -12.5555 -0.0210
18.9000 -12.5688 -0.0208
18.9200 -12.5821 -0.0187
18.9400 -12.5955 -0.0178
18.9600 -12.6089 -0.0179
18.9800 -12.6222 -0.0145
19.0000 -12.6355 -0.0174
19.0200 -12.6489 -0.0171
19.0400 -12.6622 -0.0180
19.0600 -12.6756 -0.0140
19.0800 -12.6889 -0.0158
19.1000 -12.7022 -0.0149
19.1200 -12.7155 -0.0136
19.1400 -12.7289 -0.0150
19.1600 -12.7422 -0.0133
19.1800 -12.7555 -0.0112
19.2000 -12.7688 -0.0129
19.2200 -12.7822 -0.0124
19.2400 -12.7955 -0.0113
19.2600 -12.8089 -0.0105
19.2800 -12.8222 -0.0104
19.3000 -12.8355 -0.0097
19.3200 -12.8489 -0.0103
19.3400 -12.8623 -0.0090
19.3600 -12.8755 -0.0078
19.3800 -12.8889 -0.0092
19.4000 -12.9022 -0.0098
19.4200 -12.9156 -0.0052
19.4400 -12.9289 -0.0086
19.4600 -12.9422 -0.0075
19.4800 -12.9555 -0.0064
19.5000 -12.9689 -0.0051
19.5200 -12.9822 -0.0043
19.5400 -12.9955 -0.0045
19.5600 -13.0088 -0.0053
19.5800 -13.0221 -0.0061
19.6000 -13.0355 -0.0024
19.6200 -13.0488 -0.0055
19.6400 -13.0622 -0.0041
19.6600 -13.0755 -0.0024
19.6800 -13.0889 -0.0022
19.7000 -13.1022 -0.0018
19.7200 -13.1155 0.0012
19.7400 -13.1289 0.0001
19.7600 -13.1422 0.0006
19.7800 -13.1556 0.0035
19.8000 -13.1689 0.0022
19.8200 -13.1822 0.0020
19.8400 -13.1955 0.0038
19.8600 -13.2089 0.0031
19.8800 -13.2222 0.0057
19.9000 -13.2355 0.0075
19.9200 -13.2488 0.0076
19.9400 -13.2621 0.0038
19.9600 -13.2755 0.0062
19.9800 -13.2888 0.0028
20.0000 -13.3021 0.0064
20.0200 -13.3155 0.0069
20.0400 -13.3289 0.0087
20.0600 -13.3423 0.0081
20.0800 -13.3556 0.0108
20.1000 -13.3689 0.0087
20.1200 -13.3822 0.0089
20.1400 -13.3956 0.0100
20.1600 -13.4089 0.0081
20.1800 -13.4222 0.0083
20.2000 -13.4355 0.0109
20.2200 -13.4489 0.0097
20.2400 -13.4622 0.0111
20.2600 -13.4755 0.0125
20.2800 -13.4888 0.0114
20.3000 -13.5022 0.0109
20.3200 -13.5155 0.0141
20.3400 -13.5288 0.0130
20.3600 -13.5421 0.0126
20.3800 -13.5555 0.0122
20.4000 -13.5689 0.0113
20.4200 -13.5822 0.0120
20.4400 -13.5955 0.0154
20.4600 -13.6089 0.0108
20.4800 -13.6222 0.0128
20.5000 -13.6356 0.0144
20.5200 -13.6489 0.0147
20.5400 -13.6622 0.0128
20.5600 -13.6755 0.0157
20.5800 -13.6889 0.0128
20.6000 -13.7022 0.0138
20.6200 -13.7155 0.0142
20.6400 -13.7288 0.0152
20.6600 -13.7421 0.0121
20.6800 -13.7555 0.0148
20.7000 -13.7688 0.0113
20.7200 -13.7821 0.0143
20.7400 -13.7955 0.0154
20.7600 -13.8088 0.0149
20.7800 -13.8222 0.0153
20.8000 -13.8355 0.0162
20.8200 -13.8488 0.0128
20.8400 -13.8622 0.0137
20.8600 -13.8756 0.0154
20.8800 -13.8889 0.0174
20.9000 -13.9022 0.0160
20.9200 -13.9156 0.0181
20.9400 -13.9289 0.0176
20.9600 -13.9422 0.0176
20.9800 -13.9555 0.0187
21.0000 -13.9688 0.0191
21.0200 -13.9821 0.0205
21.0400 -13.9955 0.0218
21.0600 -14.0088 0.0215
21.0800 -14.0221 0.0215
21.1000 -14.0355 0.0233
21.1200 -14.0489 0.0242
21.1400 -14.0623 0.0253
21.1600 -14.0756 0.0261
21.1800 -14.0889 0.0258
21.2000 -14.1022 0.0269
21.2200 -14.1156 0.0312
21.2400 -14.1289 0.0308
21.2600 -14.1422 0.0304
21.2800 -14.1555 0.0311
21.3000 -14.1688 0.0315
21.3200 -14.1821 0.0332
21.3400 -14.1954 0.0327
21.3600 -14.2088 0.0326
21.3800 -14.2221 0.0348
21.4000 -14.2355 0.0338
21.4200 -14.2488 0.0356
21.4400 -14.2622 0.0349
21.4600 -14.2755 0.0356
21.4800 -14.2889 0.0349
21.5000 -14.3023 0.0367
21.5200 -14.3156 0.0377
21.5400 -14.3289 0.0383
21.5600 -14.3422 0.0371
21.5800 -14.3556 0.0390
21.6000 -14.3689 0.0388
21.6200 -14.3822 0.0391
21.6400 -14.3955 0.0391
21.6600 -14.4089 0.0386
21.6800 -14.4222 0.0398
21.7000 -14.4355 0.0418
21.7200 -14.4488 0.0407
21.7400 -14.4621 0.0404
21.7600 -14.4755 0.0430
21.7800 -14.4888 0.0434
21.8000 -14.5021 0.0435
21.8200 -14.5155 0.0447
21.8400 -14.5289 0.0444
21.8600 -14.5422 0.0444
21.8800 -14.5555 0.0457
21.9000 -14.5688 0.0431
21.9200 -14.5822 0.0424
21.9400 -14.5956 0.0442
21.9600 -14.6089 0.0464
21.9800 -14.6222 0.0466
22.0000 -14.6355 0.0476
22.0200 -14.6489 0.0482
22.0400 -14.6622 0.0467
22.0600 -14.6755 0.0497
22.0800 -14.6888 0.0458
22.1000 -14.7021 0.0483
22.1200 -14.7155 0.0499
22.1400 -14.7289 0.0496
22.1600 -14.7422 0.0495
22.1800 -14.7555 0.0514
22.2000 -14.7689 0.0498
22.2200 -14.7822 0.0519
22.2400 -14.7956 0.0519
22.2600 -14.8089 0.0520
22.2800 -14.8222 0.0519
22.3000 -14.8356 0.0531
22.3200 -14.8489 0.0523
22.3400 -14.8622 0.0533
22.3600 -14.8755 0.0556
22.3800 -14.8888 0.0559
22.4000 -14.9022 0.0553
22.4200 -14.9155 0.0562
22.4400 -14.9288 0.0568
22.4600 -14.9421 0.0578
22.4800 -14.9555 0.0575
22.5000 -14.9689 0.0583
22.5200 -14.9822 0.0557
22.5400 -14.9955 0.0584
22.5600 -15.0089 0.0584
22.5800 -15.0223 0.0610
22.6000 -15.0356 0.0615
22.6200 -15.0489 0.0612
22.6400 -15.0622 0.0611
22.6600 -15.0756 0.0632
22.6800 -15.0889 0.0629
22.7000 -15.1022 0.0625
22.7200 -15.1155 0.0636
22.7400 -15.1288 0.0632
22.7600 -15.1422 0.0642
22.7800 -15.1555 0.0645
22.8000 -15.1687 0.0665
22.8200 -15.1821 0.0663
22.8400 -15.1955 0.0674
22.8600 -15.2088 0.0675
22.8800 -15.2222 0.0684
22.9000 -15.2355 0.0665
22.9200 -15.2489 0.0673
22.9400 -15.2623 0.0670
22.9600 -15.2756 0.0681
22.9800 -15.2889 0.0682
23.0000 -15.3022 0.0674
23.0200 -15.3156 0.0679
23.0400 -15.3289 0.0679
23.0600 -15.3422 0.0678
23.0800 -15.3555 0.0687
23.1000 -15.3689 0.0720
23.1200 -15.3822 0.0710
23.1400 -15.3955 0.0718
23.1600 -15.4088 0.0712
23.1800 -15.4221 0.0705
23.2000 -15.4355 0.0718
23.2200 -15.4488 0.0717
23.2400 -15.4621 0.0720
23.2600 -15.4755 0.0732
23.2800 -15.4888 0.0729
23.3000 -15.5022 0.0721
23.3200 -15.5156 0.0740
23.3400 -15.5289 0.0740
23.3600 -15.5422 0.0743
23.3800 -15.5556 0.0738
23.4000 -15.5689 0.0760
23.4200 -15.5822 0.0757
23.4400 -15.5955 0.0780
23.4600 -15.6089 0.0769
23.4800 -15.6222 0.0772
23.5000 -15.6355 0.0783
23.5200 -15.6488 0.0803
23.5400 -15.6621 0.0784
23.5600 -15.6755 0.0802
23.5800 -15.6889 0.0817
23.6000 -15.7022 0.0821
23.6200 -15.7155 0.0816
23.6400 -15.7289 0.0827
23.6600 -15.7422 0.0823
23.6800 -15.7556 0.0851
23.7000 -15.7688 0.0840
23.7200 -15.7821 0.0849
23.7400 -15.7955 0.0836
23.7600 -15.8089 0.0861
23.7800 -15.8222 0.0865
23.8000 -15.8355 0.0892
23.8200 -15.8489 0.0891
23.8400 -15.8622 0.0880
23.8600 -15.8756 0.0873
23.8800 -15.8888 0.0879
23.9000 -15.9022 0.0880
23.9200 -15.9155 0.0906
23.9400 -15.9289 0.0929
23.9600 -15.9422 0.0903
23.9800 -15.9555 0.0907
24.0000 -15.9689 0.0885
24.0200 -15.9823 0.0911
24.0400 -15.9956 0.0927
24.0600 -16.0089 0.0908
24.0800 -16.0222 0.0910
24.1000 -16.0356 0.0933
24.1200 -16.0489 0.0935
24.1400 -16.0623 0.0923
24.1600 -16.0755 0.0945
24.1800 -16.0889 0.0926
24.2000 -16.1022 0.0918
24.2200 -16.1155 0.0933
24.2400 -16.1288 0.0943
24.2600 -16.1421 0.0936
24.2800 -16.1555 0.0974
24.3000 -16.1688 0.0964
24.3200 -16.1822 0.0971
24.3400 -16.1955 0.0953
24.3600 -16.2088 0.0966
24.3800 -16.2222 0.0961
24.4000 -16.2356 0.0977
24.4200 -16.2489 0.0985
24.4400 -16.2622 0.0987
24.4600 -16.2756 0.0983
24.4800 -16.2889 0.1009
24.5000 -16.3022 0.0991
24.5200 -16.3155 0.1012
24.5400 -16.3289 0.1033
24.5600 -16.3422 0.1041
24.5800 -16.3555 0.1050
24.6000 -16.3688 0.1038
24.6200 -16.3821 0.1048
24.6400 -16.3955 0.1053
24.6600 -16.4088 0.1077
24.6800 -16.4222 0.1070
24.7000 -16.4355 0.1079
24.7200 -16.4488 0.1102
24.7400 -16.4622 0.1081
24.7600 -16.4756 0.1100
24.7800 -16.4889 0.1114
24.8000 -16.5022 0.1099
24.8200 -16.5155 0.1110
24.8400 -16.5289 0.1112
24.8600 -16.5422 0.1106
24.8800 -16.5556 0.1121
24.9000 -16.5689 0.1151
24.9200 -16.5822 0.1125
24.9400 -16.5956 0.1142
24.9600 -16.6088 0.1134
24.9800 -16.6222 0.1149
25.0000 -16.6355 0.1157
25.0200 -16.6489 0.1171
25.0400 -16.6622 0.1155
25.0600 -16.6755 0.1161
25.0800 -16.6889 0.1170
25.1000 -16.7022 0.1181
25.1200 -16.7156 0.1189
25.1400 -16.7289 0.1214
25.1600 -16.7422 0.1204
25.1800 -16.7555 0.1219
25.2000 -16.7689 0.1225
25.2200 -16.7822 0.1240
25.2400 -16.7955 0.1218
25.2600 -16.8089 0.1259
25.2800 -16.8222 0.1215
25.3000 -16.8355 0.1265
25.3200 -16.8488 0.1251
25.3400 -16.8621 0.1251
25.3600 -16.8755 0.1267
25.3800 -16.8889 0.1282
25.4000 -16.9022 0.1266
25.4200 -16.9155 0.1273
25.4400 -16.9288 0.1253
25.4600 -16.9422 0.1274
25.4800 -16.9556 0.1288
25.5000 -16.9689 0.1307
25.5200 -16.9822 0.1302
25.5400 -16.9955 0.1306
25.5600 -17.0088 0.1304
25.5800 -17.0222 0.1301
25.6000 -17.0355 0.1314
25.6200 -17.0488 0.1335
25.6400 -17.0621 0.1314
25.6600 -17.0755 0.1329
25.6800 -17.0888 0.1330
25.7000 -17.1021 0.1326
25.7200 -17.1155 0.1316
25.7400 -17.1289 0.1344
25.7600 -17.1422 0.1348
25.7800 -17.1555 0.1342
25.8000 -17.1688 0.1347
25.8200 -17.1822 0.1353
25.8400 -17.1956 0.1382
25.8600 -17.2089 0.1379
25.8800 -17.2222 0.1374
25.9000 -17.2355 0.1387
25.9200 -17.2489 0.1391
25.9400 -17.2622 0.1407
25.9600 -17.2755 0.1408
25.9800 -17.2889 0.1431
26.0000 -17.3022 0.1442
26.0200 -17.3156 0.1453
26.0400 -17.3289 0.1457
26.0600 -17.3421 0.1453
26.0800 -17.3555 0.1451
26.1000 -17.3688 0.1464
26.1200 -17.3822 0.1454
26.1400 -17.3955 0.1469
26.1600 -17.4088 0.1471
26.1800 -17.4222 0.1472
26.2000 -17.4356 0.1488
26.2200 -17.4489 0.1500
26.2400 -17.4622 0.1467
26.2600 -17.4756 0.1482
26.2800 -17.4889 0.1494
26.3000 -17.5023 0.1505
26.3200 -17.5156 0.1502
26.3400 -17.5289 0.1512
26.3600 -17.5422 0.1523
26.3800 -17.5555 0.1502
26.4000 -17.5688 0.1501
26.4200 -17.5822 0.1491
26.4400 -17.5955 0.1519
26.4600 -17.6089 0.1514
26.4800 -17.6222 0.1527
26.5000 -17.6355 0.1534
26.5200 -17.6489 0.1562
26.5400 -17.6622 0.1535
26.5600 -17.6756 0.1556
26.5800 -17.6889 0.1546
26.6000 -17.7022 0.1559
26.6200 -17.7155 0.1557
26.6400 -17.7289 0.1574
26.6600 -17.7422 0.1549
26.6800 -17.7555 0.1575
26.7000 -17.7688 0.1566
26.7200 -17.7822 0.1591
26.7400 -17.7955 0.1576
26.7600 -17.8088 0.1593
26.7800 -17.8221 0.1584
26.8000 -17.8355 0.1601
26.8200 -17.8488 0.1623
26.8400 -17.8622 0.1622
26.8600 -17.8755 0.1627
26.8800 -17.8888 0.1657
26.9000 -17.9022 0.1647
26.9200 -17.9155 0.1680
26.9400 -17.9289 0.1654
26.9600 -17.9422 0.1668
26.9800 -17.9555 0.1657
27.0000 -17.9689 0.1669
27.0200 -17.9822 0.1659
27.0400 -17.9955 0.1677
27.0600 -18.0089 0.1675
27.0800 -18.0222 0.1674
27.1000 -18.0355 0.1666
27.1200 -18.0488 0.1686
27.1400 -18.0621 0.1682
27.1600 -18.0754 0.1682
27.1800 -18.0888 0.1688
27.2000 -18.1022 0.1719
27.2200 -18.1155 0.1708
27.2400 -18.1288 0.1716
27.2600 -18.1422 0.1713
27.2800 -18.1556 0.1716
27.3000 -18.1689 0.1712
27.3200 -18.1822 0.1705
27.3400 -18.1956 0.1716
27.3600 -18.2089 0.1729
27.3800 -18.2223 0.1743
27.4000 -18.2356 0.1729
27.4200 -18.2489 0.1748
27.4400 -18.2622 0.1730
27.4600 -18.2755 0.1765
27.4800 -18.2889 0.1764
27.5000 -18.3022 0.1790
27.5200 -18.3155 0.1780
27.5400 -18.3288 0.1779
27.5600 -18.3422 0.1796
27.5800 -18.3555 0.1798
27.6000 -18.3688 0.1811
27.6200 -18.3822 0.1840
27.6400 -18.3955 0.1818
27.6600 -18.4089 0.1828
27.6800 -18.4222 0.1843
27.7000 -18.4355 0.1834
27.7200 -18.4489 0.1833
27.7400 -18.4623 0.1845
27.7600 -18.4756 0.1846
27.7800 -18.4889 0.1872
27.8000 -18.5022 0.1869
27.8200 -18.5156 0.1899
27.8400 -18.5289 0.1873
27.8600 -18.5421 0.1902
27.8800 -18.5555 0.1901
27.9000 -18.5688 0.1918
27.9200 -18.5822 0.1907
27.9400 -18.5955 0.1929
27.9600 -18.6088 0.1921
27.9800 -18.6222 0.1924
28.0000 -18.6356 0.1937
28.0200 -18.6489 0.1936
28.0400 -18.6622 0.1926
28.0600 -18.6755 0.1946
28.0800 -18.6889 0.1933
28.1000 -18.7022 0.1963
28.1200 -18.7156 0.1969
28.1400 -18.7289 0.1981
28.1600 -18.7422 0.1990
28.1800 -18.7556 0.1999
28.2000 -18.7689 0.1989
28.2200 -18.7821 0.2006
28.2400 -18.7955 0.2007
28.2600 -18.8088 0.2026
28.2800 -18.8222 0.2008
28.3000 -18.8355 0.2027
28.3200 -18.8488 0.2008
28.3400 -18.8622 0.2031
28.3600 -18.8755 0.2029
28.3800 -18.8889 0.2038
28.4000 -18.9022 0.2037
28.4200 -18.9156 0.2053
28.4400 -18.9289 0.2042
28.4600 -18.9423 0.2055
28.4800 -18.9556 0.2052
28.5000 -18.9688 0.2063
28.5200 -18.9821 0.2079
28.5400 -18.9955 0.2091
28.5600 -19.0088 0.2086
28.5800 -19.0221 0.2096
28.6000 -19.0354 0.2098
28.6200 -19.0488 0.2095
28.6400 -19.0622 0.2092
28.6600 -19.0755 0.2116
28.6800 -19.0888 0.2111
28.7000 -19.1022 0.2146
28.7200 -19.1156 0.2142
28.7400 -19.1289 0.2157
28.7600 -19.1422 0.2173
28.7800 -19.1555 0.2174
28.8000 -19.1689 0.2179
28.8200 -19.1823 0.2164
28.8400 -19.1956 0.2172
28.8600 -19.2089 0.2172
28.8800 -19.2222 0.2176
28.9000 -19.2356 0.2187
28.9200 -19.2489 0.2203
28.9400 -19.2622 0.2196
28.9600 -19.2755 0.2209
28.9800 -19.2888 0.2203
29.0000 -19.3022 0.2218
29.0200 -19.3155 0.2220
29.0400 -19.3288 0.2225
29.0600 -19.3421 0.2226
29.0800 -19.3555 0.2250
29.1000 -19.3689 0.2253
29.1200 -19.3822 0.2271
29.1400 -19.3955 0.2261
29.1600 -19.4089 0.2264
29.1800 -19.4223 0.2267
29.2000 -19.4356 0.2279
29.2200 -19.4489 0.2268
29.2400 -19.4622 0.2299
29.2600 -19.4755 0.2290
29.2800 -19.4889 0.2286
29.3000 -19.5021 0.2290
29.3200 -19.5154 0.2320
29.3400 -19.5288 0.2309
29.3600 -19.5422 0.2328
29.3800 -19.5555 0.2325
29.4000 -19.5688 0.2334
29.4200 -19.5822 0.2338
29.4400 -19.5956 0.2334
29.4600 -19.6089 0.2340
29.4800 -19.6222 0.2350
29.5000 -19.6355 0.2358
29.5200 -19.6489 0.2375
29.5400 -19.6622 0.2364
29.5600 -19.6755 0.2406
29.5800 -19.6888 0.2389
29.6000 -19.7022 0.2406
29.6200 -19.7155 0.2401
29.6400 -19.7288 0.2407
29.6600 -19.7421 0.2415
29.6800 -19.7555 0.2456
29.7000 -19.7688 0.2429
29.7200 -19.7822 0.2466
29.7400 -19.7955 0.2464
29.7600 -19.8089 0.2436
29.7800 -19.8222 0.2446
29.8000 -19.8356 0.2462
29.8200 -19.8489 0.2450
29.8400 -19.8622 0.2489
29.8600 -19.8755 0.2486
29.8800 -19.8889 0.2477
29.9000 -19.9023 0.2481
29.9200 -19.9156 0.2521
29.9400 -19.9289 0.2506
29.9600 -19.9422 0.2531
29.9800 -19.9555 0.2535
30.0000 -19.9688 0.2529
30.0200 -19.9821 0.2544
30.0400 -19.9954 0.2567
30.0600 -20.0088 0.2564
30.0800 -20.0222 0.2584
30.1000 -20.0355 0.2577
30.1200 -20.0488 0.2538
30.1400 -20.0622 0.2251
30.1600 -20.0756 0.1724
30.1800 -20.0889 0.1175
30.2000 -20.1022 0.0660
30.2200 -20.1156 0.0200
30.2400 -20.1289 -0.0318
30.2600 -20.1423 -0.0872
30.2800 -20.1556 -0.1483
30.3000 -20.1689 -0.2088
30.3200 -20.1822 -0.2704
30.3400 -20.1955 -0.3230
30.3600 -20.2089 -0.3754
30.3800 -20.2221 -0.4176
30.4000 -20.2354 -0.4458
30.4200 -20.2488 -0.4633
30.4400 -20.2621 -0.4853
30.4600 -20.2755 -0.5130
30.4800 -20.2888 -0.5508
30.5000 -20.3022 -0.5871
30.5200 -20.3156 -0.6232
30.5400 -20.3289 -0.6607
30.5600 -20.3423 -0.6991
30.5800 -20.3556 -0.7382
30.6000 -20.3689 -0.7725
30.6200 -20.3823 -0.7867
30.6400 -20.3956 -0.7899
30.6600 -20.4089 -0.7875
30.6800 -20.4222 -0.7873
30.7000 -20.4355 -0.7828
30.7200 -20.4488 -0.7838
30.7400 -20.4621 -0.7814
30.7600 -20.4754 -0.7816
30.7800 -20.4888 -0.7797
30.8000 -20.5022 -0.7784
30.8200 -20.5155 -0.7744
30.8400 -20.5288 -0.7749
30.8600 -20.5422 -0.7699
30.8800 -20.5556 -0.7712
30.9000 -20.5689 -0.7697
30.9200 -20.5822 -0.7700
30.9400 -20.5955 -0.7654
30.9600 -20.6088 -0.7656
30.9800 -20.6222 -0.7617
31.0000 -20.6355 -0.7609
31.0200 -20.6489 -0.7580
31.0400 -20.6622 -0.7577
31.0600 -20.6755 -0.7528
31.0800 -20.6889 -0.7538
31.1000 -20.7022 -0.7517
31.1200 -20.7155 -0.7489
31.1400 -20.7288 -0.7499
31.1600 -20.7422 -0.7476
31.1800 -20.7555 -0.7460
31.2000 -20.7688 -0.7436
31.2200 -20.7822 -0.7425
31.2400 -20.7955 -0.7379
31.2600 -20.8089 -0.7391
31.2800 -20.8223 -0.7376
31.3000 -20.8356 -0.7331
31.3200 -20.8489 -0.7355
31.3400 -20.8623 -0.7323
31.3600 -20.8756 -0.7299
31.3800 -20.8889 -0.7285
31.4000 -20.9022 -0.7273
31.4200 -20.9155 -0.7221
31.4400 -20.9288 -0.7247
31.4600 -20.9421 -0.7214
31.4800 -20.9555 -0.7210
31.5000 -20.9688 -0.7169
31.5200 -20.9822 -0.7161
31.5400 -20.9955 -0.7119
31.5600 -21.0088 -0.7135
31.5800 -21.0222 -0.7119
31.6000 -21.0355 -0.7097
31.6200 -21.0489 -0.7096
31.6400 -21.0622 -0.7050
31.6600 -21.0755 -0.7038
31.6800 -21.0889 -0.7018
31.7000 -21.1022 -0.7010
31.7200 -21.1156 -0.6955
31.7400 -21.1289 -0.6985
31.7600 -21.1422 -0.6944
31.7800 -21.1555 -0.6953
31.8000 -21.1689 -0.6908
31.8200 -21.1822 -0.6919
31.8400 -21.1955 -0.6861
31.8600 -21.2088 -0.6868
31.8800 -21.2222 -0.6842
31.9000 -21.2355 -0.6808
31.9200 -21.2488 -0.6801
31.9400 -21.2621 -0.6789
31.9600 -21.2755 -0.6777
31.9800 -21.2889 -0.6773
32.0000 -21.3022 -0.6753
32.0200 -21.3155 -0.6728
32.0400 -21.3288 -0.6710
32.0600 -21.3422 -0.6714
32.0800 -21.3556 -0.6679
32.1000 -21.3689 -0.6684
32.1200 -21.3822 -0.6647
32.1400 -21.3955 -0.6631
32.1600 -21.4089 -0.6605
32.1800 -21.4222 -0.6609
32.2000 -21.4355 -0.6580
32.2200 -21.4488 -0.6585
32.2400 -21.4622 -0.6559
32.2600 -21.4755 -0.6549
32.2800 -21.4888 -0.6516
32.3000 -21.5022 -0.6542
32.3200 -21.5155 -0.6500
32.3400 -21.5289 -0.6484
32.3600 -21.5422 -0.6470
32.3800 -21.5555 -0.6448
32.4000 -21.5688 -0.6459
32.4200 -21.5822 -0.6451
32.4400 -21.5955 -0.6412
32.4600 -21.6089 -0.6417
32.4800 -21.6222 -0.6418
32.5000 -21.6355 -0.6402
32.5200 -21.6489 -0.6388
32.5400 -21.6622 -0.6360
32.5600 -21.6755 -0.6340
32.5800 -21.6888 -0.6337
32.6000 -21.7022 -0.6337
32.6200 -21.7155 -0.6317
32.6400 -21.7289 -0.6297
32.6600 -21.7422 -0.6297
32.6800 -21.7555 -0.6262
32.7000 -21.7689 -0.6238
32.7200 -21.7822 -0.6223
32.7400 -21.7955 -0.6219
32.7600 -21.8089 -0.6217
32.7800 -21.8222 -0.6216
32.8000 -21.8356 -0.6187
32.8200 -21.8489 -0.6164
32.8400 -21.8622 -0.6165
32.8600 -21.8755 -0.6129
32.8800 -21.8888 -0.6131
32.9000 -21.9022 -0.6118
32.9200 -21.9155 -0.6072
32.9400 -21.9288 -0.6080
32.9600 -21.9422 -0.6087
32.9800 -21.9555 -0.6036
33.0000 -21.9689 -0.6060
33.0200 -21.9822 -0.6035
33.0400 -21.9955 -0.6010
33.0600 -22.0089 -0.5986
33.0800 -22.0222 -0.5982
33.1000 -22.0355 -0.5947
33.1200 -22.0488 -0.5976
33.1400 -22.0622 -0.5961
33.1600 -22.0756 -0.5951
33.1800 -22.0889 -0.5917
33.2000 -22.1022 -0.5925
33.2200 -22.1156 -0.5887
33.2400 -22.1289 -0.5902
33.2600 -22.1422 -0.5869
33.2800 -22.1555 -0.5878
33.3000 -22.1688 -0.5848
33.3200 -22.1821 -0.5845
33.3400 -22.1955 -0.5815
33.3600 -22.2088 -0.5805
33.3800 -22.2221 -0.5806
33.4000 -22.2355 -0.5792
33.4200 -22.2489 -0.5779
33.4400 -22.2622 -0.5791
33.4600 -22.2756 -0.5754
33.4800 -22.2889 -0.5762
33.5000 -22.3022 -0.5757
33.5200 -22.3156 -0.5715
33.5400 -22.3289 -0.5714
33.5600 -22.3422 -0.5717
33.5800 -22.3555 -0.5692
33.6000 -22.3689 -0.5681
33.6200 -22.3822 -0.5660
33.6400 -22.3955 -0.5646
33.6600 -22.4088 -0.5632
33.6800 -22.4222 -0.5640
33.7000 -22.4355 -0.5601
33.7200 -22.4489 -0.5605
33.7400 -22.4622 -0.5605
33.7600 -22.4755 -0.5564
33.7800 -22.4889 -0.5553
33.8000 -22.5023 -0.5554
33.8200 -22.5156 -0.5526
33.8400 -22.5288 -0.5531
33.8600 -22.5422 -0.5520
33.8800 -22.5556 -0.5499
33.9000 -22.5689 -0.5471
33.9200 -22.5822 -0.5473
33.9400 -22.5955 -0.5453
33.9600 -22.6089 -0.5423
33.9800 -22.6222 -0.5462
34.0000 -22.6355 -0.5411
34.0200 -22.6488 -0.5402
34.0400 -22.6621 -0.5404
34.0600 -22.6755 -0.5395
34.0800 -22.6889 -0.5373
34.1000 -22.7022 -0.5380
34.1200 -22.7155 -0.5347
34.1400 -22.7289 -0.5351
34.1600 -22.7422 -0.5341
34.1800 -22.7555 -0.5342
34.2000 -22.7689 -0.5325
34.2200 -22.7822 -0.5330
34.2400 -22.7956 -0.5298
34.2600 -22.8089 -0.5286
34.2800 -22.8222 -0.5279
34.3000 -22.8355 -0.5252
34.3200 -22.8489 -0.5253
34.3400 -22.8622 -0.5255
34.3600 -22.8755 -0.5242
34.3800 -22.8888 -0.5229
34.4000 -22.9021 -0.5248
34.4200 -22.9155 -0.5211
34.4400 -22.9288 -0.5192
34.4600 -22.9422 -0.5188
34.4800 -22.9555 -0.5161
34.5000 -22.9689 -0.5156
34.5200 -22.9823 -0.5148
34.5400 -22.9956 -0.5137
34.5600 -23.0089 -0.5113
34.5800 -23.0223 -0.5134
34.6000 -23.0356 -0.5080
34.6200 -23.0489 -0.5101
34.6400 -23.0622 -0.5072
34.6600 -23.0755 -0.5057
34.6800 -23.0889 -0.5006
34.7000 -23.1022 -0.5014
34.7200 -23.1155 -0.4988
34.7400 -23.1288 -0.4982
34.7600 -23.1421 -0.4981
34.7800 -23.1555 -0.4977
34.8000 -23.1688 -0.4956
34.8200 -23.1821 -0.4967
34.8400 -23.1955 -0.4928
34.8600 -23.2089 -0.4928
34.8800 -23.2222 -0.4911
34.9000 -23.2355 -0.4786
34.9200 -23.2488 -0.4563
34.9400 -23.2622 -0.4495
34.9600 -23.2756 -0.4446
34.9800 -23.2889 -0.4403
35.0000 -23.3022 -0.4424
35.0200 -23.3156 -0.4441
35.0400 -23.3289 -0.4451
35.0600 -23.3422 -0.4462
35.0800 -23.3555 -0.4420
35.1000 -23.3688 -0.4431
35.1200 -23.3821 -0.4450
35.1400 -23.3955 -0.4437
35.1600 -23.4088 -0.4428
35.1800 -23.4221 -0.4434
35.2000 -23.4355 -0.4417
35.2200 -23.4488 -0.4430
35.2400 -23.4622 -0.4417
35.2600 -23.4756 -0.4400
35.2800 -23.4888 -0.4385
35.3000 -23.5022 -0.4395
35.3200 -23.5156 -0.4387
35.3400 -23.5289 -0.4376
35.3600 -23.5422 -0.4398
35.3800 -23.5555 -0.4366
35.4000 -23.5689 -0.4345
35.4200 -23.5822 -0.4341
35.4400 -23.5955 -0.4328
35.4600 -23.6088 -0.4308
35.4800 -23.6221 -0.4324
35.5000 -23.6355 -0.4289
35.5200 -23.6489 -0.4282
35.5400 -23.6622 -0.4299
35.5600 -23.6755 -0.4286
35.5800 -23.6889 -0.4257
35.6000 -23.7022 -0.4274
35.6200 -23.7156 -0.4251
35.6400 -23.7289 -0.4221
35.6600 -23.7422 -0.4229
35.6800 -23.7556 -0.4208
35.7000 -23.7689 -0.4204
35.7200 -23.7822 -0.4223
35.7400 -23.7955 -0.4186
35.7600 -23.8088 -0.4167
35.7800 -23.8222 -0.4178
35.8000 -23.8355 -0.4181
35.8200 -23.8488 -0.4155
35.8400 -23.8621 -0.4184
35.8600 -23.8755 -0.4130
35.8800 -23.8889 -0.4111
35.9000 -23.9022 -0.4112
35.9200 -23.9155 -0.4094
35.9400 -23.9289 -0.4082
35.9600 -23.9423 -0.4097
35.9800 -23.9556 -0.4059
36.0000 -23.9689 -0.4070
36.0200 -23.9822 -0.4062
36.0400 -23.9956 -0.4044
36.0600 -24.0089 -0.4016
36.0800 -24.0222 -0.4052
36.1000 -24.0356 -0.4017
36.1200 -24.0489 -0.4007
36.1400 -24.0622 -0.4014
36.1600 -24.0755 -0.4004
36.1800 -24.0888 -0.3982
36.2000 -24.1021 -0.4000
36.2200 -24.1155 -0.3947
36.2400 -24.1288 -0.3953
36.2600 -24.1421 -0.3950
36.2800 -24.1555 -0.3932
36.3000 -24.1688 -0.3916
36.3200 -24.1822 -0.3932
36.3400 -24.1956 -0.3921
36.3600 -24.2089 -0.3908
36.3800 -24.2222 -0.3915
36.4000 -24.2355 -0.3906
36.4200 -24.2489 -0.3884
36.4400 -24.2622 -0.3879
36.4600 -24.2755 -0.3870
36.4800 -24.2889 -0.3842
36.5000 -24.3022 -0.3835
36.5200 -24.3155 -0.3814
36.5400 -24.3288 -0.3808
36.5600 -24.3421 -0.3801
36.5800 -24.3555 -0.3807
36.6000 -24.3688 -0.3766
36.6200 -24.3822 -0.3787
36.6400 -24.3955 -0.3768
36.6600 -24.4089 -0.3752
36.6800 -24.4222 -0.3758
36.7000 -24.4356 -0.3739
36.7200 -24.4489 -0.3713
36.7400 -24.4622 -0.3713
36.7600 -24.4755 -0.3715
36.7800 -24.4889 -0.3683
36.8000 -24.5022 -0.3691
36.8200 -24.5155 -0.3672
36.8400 -24.5289 -0.3665
36.8600 -24.5422 -0.3675
36.8800 -24.5555 -0.3675
36.9000 -24.5688 -0.3645
36.9200 -24.5821 -0.3629
36.9400 -24.5955 -0.3631
36.9600 -24.6089 -0.3601
36.9800 -24.6222 -0.3622
37.0000 -24.6355 -0.3571
37.0200 -24.6489 -0.3571
37.0400 -24.6623 -0.3562
37.0600 -24.6756 -0.3559
37.0800 -24.6889 -0.3537
37.1000 -24.7022 -0.3571
37.1200 -24.7156 -0.3549
37.1400 -24.7289 -0.3536
37.1600 -24.7423 -0.3539
37.1800 -24.7556 -0.3522
37.2000 -24.7689 -0.3478
37.2200 -24.7822 -0.3499
37.2400 -24.7955 -0.3487
37.2600 -24.8088 -0.3487
37.2800 -24.8221 -0.3473
37.3000 -24.8355 -0.3464
37.3200 -24.8488 -0.3426
37.3400 -24.8621 -0.3445
37.3600 -24.8755 -0.3427
37.3800 -24.8888 -0.3424
37.4000 -24.9022 -0.3411
37.4200 -24.9156 -0.3406
37.4400 -24.9289 -0.3376
37.4600 -24.9422 -0.3411
37.4800 -24.9556 -0.3395
37.5000 -24.9689 -0.3356
37.5200 -24.9822 -0.3365
37.5400 -24.9955 -0.3340
37.5600 -25.0089 -0.3329
37.5800 -25.0222 -0.3334
37.6000 -25.0355 -0.3329
37.6200 -25.0488 -0.3308
37.6400 -25.0621 -0.3305
37.6600 -25.0754 -0.3281
37.6800 -25.0888 -0.3260
37.7000 -25.1022 -0.3280
37.7200 -25.1155 -0.3278
37.7400 -25.1289 -0.3259
37.7600 -25.1423 -0.3255
37.7800 -25.1556 -0.3258
37.8000 -25.1689 -0.3233
37.8200 -25.1822 -0.3239
37.8400 -25.1956 -0.3213
37.8600 -25.2089 -0.3185
37.8800 -25.2222 -0.3189
37.9000 -25.2355 -0.3185
37.9200 -25.2489 -0.3175
37.9400 -25.2622 -0.3179
37.9600 -25.2755 -0.3178
37.9800 -25.2888 -0.3143
38.0000 -25.3021 -0.3158
38.0200 -25.3155 -0.3129
38.0400 -25.3289 -0.3102
38.0600 -25.3422 -0.3103
38.0800 -25.3555 -0.3121
38.1000 -25.3689 -0.3096
38.1200 -25.3822 -0.3082
38.1400 -25.3956 -0.3066
38.1600 -25.4088 -0.3072
38.1800 -25.4221 -0.3049
38.2000 -25.4355 -0.3072
38.2200 -25.4489 -0.3037
38.2400 -25.4622 -0.3032
38.2600 -25.4755 -0.3038
38.2800 -25.4888 -0.3003
38.3000 -25.5022 -0.2996
38.3200 -25.5155 -0.3003
38.3400 -25.5288 -0.2959
38.3600 -25.5421 -0.2988
38.3800 -25.5555 -0.2967
38.4000 -25.5688 -0.2964
38.4200 -25.5822 -0.2939
38.4400 -25.5955 -0.2957
38.4600 -25.6089 -0.2921
38.4800 -25.6222 -0.2927
38.5000 -25.6356 -0.2914
38.5200 -25.6489 -0.2896
38.5400 -25.6622 -0.2904
38.5600 -25.6756 -0.2901
38.5800 -25.6889 -0.2859
38.6000 -25.7023 -0.2859
38.6200 -25.7155 -0.2864
38.6400 -25.7289 -0.2829
38.6600 -25.7422 -0.2854
38.6800 -25.7555 -0.2862
38.7000 -25.7688 -0.2810
38.7200 -25.7821 -0.2834
38.7400 -25.7955 -0.2832
38.7600 -25.8088 -0.2804
38.7800 -25.8222 -0.2780
38.8000 -25.8355 -0.2814
38.8200 -25.8488 -0.2755
38.8400 -25.8622 -0.2790
38.8600 -25.8756 -0.2776
38.8800 -25.8889 -0.2748
38.9000 -25.9022 -0.2736
38.9200 -25.9156 -0.2748
38.9400 -25.9289 -0.2685
38.9600 -25.9422 -0.2698
38.9800 -25.9555 -0.2711
39.0000 -25.9688 -0.2695
39.0200 -25.9822 -0.2703
39.0400 -25.9955 -0.2685
39.0600 -26.0088 -0.2662
39.0800 -26.0221 -0.2651
39.1000 -26.0355 -0.2675
39.1200 -26.0489 -0.2647
39.1400 -26.0622 -0.2659
39.1600 -26.0755 -0.2619
39.1800 -26.0888 -0.2622
39.2000 -26.1022 -0.2600
39.2200 -26.1155 -0.2608
39.2400 -26.1289 -0.2564
39.2600 -26.1422 -0.2596
39.2800 -26.1555 -0.2574
39.3000 -26.1689 -0.2560
39.3200 -26.1822 -0.2535
39.3400 -26.1956 -0.2559
39.3600 -26.2089 -0.2515
39.3800 -26.2223 -0.2532
39.4000 -26.2356 -0.2514
39.4200 -26.2489 -0.2504
39.4400 -26.2621 -0.2492
39.4600 -26.2755 -0.2491
39.4800 -26.2888 -0.2447
39.5000 -26.3022 -0.2469
39.5200 -26.3155 -0.2458
39.5400 -26.3289 -0.2439
39.5600 -26.3422 -0.2433
39.5800 -26.3556 -0.2436
39.6000 -26.3689 -0.2411
39.6200 -26.3822 -0.2412
39.6400 -26.3955 -0.2407
39.6600 -26.4089 -0.2370
39.6800 -26.4222 -0.2377
39.7000 -26.4355 -0.2385
39.7200 -26.4488 -0.2370
39.7400 -26.4622 -0.2393
39.7600 -26.4755 -0.2389
39.7800 -26.4888 -0.2364
39.8000 -26.5022 -0.2365
39.8200 -26.5155 -0.2376
39.8400 -26.5289 -0.2342
39.8600 -26.5422 -0.2339
39.8800 -26.5555 -0.2343
39.9000 -26.5688 -0.2311
39.9200 -26.5822 -0.2293
39.9400 -26.5956 -0.2324
39.9600 -26.6089 -0.2298
39.9800 -26.6222 -0.2296
40.0000 -26.6355 -0.2294
40.0200 -26.6489 -0.2267
40.0400 -26.6622 -0.2266
40.0600 -26.6755 -0.2277
40.0800 -26.6888 -0.2257
40.1000 -26.7022 -0.2245
40.1200 -26.7155 -0.2259
40.1400 -26.7288 -0.2241
40.1600 -26.7421 -0.2227
40.1800 -26.7555 -0.2208
40.2000 -26.7688 -0.2213
40.2200 -26.7822 -0.2177
40.2400 -26.7955 -0.2214
40.2600 -26.8088 -0.2168
40.2800 -26.8222 -0.2185
40.3000 -26.8356 -0.2156
40.3200 -26.8489 -0.2149
40.3400 -26.8622 -0.2124
40.3600 -26.8755 -0.2140
40.3800 -26.8889 -0.2124
40.4000 -26.9022 -0.2111
40.4200 -26.9155 -0.2116
40.4400 -26.9288 -0.2079
40.4600 -26.9422 -0.2072
40.4800 -26.9555 -0.2091
40.5000 -26.9689 -0.2061
40.5200 -26.9822 -0.2064
40.5400 -26.9955 -0.2049
40.5600 -27.0088 -0.2035
40.5800 -27.0221 -0.2011
40.6000 -27.0354 -0.2030
40.6200 -27.0488 -0.1988
40.6400 -27.0622 -0.1990
40.6600 -27.0756 -0.1969
40.6800 -27.0889 -0.1978
40.7000 -27.1022 -0.1935
40.7200 -27.1155 -0.1979
40.7400 -27.1289 -0.1931
40.7600 -27.1423 -0.1938
40.7800 -27.1556 -0.1916
40.8000 -27.1689 -0.1925
40.8200 -27.1822 -0.1910
40.8400 -27.1955 -0.1913
40.8600 -27.2088 -0.1889
40.8800 -27.2221 -0.1886
40.9000 -27.2355 -0.1895
40.9200 -27.2489 -0.1867
40.9400 -27.2622 -0.1852
40.9600 -27.2755 -0.1866
40.9800 -27.2889 -0.1836
41.0000 -27.3022 -0.1843
41.0200 -27.3156 -0.1848
41.0400 -27.3289 -0.1825
41.0600 -27.3422 -0.1809
41.0800 -27.3555 -0.1813
41.1000 -27.3689 -0.1814
41.1200 -27.3822 -0.1802
41.1400 -27.3955 -0.1803
41.1600 -27.4089 -0.1794
41.1800 -27.4222 -0.1786
41.2000 -27.4356 -0.1786
41.2200 -27.4488 -0.1766
41.2400 -27.4621 -0.1742
41.2600 -27.4755 -0.1760
41.2800 -27.4888 -0.1732
41.3000 -27.5022 -0.1738
41.3200 -27.5155 -0.1733
41.3400 -27.5289 -0.1733
41.3600 -27.5422 -0.1701
41.3800 -27.5556 -0.1722
41.4000 -27.5689 -0.1690
41.4200 -27.5822 -0.1686
41.4400 -27.5956 -0.1673
41.4600 -27.6089 -0.1670
41.4800 -27.6223 -0.1650
41.5000 -27.6356 -0.1678
41.5200 -27.6489 -0.1633
41.5400 -27.6622 -0.1639
41.5600 -27.6755 -0.1638
41.5800 -27.6888 -0.1624
41.6000 -27.7021 -0.1614
41.6200 -27.7154 -0.1612
41.6400 -27.7288 -0.1584
41.6600 -27.7422 -0.1595
41.6800 -27.7555 -0.1583
41.7000 -27.7688 -0.1573
41.7200 -27.7822 -0.1547
41.7400 -27.7956 -0.1581
41.7600 -27.8089 -0.1539
41.7800 -27.8222 -0.1521
41.8000 -27.8356 -0.1525
41.8200 -27.8489 -0.1506
41.8400 -27.8623 -0.1504
41.8600 -27.8756 -0.1497
41.8800 -27.8889 -0.1495
41.9000 -27.9022 -0.1486
41.9200 -27.9155 -0.1476
41.9400 -27.9289 -0.1466
41.9600 -27.9422 -0.1469
41.9800 -27.9555 -0.1461
42.0000 -27.9688 -0.1446
42.0200 -27.9822 -0.1449
42.0400 -27.9955 -0.1441
42.0600 -28.0088 -0.1446
42.0800 -28.0222 -0.1418
42.1000 -28.0355 -0.1423
42.1200 -28.0489 -0.1405
42.1400 -28.0622 -0.1386
42.1600 -28.0755 -0.1395
42.1800 -28.0889 -0.1385
42.2000 -28.1023 -0.1368
42.2200 -28.1156 -0.1371
42.2400 -28.1289 -0.1344
42.2600 -28.1422 -0.1319
42.2800 -28.1556 -0.1332
42.3000 -28.1689 -0.1338
42.3200 -28.1821 -0.1293
42.3400 -28.1954 -0.1306
42.3600 -28.2088 -0.1310
42.3800 -28.2222 -0.1266
42.4000 -28.2355 -0.1292
42.4200 -28.2488 -0.1273
42.4400 -28.2622 -0.1246
42.4600 -28.2755 -0.1245
42.4800 -28.2889 -0.1239
42.5000 -28.3022 -0.1233
42.5200 -28.3155 -0.1238
42.5400 -28.3289 -0.1233
42.5600 -28.3422 -0.1188
42.5800 -28.3556 -0.1207
42.6000 -28.3689 -0.1202
42.6200 -28.3822 -0.1177
42.6400 -28.3956 -0.1166
42.6600 -28.4089 -0.1155
42.6800 -28.4221 -0.1157
42.7000 -28.4354 -0.1140
42.7200 -28.4488 -0.1160
42.7400 -28.4622 -0.1131
42.7600 -28.4755 -0.1156
42.7800 -28.4888 -0.1123
42.8000 -28.5021 -0.1104
42.8200 -28.5155 -0.1099
42.8400 -28.5289 -0.1117
42.8600 -28.5422 -0.1070
42.8800 -28.5556 -0.1092
42.9000 -28.5689 -0.1067
42.9200 -28.5823 -0.1088
42.9400 -28.5956 -0.1069
42.9600 -28.6089 -0.1060
42.9800 -28.6221 -0.1045
43.0000 -28.6355 -0.1036
43.0200 -28.6488 -0.1027
43.0400 -28.6621 -0.1027
43.0600 -28.6754 -0.1012
43.0800 -28.6888 -0.1007
43.1000 -28.7022 -0.0998
43.1200 -28.7155 -0.1009
43.1400 -28.7288 -0.0992
43.1600 -28.7422 -0.0968
43.1800 -28.7556 -0.0974
43.2000 -28.7689 -0.0950
43.2200 -28.7822 -0.0952
43.2400 -28.7955 -0.0963
43.2600 -28.8089 -0.0955
43.2800 -28.8223 -0.0939
43.3000 -28.8356 -0.0933
43.3200 -28.8489 -0.0935
43.3400 -28.8622 -0.0913
43.3600 -28.8756 -0.0907
43.3800 -28.8889 -0.0891
43.4000 -28.9022 -0.0868
43.4200 -28.9155 -0.0886
43.4400 -28.9288 -0.0879
43.4600 -28.9422 -0.0874
43.4800 -28.9555 -0.0839
43.5000 -28.9688 -0.0863
43.5200 -28.9822 -0.0836
43.5400 -28.9955 -0.0851
43.5600 -29.0089 -0.0830
43.5800 -29.0222 -0.0836
43.6000 -29.0355 -0.0824
43.6200 -29.0489 -0.0829
43.6400 -29.0623 -0.0799
43.6600 -29.0756 -0.0819
43.6800 -29.0889 -0.0797
43.7000 -29.1022 -0.0793
43.7200 -29.1155 -0.0789
43.7400 -29.1289 -0.0776
43.7600 -29.1422 -0.0766
43.7800 -29.1554 -0.0765
43.8000 -29.1688 -0.0769
43.8200 -29.1822 -0.0760
43.8400 -29.1955 -0.0747
43.8600 -29.2089 -0.0741
43.8800 -29.2222 -0.0715
43.9000 -29.2356 -0.0745
43.9200 -29.2489 -0.0715
43.9400 -29.2622 -0.0710
43.9600 -29.2755 -0.0704
43.9800 -29.2889 -0.0715
44.0000 -29.3022 -0.0684
44.0200 -29.3156 -0.0704
44.0400 -29.3288 -0.0680
44.0600 -29.3422 -0.0670
44.0800 -29.3555 -0.0646
44.1000 -29.3688 -0.0646
44.1200 -29.3821 -0.0650
44.1400 -29.3954 -0.0652
44.1600 -29.4088 -0.0646
44.1800 -29.4222 -0.0621
44.2000 -29.4355 -0.0623
44.2200 -29.4488 -0.0628
44.2400 -29.4622 -0.0607
44.2600 -29.4756 -0.0605
44.2800 -29.4889 -0.0593
44.3000 -29.5022 -0.0591
44.3200 -29.5155 -0.0570
44.3400 -29.5289 -0.0580
44.3600 -29.5422 -0.0551
44.3800 -29.5556 -0.0548
44.4000 -29.5689 -0.0535
44.4200 -29.5822 -0.0540
44.4400 -29.5955 -0.0520
44.4600 -29.6089 -0.0535
44.4800 -29.6221 -0.0482
44.5000 -29.6354 -0.0492
44.5200 -29.6488 -0.0485
44.5400 -29.6621 -0.0478
44.5600 -29.6755 -0.0472
44.5800 -29.6888 -0.0465
44.6000 -29.7022 -0.0453
44.6200 -29.7155 -0.0417
44.6400 -29.7289 -0.0427
44.6600 -29.7423 -0.0385
44.6800 -29.7556 -0.0403
44.7000 -29.7689 -0.0388
44.7200 -29.7822 -0.0374
44.7400 -29.7956 -0.0362
44.7600 -29.8089 -0.0368
44.7800 -29.8222 -0.0315
44.8000 -29.8355 -0.0329
44.8200 -29.8489 -0.0310
44.8400 -29.8621 -0.0300
44.8600 -29.8754 -0.0289
44.8800 -29.8888 -0.0296
44.9000 -29.9021 -0.0279
44.9200 -29.9155 -0.0257
44.9400 -29.9288 -0.0261
44.9600 -29.9422 -0.0257
44.9800 -29.9556 -0.0228
45.0000 -29.9689 -0.0239
45.0200 -29.9823 -0.0212
45.0400 -29.9956 -0.0236
45.0600 -30.0089 -0.0219
45.0800 -30.0222 -0.0217
45.1000 -30.0356 -0.0191
45.1200 -30.0489 -0.0205
45.1400 -30.0622 -0.0167
45.1600 -30.0755 -0.0175
45.1800 -30.0889 -0.0164
45.2000 -30.1022 -0.0141
45.2200 -30.1155 -0.0134
45.2400 -30.1288 -0.0132
45.2600 -30.1422 -0.0126
45.2800 -30.1555 -0.0117
45.3000 -30.1688 -0.0106
45.3200 -30.1822 -0.0094
45.3400 -30.1956 -0.0090
45.3600 -30.2089 -0.0086
45.3800 -30.2222 -0.0077
45.4000 -30.2355 -0.0076
45.4200 -30.2488 -0.0070
45.4400 -30.2622 -0.0056
45.4600 -30.2755 -0.0026
45.4800 -30.2889 -0.0049
45.5000 -30.3022 -0.0020
45.5200 -30.3155 -0.0019
45.5400 -30.3289 -0.0008
45.5600 -30.3422 -0.0007
45.5800 -30.3555 -0.0013
45.6000 -30.3688 0.0013
45.6200 -30.3822 0.0031
45.6400 -30.3955 0.0032
45.6600 -30.4088 0.0027
45.6800 -30.4222 0.0043
45.7000 -30.4355 0.0042
45.7200 -30.4489 0.0044
45.7400 -30.4623 0.0051
45.7600 -30.4756 0.0055
45.7800 -30.4889 0.0047
45.8000 -30.5023 0.0073
45.8200 -30.5156 0.0065
45.8400 -30.5289 0.0055
45.8600 -30.5422 0.0075
45.8800 -30.5555 0.0077
45.9000 -30.5688 0.0075
45.9200 -30.5822 0.0108
45.9400 -30.5955 0.0116
45.9600 -30.6088 0.0109
45.9800 -30.6221 0.0137
46.0000 -30.6355 0.0143
46.0200 -30.6488 0.0137
46.0400 -30.6621 0.0139
46.0600 -30.6755 0.0140
46.0800 -30.6889 0.0144
46.1000 -30.7022 0.0167
46.1200 -30.7155 0.0174
46.1400 -30.7289 0.0172
46.1600 -30.7422 0.0186
46.1800 -30.7556 0.0191
46.2000 -30.7689 0.0224
46.2200 -30.7822 0.0201
46.2400 -30.7955 0.0237
46.2600 -30.8089 0.0224
46.2800 -30.8222 0.0262
46.3000 -30.8355 0.0249
46.3200 -30.8488 0.0268
46.3400 -30.8622 0.0289
46.3600 -30.8755 0.0299
46.3800 -30.8889 0.0299
46.4000 -30.9022 0.0306
46.4200 -30.9155 0.0300
46.4400 -30.9289 0.0311
46.4600 -30.9422 0.0333
46.4800 -30.9555 0.0357
46.5000 -30.9689 0.0338
46.5200 -30.9822 0.0342
46.5400 -30.9956 0.0342
46.5600 -31.0089 0.0345
46.5800 -31.0222 0.0372
46.6000 -31.0355 0.0375
46.6200 -31.0489 0.0379
46.6400 -31.0622 0.0404
46.6600 -31.0755 0.0408
46.6800 -31.0888 0.0414
46.7000 -31.1022 0.0423
46.7200 -31.1155 0.0439
46.7400 -31.1289 0.0447
46.7600 -31.1422 0.0446
46.7800 -31.1555 0.0474
46.8000 -31.1689 0.0482
46.8200 -31.1823 0.0482
46.8400 -31.1955 0.0476
46.8600 -31.2089 0.0477
46.8800 -31.2222 0.0500
46.9000 -31.2356 0.0514
46.9200 -31.2489 0.0513
46.9400 -31.2622 0.0520
46.9600 -31.2755 0.0507
46.9800 -31.2889 0.0540
47.0000 -31.3022 0.0538
47.0200 -31.3155 0.0561
47.0400 -31.3288 0.0539
47.0600 -31.3422 0.0563
47.0800 -31.3555 0.0572
47.1000 -31.3689 0.0582
47.1200 -31.3822 0.0575
47.1400 -31.3955 0.0586
47.1600 -31.4089 0.0588
47.1800 -31.4223 0.0594
47.2000 -31.4356 0.0638
47.2200 -31.4489 0.0610
47.2400 -31.4622 0.0608
47.2600 -31.4755 0.0638
47.2800 -31.4889 0.0639
47.3000 -31.5022 0.0638
47.3200 -31.5155 0.0671
47.3400 -31.5288 0.0664
47.3600 -31.5422 0.0682
47.3800 -31.5555 0.0693
47.4000 -31.5688 0.0674
47.4200 -31.5822 0.0706
47.4400 -31.5955 0.0701
47.4600 -31.6089 0.0724
47.4800 -31.6222 0.0733
47.5000 -31.6355 0.0734
47.5200 -31.6489 0.0745
47.5400 -31.6622 0.0746
47.5600 -31.6756 0.0759
47.5800 -31.6889 0.0776
47.6000 -31.7022 0.0768
47.6200 -31.7156 0.0795
47.6400 -31.7289 0.0789
47.6600 -31.7422 0.0796
47.6800 -31.7555 0.0800
47.7000 -31.7689 0.0791
47.7200 -31.7822 0.0815
47.7400 -31.7955 0.0810
47.7600 -31.8088 0.0819
47.7800 -31.8221 0.0820
47.8000 -31.8355 0.0832
47.8200 -31.8488 0.0845
47.8400 -31.8621 0.0826
47.8600 -31.8755 0.0838
47.8800 -31.8889 0.0851
47.9000 -31.9022 0.0873
47.9200 -31.9156 0.0860
47.9400 -31.9289 0.0884
47.9600 -31.9423 0.0892
47.9800 -31.9556 0.0921
48.0000 -31.9689 0.0921
48.0200 -31.9822 0.0920
48.0400 -31.9955 0.0909
48.0600 -32.0089 0.0934
48.0800 -32.0222 0.0946
48.1000 -32.0355 0.0960
48.1200 -32.0488 0.0958
48.1400 -32.0622 0.0938
48.1600 -32.0755 0.0975
48.1800 -32.0889 0.0978
48.2000 -32.1022 0.0999
48.2200 -32.1155 0.1013
48.2400 -32.1289 0.1039
48.2600 -32.1423 0.1008
48.2800 -32.1556 0.1040
48.3000 -32.1689 0.1045
48.3200 -32.1822 0.1052
48.3400 -32.1955 0.1043
48.3600 -32.2089 0.1065
48.3800 -32.2222 0.1043
48.4000 -32.2355 0.1088
48.4200 -32.2489 0.1082
48.4400 -32.2622 0.1106
48.4600 -32.2755 0.1108
48.4800 -32.2888 0.1111
48.5000 -32.3021 0.1120
48.5200 -32.3155 0.1114
48.5400 -32.3288 0.1126
48.5600 -32.3422 0.1122
48.5800 -32.3555 0.1138
48.6000 -32.3689 0.1159
48.6200 -32.3822 0.1178
48.6400 -32.3956 0.1174
48.6600 -32.4089 0.1179
48.6800 -32.4222 0.1173
48.7000 -32.4356 0.1188
48.7200 -32.4489 0.1197
48.7400 -32.4622 0.1216
48.7600 -32.4755 0.1214
48.7800 -32.4889 0.1206
48.8000 -32.5022 0.1217
48.8200 -32.5155 0.1247
48.8400 -32.5288 0.1260
48.8600 -32.5421 0.1241
48.8800 -32.5555 0.1263
48.9000 -32.5688 0.1298
48.9200 -32.5821 0.1280
48.9400 -32.5955 0.1291
48.9600 -32.6089 0.1293
48.9800 -32.6223 0.1316
49.0000 -32.6356 0.1302
49.0200 -32.6489 0.1326
49.0400 -32.6623 0.1317
49.0600 -32.6756 0.1342
49.0800 -32.6889 0.1324
49.1000 -32.7022 0.1327
49.1200 -32.7155 0.1338
49.1400 -32.7289 0.1383
49.1600 -32.7422 0.1357
49.1800 -32.7555 0.1378
49.2000 -32.7688 0.1373
49.2200 -32.7822 0.1404
49.2400 -32.7955 0.1411
49.2600 -32.8089 0.1417
49.2800 -32.8222 0.1409
49.3000 -32.8355 0.1427
49.3200 -32.8488 0.1427
49.3400 -32.8622 0.1445
49.3600 -32.8756 0.1466
49.3800 -32.8889 0.1442
49.4000 -32.9022 0.1453
49.4200 -32.9156 0.1466
49.4400 -32.9289 0.1482
49.4600 -32.9422 0.1477
49.4800 -32.9556 0.1510
49.5000 -32.9689 0.1511
49.5200 -32.9822 0.1518
49.5400 -32.9955 0.1522
49.5600 -33.0088 0.1523
49.5800 -33.0221 0.1541
49.6000 -33.0355 0.1534
49.6200 -33.0488 0.1567
49.6400 -33.0622 0.1570
49.6600 -33.0755 0.1560
49.6800 -33.0888 0.1606
49.7000 -33.1022 0.1606
49.7200 -33.1155 0.1612
49.7400 -33.1288 0.1614
49.7600 -33.1422 0.1639
49.7800 -33.1555 0.1638
49.8000 -33.1689 0.1653
49.8200 -33.1822 0.1670
49.8400 -33.1955 0.1689
49.8600 -33.2089 0.1712
49.8800 -33.2222 0.1721
49.9000 -33.2355 0.1693
49.9200 -33.2488 0.1712
49.9400 -33.2621 0.1724
49.9600 -33.2755 0.1722
49.9800 -33.2888 0.1760
50.0000 -33.3022 0.1765
50.0200 -33.3155 0.1746
50.0400 -33.3288 0.1779
50.0600 -33.3422 0.1778
50.0800 -33.3556 0.1796
50.1000 -33.3689 0.1791
50.1200 -33.3822 0.1817
50.1400 -33.3956 0.1807
50.1600 -33.4089 0.1848
50.1800 -33.4222 0.1838
50.2000 -33.4355 0.1857
50.2200 -33.4488 0.1849
50.2400 -33.4622 0.1848
50.2600 -33.4755 0.1849
50.2800 -33.4888 0.1860
50.3000 -33.5021 0.1884
50.3200 -33.5155 0.1907
50.3400 -33.5288 0.1913
50.3600 -33.5422 0.1911
50.3800 -33.5555 0.1917
50.4000 -33.5689 0.1930
50.4200 -33.5823 0.1940
50.4400 -33.5956 0.1936
50.4600 -33.6089 0.1964
50.4800 -33.6222 0.1977
50.5000 -33.6356 0.1978
50.5200 -33.6489 0.1996
50.5400 -33.6623 0.1985
50.5600 -33.6756 0.1997
50.5800 -33.6889 0.2019
50.6000 -33.7022 0.2042
50.6200 -33.7155 0.2019
50.6400 -33.7288 0.2028
50.6600 -33.7421 0.2032
50.6800 -33.7555 0.2056
50.7000 -33.7688 0.2074
50.7200 -33.7822 0.2082
50.7400 -33.7955 0.2075
50.7600 -33.8088 0.2098
50.7800 -33.8222 0.2091
50.8000 -33.8356 0.2118
50.8200 -33.8489 0.2110
50.8400 -33.8622 0.2101
50.8600 -33.8755 0.2120
50.8800 -33.8889 0.2154
50.9000 -33.9022 0.2164
50.9200 -33.9155 0.2155
50.9400 -33.9288 0.2183
50.9600 -33.9422 0.2175
50.9800 -33.9555 0.2192
51.0000 -33.9688 0.2199
51.0200 -33.9821 0.2247
51.0400 -33.9954 0.2211
51.0600 -34.0088 0.2265
51.0800 -34.0222 0.2243
51.1000 -34.0355 0.2255
51.1200 -34.0488 0.2270
51.1400 -34.0622 0.2281
51.1600 -34.0756 0.2278
51.1800 -34.0889 0.2266
51.2000 -34.1022 0.2286
51.2200 -34.1155 0.2288
51.2400 -34.1289 0.2324
51.2600 -34.1422 0.2321
51.2800 -34.1555 0.2325
51.3000 -34.1688 0.2338
51.3200 -34.1822 0.2337
51.3400 -34.1955 0.2348
51.3600 -34.2088 0.2330
51.3800 -34.2221 0.2354
51.4000 -34.2355 0.2353
51.4200 -34.2489 0.2370
51.4400 -34.2622 0.2384
51.4600 -34.2755 0.2383
51.4800 -34.2889 0.2387
51.5000 -34.3023 0.2415
51.5200 -34.3156 0.2405
51.5400 -34.3289 0.2426
51.5600 -34.3422 0.2433
51.5800 -34.3556 0.2430
51.6000 -34.3689 0.2456
51.6200 -34.3823 0.2452
51.6400 -34.3956 0.2452
51.6600 -34.4089 0.2470
51.6800 -34.4222 0.2465
51.7000 -34.4355 0.2472
51.7200 -34.4488 0.2511
51.7400 -34.4621 0.2507
51.7600 -34.4755 0.2518
51.7800 -34.4888 0.2546
51.8000 -34.5022 0.2560
51.8200 -34.5155 0.2542
51.8400 -34.5289 0.2568
51.8600 -34.5423 0.2543
51.8800 -34.5556 0.2548
51.9000 -34.5689 0.2578
51.9200 -34.5822 0.2603
51.9400 -34.5956 0.2600
51.9600 -34.6089 0.2617
51.9800 -34.6222 0.2626
52.0000 -34.6355 0.2621
52.0200 -34.6488 0.2652
52.0400 -34.6622 0.2681
52.0600 -34.6755 0.2649
52.0800 -34.6888 0.2687
52.1000 -34.7021 0.2687
52.1200 -34.7155 0.2710
52.1400 -34.7288 0.2720
52.1600 -34.7421 0.2701
52.1800 -34.7555 0.2712
52.2000 -34.7688 0.2739
52.2200 -34.7822 0.2748
52.2400 -34.7956 0.2759
52.2600 -34.8089 0.2767
52.2800 -34.8222 0.2792
52.3000 -34.8356 0.2773
52.3200 -34.8489 0.2820
52.3400 -34.8622 0.2811
52.3600 -34.8755 0.2819
52.3800 -34.8888 0.2851
52.4000 -34.9022 0.2855
52.4200 -34.9155 0.2847
52.4400 -34.9288 0.2892
52.4600 -34.9421 0.2885
52.4800 -34.9555 0.2897
52.5000 -34.9689 0.2922
52.5200 -34.9822 0.2932
52.5400 -34.9955 0.2916
52.5600 -35.0089 0.2945
52.5800 -35.0222 0.2972
52.6000 -35.0356 0.2973
52.6200 -35.0489 0.2974
52.6400 -35.0621 0.2990
52.6600 -35.0755 0.2974
52.6800 -35.0889 0.2994
52.7000 -35.1022 0.3007
52.7200 -35.1155 0.2997
52.7400 -35.1289 0.2996
52.7600 -35.1422 0.3021
52.7800 -35.1556 0.3010
52.8000 -35.1689 0.3013
52.8200 -35.1822 0.3028
52.8400 -35.1955 0.3012
52.8600 -35.2088 0.3050
52.8800 -35.2222 0.3041
52.9000 -35.2355 0.3038
52.9200 -35.2488 0.3038
52.9400 -35.2622 0.3048
52.9600 -35.2756 0.3047
52.9800 -35.2889 0.3079
53.0000 -35.3022 0.3086
53.0200 -35.3156 0.3069
53.0400 -35.3289 0.3068
53.0600 -35.3423 0.3098
53.0800 -35.3556 0.3072
53.1000 -35.3689 0.3074
53.1200 -35.3822 0.3094
53.1400 -35.3955 0.3099
53.1600 -35.4088 0.3109
53.1800 -35.4221 0.3135
53.2000 -35.4355 0.3115
53.2200 -35.4488 0.3140
53.2400 -35.4622 0.3145
53.2600 -35.4755 0.3153
53.2800 -35.4888 0.3155
53.3000 -35.5022 0.3170
53.3200 -35.5156 0.3148
53.3400 -35.5289 0.3163
53.3600 -35.5422 0.3198
53.3800 -35.5555 0.3214
53.4000 -35.5689 0.3192
53.4200 -35.5822 0.3241
53.4400 -35.5955 0.3238
53.4600 -35.6088 0.3307
53.4800 -35.6222 0.3351
53.5000 -35.6355 0.2812
53.5200 -35.6488 0.1794
53.5400 -35.6621 0.1220
53.5600 -35.6755 0.1075
53.5800 -35.6888 0.1072
53.6000 -35.7022 0.1122
53.6200 -35.7155 0.1104
53.6400 -35.7288 0.1118
53.6600 -35.7422 0.1130
53.6800 -35.7555 0.1131
53.7000 -35.7689 0.1115
53.7200 -35.7822 0.1128
53.7400 -35.7955 0.1100
53.7600 -35.8089 0.1111
53.7800 -35.8222 0.1117
53.8000 -35.8355 0.1095
53.8200 -35.8489 0.1101
53.8400 -35.8622 0.1113
53.8600 -35.8756 0.1096
53.8800 -35.8889 0.1102
53.9000 -35.9021 0.1104
53.9200 -35.9155 0.1098
53.9400 -35.9288 0.1091
53.9600 -35.9422 0.1122
53.9800 -35.9555 0.1114
54.0000 -35.9688 0.1122
54.0200 -35.9822 0.1124
54.0400 -35.9956 0.1109
54.0600 -36.0089 0.1103
54.0800 -36.0222 0.1122
54.1000 -36.0355 0.1108
54.1200 -36.0489 0.1121
54.1400 -36.0622 0.1122
54.1600 -36.0755 0.1133
54.1800 -36.0888 0.1116
54.2000 -36.1022 0.1152
54.2200 -36.1155 0.1120
54.2400 -36.1288 0.1150
54.2600 -36.1421 0.1153
54.2800 -36.1555 0.1160
54.3000 -36.1689 0.1160
54.3200 -36.1822 0.1191
54.3400 -36.1955 0.1154
54.3600 -36.2088 0.1174
54.3800 -36.2222 0.1197
54.4000 -36.2356 0.1195
54.4200 -36.2489 0.1194
54.4400 -36.2622 0.1230
54.4600 -36.2755 0.1220
54.4800 -36.2889 0.1227
54.5000 -36.3022 0.1230
54.5200 -36.3155 0.1211
54.5400 -36.3288 0.1228
54.5600 -36.3422 0.1253
54.5800 -36.3555 0.1233
54.6000 -36.3688 0.1249
54.6200 -36.3821 0.1254
54.6400 -36.3955 0.1239
54.6600 -36.4089 0.1238
54.6800 -36.4222 0.1282
54.7000 -36.4355 0.1280
54.7200 -36.4488 0.1280
54.7400 -36.4622 0.1310
54.7600 -36.4756 0.1297
54.7800 -36.4889 0.1304
54.8000 -36.5022 0.1327
54.8200 -36.5155 0.1318
54.8400 -36.5289 0.1319
54.8600 -36.5422 0.1343
54.8800 -36.5556 0.1329
54.9000 -36.5689 0.1328
54.9200 -36.5822 0.1352
54.9400 -36.5956 0.1348
54.9600 -36.6089 0.1346
54.9800 -36.6222 0.1373
55.0000 -36.6355 0.1365
55.0200 -36.6488 0.1352
55.0400 -36.6621 0.1346
55.0600 -36.6754 0.1346
55.0800 -36.6888 0.1346
55.1000 -36.7021 0.1385
55.1200 -36.7155 0.1360
55.1400 -36.7289 0.1386
55.1600 -36.7422 0.1383
55.1800 -36.7555 0.1402
55.2000 -36.7689 0.1376
55.2200 -36.7823 0.1405
55.2400 -36.7956 0.1382
55.2600 -36.8089 0.1380
55.2800 -36.8222 0.1382
55.3000 -36.8355 0.1416
55.3200 -36.8488 0.1402
55.3400 -36.8621 0.1436
55.3600 -36.8755 0.1400
55.3800 -36.8888 0.1407
55.4000 -36.9022 0.1400
55.4200 -36.9155 0.1410
55.4400 -36.9288 0.1378
55.4600 -36.9422 0.1417
55.4800 -36.9556 0.1405
55.5000 -36.9689 0.1398
55.5200 -36.9822 0.1412
55.5400 -36.9955 0.1413
55.5600 -37.0088 0.1404
55.5800 -37.0222 0.1444
55.6000 -37.0355 0.1434
55.6200 -37.0489 0.1457
55.6400 -37.0622 0.1485
55.6600 -37.0755 0.1477
55.6800 -37.0889 0.1476
55.7000 -37.1021 0.1485
55.7200 -37.1155 0.1483
55.7400 -37.1288 0.1452
55.7600 -37.1422 0.1481
55.7800 -37.1555 0.1502
55.8000 -37.1688 0.1486
55.8200 -37.1822 0.1523
55.8400 -37.1955 0.1535
55.8600 -37.2089 0.1515
55.8800 -37.2222 0.1542
55.9000 -37.2355 0.1536
55.9200 -37.2489 0.1531
55.9400 -37.2623 0.1549
55.9600 -37.2756 0.1566
55.9800 -37.2889 0.1553
56.0000 -37.3022 0.1586
56.0200 -37.3155 0.1562
56.0400 -37.3288 0.1558
56.0600 -37.3421 0.1548
56.0800 -37.3554 0.1558
56.1000 -37.3688 0.1543
56.1200 -37.3822 0.1592
56.1400 -37.3955 0.1561
56.1600 -37.4088 0.1581
56.1800 -37.4222 0.1583
56.2000 -37.4356 0.1592
56.2200 -37.4489 0.1584
56.2400 -37.4622 0.1620
56.2600 -37.4756 0.1613
56.2800 -37.4889 0.1598
56.3000 -37.5023 0.1602
56.3200 -37.5156 0.1618
56.3400 -37.5289 0.1602
56.3600 -37.5422 0.1611
56.3800 -37.5555 0.1610
56.4000 -37.5689 0.1613
56.4200 -37.5822 0.1648
56.4400 -37.5955 0.1657
56.4600 -37.6088 0.1636
56.4800 -37.6222 0.1644
56.5000 -37.6355 0.1644
56.5200 -37.6488 0.1646
56.5400 -37.6622 0.1635
56.5600 -37.6755 0.1663
56.5800 -37.6889 0.1643
56.6000 -37.7022 0.1690
56.6200 -37.7155 0.1679
56.6400 -37.7289 0.1662
56.6600 -37.7422 0.1684
56.6800 -37.7556 0.1700
56.7000 -37.7689 0.1675
56.7200 -37.7822 0.1677
56.7400 -37.7956 0.1684
56.7600 -37.8089 0.1693
56.7800 -37.8222 0.1700
56.8000 -37.8355 0.1719
56.8200 -37.8488 0.1714
56.8400 -37.8622 0.1712
56.8600 -37.8755 0.1731
56.8800 -37.8888 0.1711
56.9000 -37.9022 0.1742
56.9200 -37.9155 0.1738
56.9400 -37.9289 0.1744
56.9600 -37.9422 0.1768
56.9800 -37.9555 0.1753
57.0000 -37.9689 0.1758
57.0200 -37.9822 0.1785
57.0400 -37.9956 0.1780
57.0600 -38.0089 0.1791
57.0800 -38.0222 0.1802
57.1000 -38.0356 0.1800
57.1200 -38.0489 0.1784
57.1400 -38.0622 0.1814
57.1600 -38.0754 0.1808
57.1800 -38.0888 0.1794
57.2000 -38.1022 0.1829
57.2200 -38.1155 0.1852
57.2400 -38.1288 0.1826
57.2600 -38.1422 0.1855
57.2800 -38.1555 0.1845
57.3000 -38.1689 0.1838
57.3200 -38.1822 0.1842
57.3400 -38.1956 0.1874
57.3600 -38.2089 0.1835
57.3800 -38.2223 0.1884
57.4000 -38.2356 0.1862
57.4200 -38.2489 0.1872
57.4400 -38.2622 0.1883
57.4600 -38.2755 0.1905
57.4800 -38.2888 0.1881
57.5000 -38.3021 0.1914
57.5200 -38.3154 0.1908
57.5400 -38.3288 0.1917
57.5600 -38.3422 0.1902
57.5800 -38.3555 0.1898
57.6000 -38.3688 0.1885
57.6200 -38.3822 0.1910
57.6400 -38.3956 0.1924
57.6600 -38.4089 0.1920
57.6800 -38.4222 0.1914
57.7000 -38.4355 0.1926
57.7200 -38.4489 0.1915
57.7400 -38.4622 0.1936
57.7600 -38.4756 0.1935
57.7800 -38.4889 0.1934
57.8000 -38.5022 0.1956
57.8200 -38.5155 0.1975
57.8400 -38.5289 0.1960
57.8600 -38.5422 0.1984
57.8800 -38.5555 0.1978
57.9000 -38.5688 0.1973
57.9200 -38.5822 0.2005
57.9400 -38.5955 0.2023
57.9600 -38.6088 0.2014
57.9800 -38.6221 0.2035
58.0000 -38.6355 0.2058
58.0200 -38.6489 0.2019
58.0400 -38.6622 0.2040
58.0600 -38.6755 0.2029
58.0800 -38.6889 0.2039
58.1000 -38.7022 0.2038
58.1200 -38.7156 0.2051
58.1400 -38.7289 0.2036
58.1600 -38.7422 0.2061
58.1800 -38.7555 0.2056
58.2000 -38.7689 0.2049
58.2200 -38.7822 0.2057
58.2400 -38.7955 0.2071
58.2600 -38.8088 0.2058
58.2800 -38.8222 0.2060
58.3000 -38.8355 0.2066
58.3200 -38.8488 0.2055
58.3400 -38.8622 0.2053
58.3600 -38.8755 0.2083
58.3800 -38.8889 0.2076
58.4000 -38.9022 0.2076
58.4200 -38.9155 0.2077
58.4400 -38.9289 0.2078
58.4600 -38.9422 0.2089
58.4800 -38.9556 0.2121
58.5000 -38.9689 0.2078
58.5200 -38.9822 0.2113
58.5400 -38.9955 0.2121
58.5600 -39.0089 0.2129
58.5800 -39.0221 0.2120
58.6000 -39.0355 0.2151
58.6200 -39.0488 0.2135
58.6400 -39.0622 0.2162
58.6600 -39.0756 0.2185
58.6800 -39.0889 0.2181
58.7000 -39.1022 0.2203
58.7200 -39.1155 0.2201
58.7400 -39.1289 0.2202
58.7600 -39.1422 0.2206
58.7800 -39.1555 0.2244
58.8000 -39.1689 0.2230
58.8200 -39.1822 0.2246
58.8400 -39.1956 0.2249
58.8600 -39.2089 0.2232
58.8800 -39.2222 0.2264
58.9000 -39.2355 0.2275
58.9200 -39.2488 0.2267
58.9400 -39.2621 0.2244
58.9600 -39.2754 0.2282
58.9800 -39.2888 0.2284
59.0000 -39.3021 0.2300
59.0200 -39.3155 0.2327
59.0400 -39.3288 0.2307
59.0600 -39.3421 0.2321
59.0800 -39.3555 0.2343
59.1000 -39.3689 0.2344
59.1200 -39.3823 0.2354
59.1400 -39.3956 0.2373
59.1600 -39.4089 0.2358
59.1800 -39.4222 0.2388
59.2000 -39.4356 0.2375
59.2200 -39.4489 0.2373
59.2400 -39.4622 0.2361
59.2600 -39.4755 0.2408
59.2800 -39.4888 0.2378
59.3000 -39.5021 0.2385
59.3200 -39.5154 0.2384
59.3400 -39.5288 0.2371
59.3600 -39.5421 0.2378
59.3800 -39.5555 0.2403
59.4000 -39.5688 0.2378
59.4200 -39.5822 0.2368
59.4400 -39.5955 0.2403
59.4600 -39.6089 0.2397
59.4800 -39.6223 0.2398
59.5000 -39.6356 0.2421
59.5200 -39.6489 0.2389
59.5400 -39.6622 0.2369
59.5600 -39.6756 0.2412
59.5800 -39.6889 0.2413
59.6000 -39.7022 0.2432
59.6200 -39.7155 0.2447
59.6400 -39.7289 0.2421
59.6600 -39.7422 0.2440
59.6800 -39.7554 0.2440
59.7000 -39.7688 0.2426
59.7200 -39.7822 0.2451
59.7400 -39.7955 0.2484
59.7600 -39.8089 0.2475
59.7800 -39.8222 0.2495
59.8000 -39.8355 0.2517
59.8200 -39.8489 0.2514
59.8400 -39.8622 0.2502
59.8600 -39.8755 0.2547
59.8800 -39.8888 0.2552
59.9000 -39.9022 0.2544
59.9200 -39.9156 0.2579
59.9400 -39.9289 0.2546
59.9600 -39.9422 0.2581
59.9800 -39.9555 0.2591
60.0000 -39.9689 0.2614
60.0200 -39.9822 0.2606
60.0400 -39.9955 0.2623
60.0470 -40.0000 0.2583
