Raw Data
Time Displacement Force
(s) (mm) (N)
0.0000 0.0000 -0.2624
0.0200 -0.0001 -0.2633
0.0400 -0.0019 -0.2776
0.0600 -0.0093 -0.2753
0.0800 -0.0212 -0.2646
0.1000 -0.0338 -0.2690
0.1200 -0.0465 -0.2673
0.1400 -0.0599 -0.2682
0.1600 -0.0738 -0.2664
0.1800 -0.0879 -0.2692
0.2000 -0.1017 -0.2666
0.2200 -0.1153 -0.2678
0.2400 -0.1287 -0.2700
0.2600 -0.1420 -0.2683
0.2800 -0.1553 -0.2700
0.3000 -0.1686 -0.2683
0.3200 -0.1820 -0.2680
0.3400 -0.1954 -0.2670
0.3600 -0.2087 -0.2684
0.3800 -0.2220 -0.2663
0.4000 -0.2353 -0.2696
0.4200 -0.2487 -0.2702
0.4400 -0.2620 -0.2702
0.4600 -0.2754 -0.2689
0.4800 -0.2887 -0.2707
0.5000 -0.3021 -0.2671
0.5200 -0.3154 -0.2691
0.5400 -0.3288 -0.2660
0.5600 -0.3421 -0.2641
0.5800 -0.3554 -0.2654
0.6000 -0.3688 -0.2639
0.6200 -0.3821 -0.2637
0.6400 -0.3954 -0.2628
0.6600 -0.4087 -0.2640
0.6800 -0.4221 -0.2605
0.7000 -0.4354 -0.2617
0.7200 -0.4487 -0.2602
0.7400 -0.4620 -0.2604
0.7600 -0.4753 -0.2587
0.7800 -0.4887 -0.2606
0.8000 -0.5021 -0.2584
0.8200 -0.5154 -0.2581
0.8400 -0.5287 -0.2600
0.8600 -0.5421 -0.2578
0.8800 -0.5555 -0.2572
0.9000 -0.5688 -0.2562
0.9200 -0.5821 -0.2556
0.9400 -0.5954 -0.2547
0.9600 -0.6088 -0.2556
0.9800 -0.6221 -0.2536
1.0000 -0.6354 -0.2534
1.0200 -0.6487 -0.2546
1.0400 -0.6620 -0.2530
1.0600 -0.6754 -0.2534
1.0800 -0.6887 -0.2518
1.1000 -0.7020 -0.2513
1.1200 -0.7153 -0.2521
1.1400 -0.7287 -0.2545
1.1600 -0.7420 -0.2508
1.1800 -0.7554 -0.2529
1.2000 -0.7687 -0.2531
1.2200 -0.7821 -0.2540
1.2400 -0.7955 -0.2508
1.2600 -0.8088 -0.2514
1.2800 -0.8221 -0.2495
1.3000 -0.8354 -0.2501
1.3200 -0.8488 -0.2511
1.3400 -0.8621 -0.2499
1.3600 -0.8754 -0.2506
1.3800 -0.8887 -0.2523
1.4000 -0.9021 -0.2514
1.4200 -0.9154 -0.2507
1.4400 -0.9287 -0.2488
1.4600 -0.9420 -0.2466
1.4800 -0.9553 -0.2482
1.5000 -0.9687 -0.2492
1.5200 -0.9820 -0.2474
1.5400 -0.9953 -0.2460
1.5600 -1.0087 -0.2477
1.5800 -1.0220 -0.2467
1.6000 -1.0354 -0.2485
1.6200 -1.0488 -0.2466
1.6400 -1.0621 -0.2464
1.6600 -1.0754 -0.2437
1.6800 -1.0888 -0.2438
1.7000 -1.1021 -0.2407
1.7200 -1.1154 -0.2422
1.7400 -1.1287 -0.2427
1.7600 -1.1421 -0.2418
1.7800 -1.1554 -0.2403
1.8000 -1.1687 -0.2415
1.8200 -1.1820 -0.2391
1.8400 -1.1953 -0.2384
1.8600 -1.2087 -0.2393
1.8800 -1.2221 -0.2364
1.9000 -1.2354 -0.2372
1.9200 -1.2487 -0.2382
1.9400 -1.2621 -0.2383
1.9600 -1.2755 -0.2379
1.9800 -1.2888 -0.2370
2.0000 -1.3020 -0.2366
2.0200 -1.3153 -0.2369
2.0400 -1.3287 -0.2395
2.0600 -1.3421 -0.2379
2.0800 -1.3554 -0.2390
2.1000 -1.3687 -0.2374
2.1200 -1.3821 -0.2386
2.1400 -1.3954 -0.2371
2.1600 -1.4088 -0.2396
2.1800 -1.4221 -0.2372
2.2000 -1.4354 -0.2396
2.2200 -1.4487 -0.2404
2.2400 -1.4621 -0.2403
2.2600 -1.4754 -0.2388
2.2800 -1.4887 -0.2408
2.3000 -1.5021 -0.2396
2.3200 -1.5155 -0.2376
2.3400 -1.5288 -0.2401
2.3600 -1.5421 -0.2394
2.3800 -1.5555 -0.2399
2.4000 -1.5688 -0.2389
2.4200 -1.5821 -0.2391
2.4400 -1.5955 -0.2374
2.4600 -1.6087 -0.2392
2.4800 -1.6220 -0.2357
2.5000 -1.6354 -0.2374
2.5200 -1.6487 -0.2364
2.5400 -1.6620 -0.2367
2.5600 -1.6753 -0.2360
2.5800 -1.6886 -0.2373
2.6000 -1.7020 -0.2352
2.6200 -1.7154 -0.2345
2.6400 -1.7287 -0.2359
2.6600 -1.7421 -0.2349
2.6800 -1.7554 -0.2345
2.7000 -1.7688 -0.2343
2.7200 -1.7821 -0.2339
2.7400 -1.7954 -0.2335
2.7600 -1.8088 -0.2366
2.7800 -1.8221 -0.2346
2.8000 -1.8354 -0.2345
2.8200 -1.8487 -0.2329
2.8400 -1.8621 -0.2333
2.8600 -1.8754 -0.2332
2.8800 -1.8887 -0.2345
2.9000 -1.9020 -0.2356
2.9200 -1.9153 -0.2313
2.9400 -1.9287 -0.2323
2.9600 -1.9421 -0.2312
2.9800 -1.9554 -0.2334
3.0000 -1.9687 -0.2325
3.0200 -1.9820 -0.2326
3.0400 -1.9954 -0.2306
3.0600 -2.0088 -0.2315
3.0800 -2.0221 -0.2291
3.1000 -2.0354 -0.2301
3.1200 -2.0487 -0.2309
3.1400 -2.0621 -0.2306
3.1600 -2.0754 -0.2299
3.1800 -2.0888 -0.2308
3.2000 -2.1021 -0.2299
3.2200 -2.1154 -0.2295
3.2400 -2.1288 -0.2306
3.2600 -2.1421 -0.2281
3.2800 -2.1554 -0.2292
3.3000 -2.1687 -0.2306
3.3200 -2.1821 -0.2296
3.3400 -2.1954 -0.2281
3.3600 -2.2087 -0.2288
3.3800 -2.2221 -0.2264
3.4000 -2.2354 -0.2257
3.4200 -2.2488 -0.2275
3.4400 -2.2621 -0.2268
3.4600 -2.2754 -0.2250
3.4800 -2.2887 -0.2246
3.5000 -2.3021 -0.2257
3.5200 -2.3154 -0.2237
3.5400 -2.3287 -0.2267
3.5600 -2.3420 -0.2252
3.5800 -2.3554 -0.2263
3.6000 -2.3687 -0.2237
3.6200 -2.3820 -0.2217
3.6400 -2.3953 -0.2212
3.6600 -2.4087 -0.2201
3.6800 -2.4221 -0.2206
3.7000 -2.4354 -0.2178
3.7200 -2.4487 -0.2202
3.7400 -2.4621 -0.2197
3.7600 -2.4754 -0.2212
3.7800 -2.4888 -0.2200
3.8000 -2.5021 -0.2184
3.8200 -2.5154 -0.2171
3.8400 -2.5287 -0.2180
3.8600 -2.5421 -0.2170
3.8800 -2.5554 -0.2150
3.9000 -2.5687 -0.2135
3.9200 -2.5821 -0.2123
3.9400 -2.5954 -0.2128
3.9600 -2.6087 -0.2140
3.9800 -2.6220 -0.2144
4.0000 -2.6353 -0.2120
4.0200 -2.6487 -0.2131
4.0400 -2.6621 -0.2127
4.0600 -2.6754 -0.2102
4.0800 -2.6887 -0.2119
4.1000 -2.7021 -0.2112
4.1200 -2.7154 -0.2106
4.1400 -2.7288 -0.2108
4.1600 -2.7421 -0.2103
4.1800 -2.7554 -0.2116
4.2000 -2.7687 -0.2113
4.2200 -2.7821 -0.2108
4.2400 -2.7954 -0.2098
4.2600 -2.8087 -0.2124
4.2800 -2.8221 -0.2123
4.3000 -2.8354 -0.2123
4.3200 -2.8488 -0.2114
4.3400 -2.8621 -0.2109
4.3600 -2.8753 -0.2096
4.3800 -2.8887 -0.2116
4.4000 -2.9020 -0.2108
4.4200 -2.9153 -0.2108
4.4400 -2.9287 -0.2115
4.4600 -2.9420 -0.2122
4.4800 -2.9554 -0.2111
4.5000 -2.9688 -0.2097
4.5200 -2.9821 -0.2108
4.5400 -2.9954 -0.2084
4.5600 -3.0088 -0.2115
4.5800 -3.0221 -0.2087
4.6000 -3.0355 -0.2091
4.6200 -3.0488 -0.2087
4.6400 -3.0621 -0.2111
4.6600 -3.0754 -0.2104
4.6800 -3.0887 -0.2103
4.7000 -3.1020 -0.2082
4.7200 -3.1153 -0.2068
4.7400 -3.1287 -0.2071
4.7600 -3.1421 -0.2073
4.7800 -3.1554 -0.2059
4.8000 -3.1687 -0.2080
4.8200 -3.1821 -0.2089
4.8400 -3.1954 -0.2062
4.8600 -3.2088 -0.2055
4.8800 -3.2221 -0.2045
4.9000 -3.2354 -0.2043
4.9200 -3.2487 -0.2046
4.9400 -3.2621 -0.2030
4.9600 -3.2754 -0.2029
4.9800 -3.2888 -0.2033
5.0000 -3.3021 -0.2042
5.0200 -3.3154 -0.2020
5.0400 -3.3287 -0.2025
5.0600 -3.3421 -0.2015
5.0800 -3.3553 -0.2027
5.1000 -3.3687 -0.1989
5.1200 -3.3820 -0.2008
5.1400 -3.3954 -0.1978
5.1600 -3.4087 -0.1993
5.1800 -3.4221 -0.1988
5.2000 -3.4354 -0.1995
5.2200 -3.4488 -0.1977
5.2400 -3.4621 -0.1985
5.2600 -3.4754 -0.1983
5.2800 -3.4888 -0.1989
5.3000 -3.5021 -0.1983
5.3200 -3.5155 -0.1965
5.3400 -3.5288 -0.1971
5.3600 -3.5421 -0.1979
5.3800 -3.5554 -0.1983
5.4000 -3.5688 -0.1974
5.4200 -3.5820 -0.1965
5.4400 -3.5953 -0.1954
5.4600 -3.6086 -0.1965
5.4800 -3.6220 -0.1955
5.5000 -3.6354 -0.1962
5.5200 -3.6487 -0.1942
5.5400 -3.6620 -0.1968
5.5600 -3.6754 -0.1965
5.5800 -3.6888 -0.1955
5.6000 -3.7021 -0.1956
5.6200 -3.7155 -0.1947
5.6400 -3.7288 -0.1937
5.6600 -3.7421 -0.1938
5.6800 -3.7555 -0.1901
5.7000 -3.7688 -0.1936
5.7200 -3.7821 -0.1938
5.7400 -3.7954 -0.1946
5.7600 -3.8088 -0.1921
5.7800 -3.8221 -0.1931
5.8000 -3.8354 -0.1900
5.8200 -3.8487 -0.1906
5.8400 -3.8620 -0.1889
5.8600 -3.8754 -0.1892
5.8800 -3.8887 -0.1886
5.9000 -3.9020 -0.1905
5.9200 -3.9154 -0.1888
5.9400 -3.9287 -0.1887
5.9600 -3.9421 -0.1882
5.9800 -3.9554 -0.1887
6.0000 -3.9687 -0.1889
6.0200 -3.9821 -0.1875
6.0400 -3.9955 -0.1871
6.0600 -4.0088 -0.1862
6.0800 -4.0221 -0.1883
6.1000 -4.0355 -0.1851
6.1200 -4.0488 -0.1855
6.1400 -4.0621 -0.1853
6.1600 -4.0754 -0.1852
6.1800 -4.0887 -0.1843
6.2000 -4.1020 -0.1858
6.2200 -4.1154 -0.1846
6.2400 -4.1287 -0.1855
6.2600 -4.1420 -0.1840
6.2800 -4.1554 -0.1845
6.3000 -4.1687 -0.1850
6.3200 -4.1821 -0.1837
6.3400 -4.1954 -0.1841
6.3600 -4.2087 -0.1845
6.3800 -4.2221 -0.1869
6.4000 -4.2354 -0.1848
6.4200 -4.2488 -0.1852
6.4400 -4.2621 -0.1858
6.4600 -4.2754 -0.1848
6.4800 -4.2887 -0.1845
6.5000 -4.3020 -0.1847
6.5200 -4.3153 -0.1833
6.5400 -4.3287 -0.1841
6.5600 -4.3420 -0.1843
6.5800 -4.3554 -0.1869
6.6000 -4.3687 -0.1857
6.6200 -4.3820 -0.1863
6.6400 -4.3954 -0.1842
6.6600 -4.4088 -0.1845
6.6800 -4.4221 -0.1838
6.7000 -4.4355 -0.1858
6.7200 -4.4488 -0.1857
6.7400 -4.4621 -0.1862
6.7600 -4.4755 -0.1834
6.7800 -4.4888 -0.1819
6.8000 -4.5021 -0.1810
6.8200 -4.5154 -0.1836
6.8400 -4.5287 -0.1827
6.8600 -4.5420 -0.1822
6.8800 -4.5553 -0.1838
6.9000 -4.5686 -0.1817
6.9200 -4.5820 -0.1829
6.9400 -4.5954 -0.1812
6.9600 -4.6087 -0.1812
6.9800 -4.6221 -0.1777
7.0000 -4.6354 -0.1792
7.0200 -4.6488 -0.1759
7.0400 -4.6621 -0.1761
7.0600 -4.6754 -0.1767
7.0800 -4.6887 -0.1782
7.1000 -4.7021 -0.1768
7.1200 -4.7155 -0.1766
7.1400 -4.7288 -0.1750
7.1600 -4.7421 -0.1757
7.1800 -4.7554 -0.1743
7.2000 -4.7688 -0.1734
7.2200 -4.7821 -0.1740
7.2400 -4.7954 -0.1733
7.2600 -4.8087 -0.1716
7.2800 -4.8220 -0.1718
7.3000 -4.8354 -0.1706
7.3200 -4.8487 -0.1698
7.3400 -4.8620 -0.1701
7.3600 -4.8754 -0.1704
7.3800 -4.8888 -0.1685
7.4000 -4.9021 -0.1705
7.4200 -4.9154 -0.1711
7.4400 -4.9287 -0.1700
7.4600 -4.9421 -0.1704
7.4800 -4.9555 -0.1709
7.5000 -4.9688 -0.1693
7.5200 -4.9821 -0.1690
7.5400 -4.9954 -0.1684
7.5600 -5.0087 -0.1697
7.5800 -5.0221 -0.1692
7.6000 -5.0354 -0.1691
7.6200 -5.0487 -0.1686
7.6400 -5.0620 -0.1687
7.6600 -5.0754 -0.1692
7.6800 -5.0887 -0.1682
7.7000 -5.1021 -0.1665
7.7200 -5.1154 -0.1688
7.7400 -5.1288 -0.1686
7.7600 -5.1421 -0.1695
7.7800 -5.1554 -0.1677
7.8000 -5.1687 -0.1674
7.8200 -5.1821 -0.1658
7.8400 -5.1954 -0.1661
7.8600 -5.2087 -0.1650
7.8800 -5.2220 -0.1671
7.9000 -5.2354 -0.1661
7.9200 -5.2487 -0.1651
7.9400 -5.2621 -0.1671
7.9600 -5.2753 -0.1701
7.9800 -5.2887 -0.1673
8.0000 -5.3020 -0.1667
8.0200 -5.3154 -0.1653
8.0400 -5.3288 -0.1649
8.0600 -5.3421 -0.1671
8.0800 -5.3554 -0.1659
8.1000 -5.3688 -0.1666
8.1200 -5.3821 -0.1642
8.1400 -5.3954 -0.1663
8.1600 -5.4087 -0.1646
8.1800 -5.4221 -0.1656
8.2000 -5.4355 -0.1652
8.2200 -5.4488 -0.1633
8.2400 -5.4621 -0.1650
8.2600 -5.4754 -0.1657
8.2800 -5.4887 -0.1643
8.3000 -5.5021 -0.1638
8.3200 -5.5153 -0.1615
8.3400 -5.5286 -0.1626
8.3600 -5.5420 -0.1610
8.3800 -5.5554 -0.1626
8.4000 -5.5687 -0.1626
8.4200 -5.5820 -0.1613
8.4400 -5.5954 -0.1633
8.4600 -5.6088 -0.1610
8.4800 -5.6221 -0.1617
8.5000 -5.6355 -0.1632
8.5200 -5.6488 -0.1613
8.5400 -5.6621 -0.1618
8.5600 -5.6755 -0.1609
8.5800 -5.6888 -0.1592
8.6000 -5.7021 -0.1593
8.6200 -5.7154 -0.1586
8.6400 -5.7287 -0.1592
8.6600 -5.7420 -0.1583
8.6800 -5.7553 -0.1567
8.7000 -5.7686 -0.1574
8.7200 -5.7820 -0.1568
8.7400 -5.7953 -0.1595
8.7600 -5.8087 -0.1560
8.7800 -5.8220 -0.1579
8.8000 -5.8354 -0.1575
8.8200 -5.8488 -0.1590
8.8400 -5.8621 -0.1561
8.8600 -5.8755 -0.1575
8.8800 -5.8888 -0.1551
8.9000 -5.9021 -0.1554
8.9200 -5.9155 -0.1561
8.9400 -5.9288 -0.1556
8.9600 -5.9421 -0.1570
8.9800 -5.9554 -0.1574
9.0000 -5.9687 -0.1561
9.0200 -5.9821 -0.1533
9.0400 -5.9954 -0.1542
9.0600 -6.0087 -0.1523
9.0800 -6.0220 -0.1558
9.1000 -6.0354 -0.1534
9.1200 -6.0488 -0.1524
9.1400 -6.0621 -0.1502
9.1600 -6.0754 -0.1503
9.1800 -6.0888 -0.1502
9.2000 -6.1021 -0.1498
9.2200 -6.1154 -0.1504
9.2400 -6.1287 -0.1511
9.2600 -6.1420 -0.1487
9.2800 -6.1554 -0.1492
9.3000 -6.1687 -0.1473
9.3200 -6.1821 -0.1476
9.3400 -6.1954 -0.1470
9.3600 -6.2087 -0.1476
9.3800 -6.2221 -0.1469
9.4000 -6.2354 -0.1481
9.4200 -6.2487 -0.1480
9.4400 -6.2620 -0.1487
9.4600 -6.2754 -0.1468
9.4800 -6.2887 -0.1464
9.5000 -6.3020 -0.1453
9.5200 -6.3154 -0.1475
9.5400 -6.3288 -0.1461
9.5600 -6.3421 -0.1447
9.5800 -6.3555 -0.1444
9.6000 -6.3688 -0.1448
9.6200 -6.3821 -0.1459
9.6400 -6.3955 -0.1455
9.6600 -6.4088 -0.1444
9.6800 -6.4221 -0.1440
9.7000 -6.4354 -0.1456
9.7200 -6.4487 -0.1447
9.7400 -6.4620 -0.1432
9.7600 -6.4753 -0.1448
9.7800 -6.4886 -0.1458
9.8000 -6.5020 -0.1452
9.8200 -6.5154 -0.1453
9.8400 -6.5287 -0.1456
9.8600 -6.5421 -0.1433
9.8800 -6.5554 -0.1439
9.9000 -6.5687 -0.1422
9.9200 -6.5821 -0.1438
9.9400 -6.5954 -0.1435
9.9600 -6.6087 -0.1445
9.9800 -6.6221 -0.1433
10.0000 -6.6354 -0.1445
10.0200 -6.6488 -0.1447
10.0400 -6.6621 -0.1420
10.0600 -6.6754 -0.1405
10.0800 -6.6887 -0.1405
10.1000 -6.7021 -0.1396
10.1200 -6.7154 -0.1410
10.1400 -6.7287 -0.1395
10.1600 -6.7420 -0.1400
10.1800 -6.7554 -0.1388
10.2000 -6.7688 -0.1385
10.2200 -6.7821 -0.1375
10.2400 -6.7954 -0.1374
10.2600 -6.8087 -0.1340
10.2800 -6.8221 -0.1353
10.3000 -6.8354 -0.1350
10.3200 -6.8487 -0.1357
10.3400 -6.8621 -0.1338
10.3600 -6.8754 -0.1378
10.3800 -6.8888 -0.1346
10.4000 -6.9021 -0.1346
10.4200 -6.9154 -0.1342
10.4400 -6.9288 -0.1339
10.4600 -6.9421 -0.1333
10.4800 -6.9554 -0.1362
10.5000 -6.9687 -0.1344
10.5200 -6.9820 -0.1334
10.5400 -6.9954 -0.1354
10.5600 -7.0087 -0.1342
10.5800 -7.0221 -0.1336
10.6000 -7.0354 -0.1350
10.6200 -7.0487 -0.1363
10.6400 -7.0621 -0.1332
10.6600 -7.0755 -0.1355
10.6800 -7.0887 -0.1353
10.7000 -7.1021 -0.1359
10.7200 -7.1154 -0.1348
10.7400 -7.1288 -0.1363
10.7600 -7.1421 -0.1353
10.7800 -7.1554 -0.1364
10.8000 -7.1687 -0.1350
10.8200 -7.1820 -0.1351
10.8400 -7.1954 -0.1366
10.8600 -7.2087 -0.1360
10.8800 -7.2220 -0.1348
10.9000 -7.2354 -0.1361
10.9200 -7.2488 -0.1361
10.9400 -7.2621 -0.1361
10.9600 -7.2754 -0.1352
10.9800 -7.2887 -0.1345
11.0000 -7.3021 -0.1334
11.0200 -7.3154 -0.1317
11.0400 -7.3288 -0.1335
11.0600 -7.3421 -0.1330
11.0800 -7.3554 -0.1329
11.1000 -7.3688 -0.1324
11.1200 -7.3821 -0.1311
11.1400 -7.3954 -0.1345
11.1600 -7.4087 -0.1320
11.1800 -7.4220 -0.1331
11.2000 -7.4354 -0.1301
11.2200 -7.4487 -0.1308
11.2400 -7.4620 -0.1282
11.2600 -7.4754 -0.1307
11.2800 -7.4888 -0.1298
11.3000 -7.5021 -0.1305
11.3200 -7.5154 -0.1285
11.3400 -7.5287 -0.1303
11.3600 -7.5421 -0.1274
11.3800 -7.5555 -0.1280
11.4000 -7.5688 -0.1295
11.4200 -7.5821 -0.1265
11.4400 -7.5954 -0.1284
11.4600 -7.6088 -0.1278
11.4800 -7.6221 -0.1279
11.5000 -7.6354 -0.1274
11.5200 -7.6488 -0.1286
11.5400 -7.6621 -0.1255
11.5600 -7.6754 -0.1262
11.5800 -7.6887 -0.1285
11.6000 -7.7020 -0.1264
11.6200 -7.7153 -0.1261
11.6400 -7.7287 -0.1259
11.6600 -7.7420 -0.1235
11.6800 -7.7553 -0.1231
11.7000 -7.7687 -0.1241
11.7200 -7.7821 -0.1220
11.7400 -7.7955 -0.1245
11.7600 -7.8088 -0.1245
11.7800 -7.8221 -0.1240
11.8000 -7.8354 -0.1223
11.8200 -7.8488 -0.1231
11.8400 -7.8622 -0.1212
11.8600 -7.8754 -0.1217
11.8800 -7.8887 -0.1227
11.9000 -7.9021 -0.1194
11.9200 -7.9154 -0.1190
11.9400 -7.9287 -0.1203
11.9600 -7.9420 -0.1200
11.9800 -7.9554 -0.1228
12.0000 -7.9687 -0.1224
12.0200 -7.9821 -0.1206
12.0400 -7.9954 -0.1218
12.0600 -8.0087 -0.1206
12.0800 -8.0221 -0.1197
12.1000 -8.0355 -0.1201
12.1200 -8.0488 -0.1225
12.1400 -8.0620 -0.1204
12.1600 -8.0754 -0.1208
12.1800 -8.0887 -0.1208
12.2000 -8.1021 -0.1196
12.2200 -8.1154 -0.1204
12.2400 -8.1287 -0.1219
12.2600 -8.1421 -0.1197
12.2800 -8.1554 -0.1211
12.3000 -8.1687 -0.1210
12.3200 -8.1820 -0.1198
12.3400 -8.1954 -0.1202
12.3600 -8.2087 -0.1202
12.3800 -8.2221 -0.1189
12.4000 -8.2354 -0.1185
12.4200 -8.2487 -0.1187
12.4400 -8.2621 -0.1185
12.4600 -8.2754 -0.1188
12.4800 -8.2888 -0.1198
12.5000 -8.3021 -0.1159
12.5200 -8.3154 -0.1175
12.5400 -8.3288 -0.1179
12.5600 -8.3421 -0.1182
12.5800 -8.3554 -0.1176
12.6000 -8.3687 -0.1161
12.6200 -8.3821 -0.1133
12.6400 -8.3954 -0.1124
12.6600 -8.4087 -0.1144
12.6800 -8.4220 -0.1099
12.7000 -8.4353 -0.1114
12.7200 -8.4487 -0.1119
12.7400 -8.4620 -0.1116
12.7600 -8.4754 -0.1096
12.7800 -8.4887 -0.1118
12.8000 -8.5021 -0.1116
12.8200 -8.5154 -0.1132
12.8400 -8.5287 -0.1109
12.8600 -8.5420 -0.1078
12.8800 -8.5554 -0.1077
12.9000 -8.5688 -0.1087
12.9200 -8.5821 -0.1080
12.9400 -8.5954 -0.1071
12.9600 -8.6087 -0.1087
12.9800 -8.6221 -0.1072
13.0000 -8.6354 -0.1074
13.0200 -8.6487 -0.1105
13.0400 -8.6620 -0.1078
13.0600 -8.6753 -0.1088
13.0800 -8.6887 -0.1066
13.1000 -8.7021 -0.1058
13.1200 -8.7154 -0.1059
13.1400 -8.7287 -0.1075
13.1600 -8.7421 -0.1059
13.1800 -8.7554 -0.1051
13.2000 -8.7688 -0.1071
13.2200 -8.7821 -0.1041
13.2400 -8.7954 -0.1051
13.2600 -8.8088 -0.1045
13.2800 -8.8221 -0.1030
13.3000 -8.8355 -0.1037
13.3200 -8.8488 -0.1062
13.3400 -8.8621 -0.1043
13.3600 -8.8755 -0.1053
13.3800 -8.8887 -0.1053
13.4000 -8.9020 -0.1043
13.4200 -8.9153 -0.1042
13.4400 -8.9287 -0.1052
13.4600 -8.9421 -0.1022
13.4800 -8.9554 -0.1041
13.5000 -8.9687 -0.1055
13.5200 -8.9821 -0.1037
13.5400 -8.9954 -0.1031
13.5600 -9.0088 -0.1053
13.5800 -9.0221 -0.1031
13.6000 -9.0354 -0.1032
13.6200 -9.0488 -0.1040
13.6400 -9.0621 -0.1044
13.6600 -9.0754 -0.1036
13.6800 -9.0888 -0.1051
13.7000 -9.1021 -0.1033
13.7200 -9.1154 -0.1038
13.7400 -9.1287 -0.1050
13.7600 -9.1420 -0.1033
13.7800 -9.1553 -0.1035
13.8000 -9.1687 -0.1040
13.8200 -9.1820 -0.1022
13.8400 -9.1953 -0.1027
13.8600 -9.2087 -0.1071
13.8800 -9.2220 -0.1037
13.9000 -9.2354 -0.1047
13.9200 -9.2488 -0.1044
13.9400 -9.2621 -0.1053
13.9600 -9.2754 -0.1036
13.9800 -9.2888 -0.1045
14.0000 -9.3021 -0.1018
14.0200 -9.3154 -0.1026
14.0400 -9.3287 -0.1038
14.0600 -9.3420 -0.1021
14.0800 -9.3554 -0.1010
14.1000 -9.3687 -0.1031
14.1200 -9.3820 -0.1018
14.1400 -9.3953 -0.0996
14.1600 -9.4087 -0.1005
14.1800 -9.4221 -0.0990
14.2000 -9.4354 -0.0984
14.2200 -9.4487 -0.0988
14.2400 -9.4621 -0.0964
14.2600 -9.4755 -0.0957
14.2800 -9.4888 -0.0959
14.3000 -9.5021 -0.0961
14.3200 -9.5154 -0.0949
14.3400 -9.5288 -0.0952
14.3600 -9.5421 -0.0909
14.3800 -9.5555 -0.0915
14.4000 -9.5688 -0.0936
14.4200 -9.5821 -0.0931
14.4400 -9.5954 -0.0911
14.4600 -9.6088 -0.0920
14.4800 -9.6220 -0.0893
14.5000 -9.6353 -0.0903
14.5200 -9.6487 -0.0895
14.5400 -9.6620 -0.0888
14.5600 -9.6754 -0.0878
14.5800 -9.6887 -0.0903
14.6000 -9.7020 -0.0892
14.6200 -9.7154 -0.0874
14.6400 -9.7288 -0.0871
14.6600 -9.7421 -0.0875
14.6800 -9.7554 -0.0891
14.7000 -9.7688 -0.0913
14.7200 -9.7821 -0.0894
14.7400 -9.7954 -0.0879
14.7600 -9.8087 -0.0895
14.7800 -9.8221 -0.0880
14.8000 -9.8354 -0.0873
14.8200 -9.8487 -0.0916
14.8400 -9.8620 -0.0906
14.8600 -9.8753 -0.0885
14.8800 -9.8887 -0.0909
14.9000 -9.9021 -0.0899
14.9200 -9.9154 -0.0899
14.9400 -9.9287 -0.0919
14.9600 -9.9421 -0.0892
14.9800 -9.9554 -0.0879
15.0000 -9.9688 -0.0883
15.0200 -9.9821 -0.0890
15.0400 -9.9954 -0.0902
15.0600 -10.0087 -0.0888
15.0800 -10.0221 -0.0895
15.1000 -10.0354 -0.0873
15.1200 -10.0487 -0.0890
15.1400 -10.0620 -0.0859
15.1600 -10.0754 -0.0879
15.1800 -10.0887 -0.0884
15.2000 -10.1020 -0.0874
15.2200 -10.1153 -0.0839
15.2400 -10.1287 -0.0869
15.2600 -10.1421 -0.0852
15.2800 -10.1554 -0.0844
15.3000 -10.1687 -0.0855
15.3200 -10.1821 -0.0871
15.3400 -10.1955 -0.0862
15.3600 -10.2088 -0.0864
15.3800 -10.2221 -0.0858
15.4000 -10.2354 -0.0844
15.4200 -10.2488 -0.0858
15.4400 -10.2621 -0.0833
15.4600 -10.2754 -0.0825
15.4800 -10.2887 -0.0848
15.5000 -10.3021 -0.0845
15.5200 -10.3154 -0.0812
15.5400 -10.3287 -0.0823
15.5600 -10.3420 -0.0845
15.5800 -10.3553 -0.0837
15.6000 -10.3687 -0.0850
15.6200 -10.3820 -0.0839
15.6400 -10.3954 -0.0842
15.6600 -10.4087 -0.0839
15.6800 -10.4220 -0.0826
15.7000 -10.4354 -0.0786
15.7200 -10.4488 -0.0814
15.7400 -10.4621 -0.0804
15.7600 -10.4755 -0.0797
15.7800 -10.4888 -0.0800
15.8000 -10.5021 -0.0794
15.8200 -10.5154 -0.0765
15.8400 -10.5287 -0.0800
15.8600 -10.5421 -0.0807
15.8800 -10.5554 -0.0787
15.9000 -10.5687 -0.0796
15.9200 -10.5820 -0.0769
15.9400 -10.5953 -0.0768
15.9600 -10.6087 -0.0789
15.9800 -10.6220 -0.0789
16.0000 -10.6354 -0.0754
16.0200 -10.6487 -0.0784
16.0400 -10.6621 -0.0778
16.0600 -10.6754 -0.0772
16.0800 -10.6888 -0.0764
16.1000 -10.7021 -0.0782
16.1200 -10.7154 -0.0751
16.1400 -10.7288 -0.0762
16.1600 -10.7421 -0.0747
16.1800 -10.7554 -0.0743
16.2000 -10.7687 -0.0746
16.2200 -10.7821 -0.0762
16.2400 -10.7954 -0.0747
16.2600 -10.8087 -0.0780
16.2800 -10.8220 -0.0758
16.3000 -10.8353 -0.0738
16.3200 -10.8487 -0.0736
16.3400 -10.8621 -0.0757
16.3600 -10.8754 -0.0733
16.3800 -10.8887 -0.0735
16.4000 -10.9021 -0.0765
16.4200 -10.9154 -0.0717
16.4400 -10.9288 -0.0744
16.4600 -10.9421 -0.0734
16.4800 -10.9554 -0.0726
16.5000 -10.9687 -0.0718
16.5200 -10.9821 -0.0723
16.5400 -10.9954 -0.0699
16.5600 -11.0087 -0.0713
16.5800 -11.0221 -0.0713
16.6000 -11.0354 -0.0699
16.6200 -11.0488 -0.0699
16.6400 -11.0621 -0.0710
16.6600 -11.0754 -0.0698
16.6800 -11.0887 -0.0699
16.7000 -11.1021 -0.0697
16.7200 -11.1154 -0.0677
16.7400 -11.1287 -0.0708
16.7600 -11.1421 -0.0719
16.7800 -11.1555 -0.0690
16.8000 -11.1688 -0.0692
16.8200 -11.1821 -0.0698
16.8400 -11.1954 -0.0669
16.8600 -11.2088 -0.0686
16.8800 -11.2222 -0.0693
16.9000 -11.2355 -0.0673
16.9200 -11.2488 -0.0682
16.9400 -11.2621 -0.0702
16.9600 -11.2754 -0.0682
16.9800 -11.2887 -0.0687
17.0000 -11.3020 -0.0700
17.0200 -11.3153 -0.0659
17.0400 -11.3287 -0.0685
17.0600 -11.3420 -0.0674
17.0800 -11.3554 -0.0659
17.1000 -11.3687 -0.0672
17.1200 -11.3820 -0.0645
17.1400 -11.3954 -0.0644
17.1600 -11.4088 -0.0653
17.1800 -11.4221 -0.0672
17.2000 -11.4354 -0.0660
17.2200 -11.4488 -0.0649
17.2400 -11.4621 -0.0643
17.2600 -11.4754 -0.0609
17.2800 -11.4887 -0.0622
17.3000 -11.5021 -0.0629
17.3200 -11.5154 -0.0613
17.3400 -11.5288 -0.0621
17.3600 -11.5420 -0.0629
17.3800 -11.5553 -0.0622
17.4000 -11.5687 -0.0625
17.4200 -11.5820 -0.0631
17.4400 -11.5954 -0.0607
17.4600 -11.6087 -0.0611
17.4800 -11.6220 -0.0613
17.5000 -11.6354 -0.0590
17.5200 -11.6487 -0.0621
17.5400 -11.6621 -0.0611
17.5600 -11.6754 -0.0582
17.5800 -11.6887 -0.0586
17.6000 -11.7021 -0.0576
17.6200 -11.7155 -0.0551
17.6400 -11.7288 -0.0577
17.6600 -11.7421 -0.0580
17.6800 -11.7554 -0.0571
17.7000 -11.7688 -0.0573
17.7200 -11.7821 -0.0586
17.7400 -11.7954 -0.0580
17.7600 -11.8087 -0.0560
17.7800 -11.8221 -0.0582
17.8000 -11.8354 -0.0559
17.8200 -11.8487 -0.0582
17.8400 -11.8621 -0.0599
17.8600 -11.8754 -0.0573
17.8800 -11.8888 -0.0572
17.9000 -11.9021 -0.0556
17.9200 -11.9154 -0.0544
17.9400 -11.9287 -0.0548
17.9600 -11.9421 -0.0569
17.9800 -11.9554 -0.0544
18.0000 -11.9687 -0.0547
18.0200 -11.9820 -0.0565
18.0400 -11.9954 -0.0554
18.0600 -12.0087 -0.0535
18.0800 -12.0220 -0.0548
18.1000 -12.0353 -0.0528
18.1200 -12.0487 -0.0548
18.1400 -12.0621 -0.0557
18.1600 -12.0754 -0.0526
18.1800 -12.0887 -0.0545
18.2000 -12.1021 -0.0548
18.2200 -12.1154 -0.0536
18.2400 -12.1288 -0.0540
18.2600 -12.1421 -0.0549
18.2800 -12.1554 -0.0530
18.3000 -12.1687 -0.0535
18.3200 -12.1821 -0.0550
18.3400 -12.1954 -0.0517
18.3600 -12.2087 -0.0488
18.3800 -12.2221 -0.0515
18.4000 -12.2354 -0.0491
18.4200 -12.2487 -0.0515
18.4400 -12.2620 -0.0523
18.4600 -12.2753 -0.0501
18.4800 -12.2887 -0.0512
18.5000 -12.3020 -0.0527
18.5200 -12.3154 -0.0506
18.5400 -12.3287 -0.0505
18.5600 -12.3420 -0.0495
18.5800 -12.3554 -0.0479
18.6000 -12.3688 -0.0502
18.6200 -12.3821 -0.0526
18.6400 -12.3954 -0.0498
18.6600 -12.4087 -0.0505
18.6800 -12.4221 -0.0491
18.7000 -12.4354 -0.0495
18.7200 -12.4488 -0.0500
18.7400 -12.4621 -0.0513
18.7600 -12.4754 -0.0490
18.7800 -12.4888 -0.0481
18.8000 -12.5021 -0.0487
18.8200 -12.5154 -0.0476
18.8400 -12.5287 -0.0467
18.8600 -12.5420 -0.0511
18.8800 -12.5554 -0.0474
18.9000 -12.5687 -0.0490
18.9200 -12.5820 -0.0498
18.9400 -12.5954 -0.0465
18.9600 -12.6088 -0.0488
18.9800 -12.6221 -0.0489
19.0000 -12.6354 -0.0488
19.0200 -12.6487 -0.0491
19.0400 -12.6621 -0.0508
19.0600 -12.6755 -0.0501
19.0800 -12.6888 -0.0501
19.1000 -12.7021 -0.0487
19.1200 -12.7154 -0.0460
19.1400 -12.7287 -0.0457
19.1600 -12.7421 -0.0457
19.1800 -12.7554 -0.0432
19.2000 -12.7687 -0.0449
19.2200 -12.7821 -0.0457
19.2400 -12.7954 -0.0436
19.2600 -12.8087 -0.0425
19.2800 -12.8220 -0.0441
19.3000 -12.8354 -0.0423
19.3200 -12.8488 -0.0445
19.3400 -12.8621 -0.0441
19.3600 -12.8754 -0.0421
19.3800 -12.8887 -0.0405
19.4000 -12.9021 -0.0432
19.4200 -12.9154 -0.0407
19.4400 -12.9287 -0.0406
19.4600 -12.9421 -0.0409
19.4800 -12.9554 -0.0413
19.5000 -12.9687 -0.0395
19.5200 -12.9821 -0.0388
19.5400 -12.9953 -0.0383
19.5600 -13.0087 -0.0384
19.5800 -13.0220 -0.0401
19.6000 -13.0354 -0.0379
19.6200 -13.0487 -0.0377
19.6400 -13.0620 -0.0395
19.6600 -13.0754 -0.0382
19.6800 -13.0888 -0.0366
19.7000 -13.1021 -0.0384
19.7200 -13.1154 -0.0375
19.7400 -13.1287 -0.0353
19.7600 -13.1421 -0.0374
19.7800 -13.1555 -0.0331
19.8000 -13.1688 -0.0359
19.8200 -13.1821 -0.0339
19.8400 -13.1954 -0.0364
19.8600 -13.2087 -0.0347
19.8800 -13.2220 -0.0355
19.9000 -13.2353 -0.0331
19.9200 -13.2486 -0.0348
19.9400 -13.2620 -0.0356
19.9600 -13.2754 -0.0349
19.9800 -13.2887 -0.0332
20.0000 -13.3020 -0.0355
20.0200 -13.3154 -0.0344
20.0400 -13.3288 -0.0341
20.0600 -13.3422 -0.0336
20.0800 -13.3555 -0.0320
20.1000 -13.3688 -0.0326
20.1200 -13.3821 -0.0327
20.1400 -13.3955 -0.0327
20.1600 -13.4088 -0.0323
20.1800 -13.4221 -0.0348
20.2000 -13.4354 -0.0322
20.2200 -13.4488 -0.0305
20.2400 -13.4621 -0.0313
20.2600 -13.4754 -0.0313
20.2800 -13.4887 -0.0320
20.3000 -13.5020 -0.0340
20.3200 -13.5154 -0.0312
20.3400 -13.5287 -0.0349
20.3600 -13.5420 -0.0345
20.3800 -13.5554 -0.0335
20.4000 -13.5687 -0.0323
20.4200 -13.5821 -0.0329
20.4400 -13.5954 -0.0332
20.4600 -13.6087 -0.0333
20.4800 -13.6221 -0.0347
20.5000 -13.6355 -0.0316
20.5200 -13.6488 -0.0333
20.5400 -13.6621 -0.0324
20.5600 -13.6754 -0.0312
20.5800 -13.6888 -0.0338
20.6000 -13.7021 -0.0335
20.6200 -13.7153 -0.0326
20.6400 -13.7287 -0.0303
20.6600 -13.7420 -0.0320
20.6800 -13.7554 -0.0296
20.7000 -13.7687 -0.0294
20.7200 -13.7820 -0.0292
20.7400 -13.7954 -0.0322
20.7600 -13.8087 -0.0295
20.7800 -13.8221 -0.0312
20.8000 -13.8354 -0.0299
20.8200 -13.8487 -0.0300
20.8400 -13.8621 -0.0288
20.8600 -13.8755 -0.0294
20.8800 -13.8888 -0.0302
20.9000 -13.9021 -0.0295
20.9200 -13.9154 -0.0305
20.9400 -13.9288 -0.0289
20.9600 -13.9421 -0.0287
20.9800 -13.9554 -0.0281
21.0000 -13.9687 -0.0295
21.0200 -13.9820 -0.0278
21.0400 -13.9954 -0.0280
21.0600 -14.0087 -0.0260
21.0800 -14.0220 -0.0283
21.1000 -14.0354 -0.0249
21.1200 -14.0488 -0.0251
21.1400 -14.0621 -0.0250
21.1600 -14.0755 -0.0261
21.1800 -14.0888 -0.0254
21.2000 -14.1021 -0.0257
21.2200 -14.1155 -0.0250
21.2400 -14.1288 -0.0225
21.2600 -14.1421 -0.0248
21.2800 -14.1554 -0.0226
21.3000 -14.1687 -0.0225
21.3200 -14.1820 -0.0211
21.3400 -14.1953 -0.0224
21.3600 -14.2086 -0.0205
21.3800 -14.2220 -0.0233
21.4000 -14.2354 -0.0217
21.4200 -14.2487 -0.0210
21.4400 -14.2621 -0.0210
21.4600 -14.2754 -0.0193
21.4800 -14.2888 -0.0176
21.5000 -14.3021 -0.0180
21.5200 -14.3154 -0.0199
21.5400 -14.3287 -0.0182
21.5600 -14.3421 -0.0183
21.5800 -14.3554 -0.0164
21.6000 -14.3688 -0.0162
21.6200 -14.3821 -0.0164
21.6400 -14.3954 -0.0166
21.6600 -14.4088 -0.0133
21.6800 -14.4221 -0.0158
21.7000 -14.4354 -0.0131
21.7200 -14.4487 -0.0132
21.7400 -14.4620 -0.0137
21.7600 -14.4754 -0.0170
21.7800 -14.4887 -0.0146
21.8000 -14.5020 -0.0151
21.8200 -14.5153 -0.0133
21.8400 -14.5287 -0.0133
21.8600 -14.5421 -0.0135
21.8800 -14.5554 -0.0137
21.9000 -14.5687 -0.0130
21.9200 -14.5821 -0.0120
21.9400 -14.5954 -0.0111
21.9600 -14.6088 -0.0105
21.9800 -14.6221 -0.0121
22.0000 -14.6354 -0.0107
22.0200 -14.6487 -0.0112
22.0400 -14.6621 -0.0109
22.0600 -14.6754 -0.0109
22.0800 -14.6887 -0.0083
22.1000 -14.7020 -0.0107
22.1200 -14.7154 -0.0094
22.1400 -14.7287 -0.0087
22.1600 -14.7421 -0.0099
22.1800 -14.7554 -0.0095
22.2000 -14.7687 -0.0083
22.2200 -14.7821 -0.0106
22.2400 -14.7955 -0.0117
22.2600 -14.8088 -0.0077
22.2800 -14.8221 -0.0102
22.3000 -14.8354 -0.0084
22.3200 -14.8488 -0.0073
22.3400 -14.8621 -0.0091
22.3600 -14.8754 -0.0120
22.3800 -14.8887 -0.0074
22.4000 -14.9021 -0.0084
22.4200 -14.9154 -0.0052
22.4400 -14.9287 -0.0070
22.4600 -14.9420 -0.0071
22.4800 -14.9554 -0.0081
22.5000 -14.9688 -0.0071
22.5200 -14.9821 -0.0068
22.5400 -14.9954 -0.0067
22.5600 -15.0088 -0.0055
22.5800 -15.0221 -0.0051
22.6000 -15.0355 -0.0060
22.6200 -15.0488 -0.0061
22.6400 -15.0621 -0.0063
22.6600 -15.0755 -0.0048
22.6800 -15.0888 -0.0026
22.7000 -15.1021 -0.0046
22.7200 -15.1154 -0.0066
22.7400 -15.1287 -0.0069
22.7600 -15.1421 -0.0061
22.7800 -15.1553 -0.0061
22.8000 -15.1686 -0.0039
22.8200 -15.1820 -0.0045
22.8400 -15.1953 -0.0051
22.8600 -15.2087 -0.0026
22.8800 -15.2220 -0.0038
22.9000 -15.2354 -0.0047
22.9200 -15.2487 -0.0018
22.9400 -15.2621 -0.0019
22.9600 -15.2755 -0.0024
22.9800 -15.2888 -0.0023
23.0000 -15.3021 -0.0040
23.0200 -15.3154 -0.0044
23.0400 -15.3288 -0.0001
23.0600 -15.3421 -0.0029
23.0800 -15.3554 -0.0013
23.1000 -15.3687 -0.0014
23.1200 -15.3821 -0.0011
23.1400 -15.3954 -0.0014
23.1600 -15.4086 0.0020
23.1800 -15.4220 -0.0011
23.2000 -15.4353 0.0006
23.2200 -15.4487 -0.0004
23.2400 -15.4620 -0.0007
23.2600 -15.4754 -0.0030
23.2800 -15.4887 -0.0004
23.3000 -15.5021 -0.0007
23.3200 -15.5155 0.0023
23.3400 -15.5288 0.0030
23.3600 -15.5421 0.0041
23.3800 -15.5554 -0.0005
23.4000 -15.5688 0.0028
23.4200 -15.5821 0.0013
23.4400 -15.5954 0.0013
23.4600 -15.6087 0.0034
23.4800 -15.6221 0.0046
23.5000 -15.6354 0.0044
23.5200 -15.6487 0.0035
23.5400 -15.6620 0.0029
23.5600 -15.6754 0.0054
23.5800 -15.6888 0.0049
23.6000 -15.7021 0.0031
23.6200 -15.7154 0.0017
23.6400 -15.7288 0.0047
23.6600 -15.7421 0.0037
23.6800 -15.7554 0.0031
23.7000 -15.7687 0.0027
23.7200 -15.7820 0.0030
23.7400 -15.7954 0.0038
23.7600 -15.8088 0.0041
23.7800 -15.8221 0.0063
23.8000 -15.8354 0.0062
23.8200 -15.8488 0.0079
23.8400 -15.8621 0.0064
23.8600 -15.8754 0.0073
23.8800 -15.8887 0.0071
23.9000 -15.9020 0.0079
23.9200 -15.9154 0.0073
23.9400 -15.9287 0.0101
23.9600 -15.9420 0.0071
23.9800 -15.9554 0.0081
24.0000 -15.9687 0.0093
24.0200 -15.9821 0.0103
24.0400 -15.9955 0.0090
24.0600 -16.0088 0.0089
24.0800 -16.0221 0.0077
24.1000 -16.0355 0.0091
24.1200 -16.0488 0.0104
24.1400 -16.0621 0.0097
24.1600 -16.0754 0.0093
24.1800 -16.0887 0.0099
24.2000 -16.1020 0.0109
24.2200 -16.1154 0.0079
24.2400 -16.1286 0.0102
24.2600 -16.1420 0.0112
24.2800 -16.1553 0.0084
24.3000 -16.1687 0.0090
24.3200 -16.1821 0.0080
24.3400 -16.1954 0.0104
24.3600 -16.2087 0.0106
24.3800 -16.2221 0.0108
24.4000 -16.2355 0.0094
24.4200 -16.2488 0.0116
24.4400 -16.2621 0.0111
24.4600 -16.2754 0.0133
24.4800 -16.2888 0.0137
24.5000 -16.3021 0.0141
24.5200 -16.3154 0.0136
24.5400 -16.3287 0.0143
24.5600 -16.3421 0.0153
24.5800 -16.3554 0.0156
24.6000 -16.3687 0.0155
24.6200 -16.3820 0.0168
24.6400 -16.3953 0.0171
24.6600 -16.4087 0.0157
24.6800 -16.4220 0.0170
24.7000 -16.4353 0.0173
24.7200 -16.4487 0.0193
24.7400 -16.4621 0.0190
24.7600 -16.4754 0.0179
24.7800 -16.4887 0.0182
24.8000 -16.5021 0.0193
24.8200 -16.5154 0.0214
24.8400 -16.5288 0.0214
24.8600 -16.5421 0.0197
24.8800 -16.5554 0.0196
24.9000 -16.5688 0.0206
24.9200 -16.5821 0.0216
24.9400 -16.5954 0.0207
24.9600 -16.6087 0.0215
24.9800 -16.6220 0.0225
25.0000 -16.6354 0.0226
25.0200 -16.6488 0.0223
25.0400 -16.6621 0.0235
25.0600 -16.6754 0.0214
25.0800 -16.6888 0.0242
25.1000 -16.7021 0.0247
25.1200 -16.7155 0.0248
25.1400 -16.7288 0.0252
25.1600 -16.7421 0.0239
25.1800 -16.7554 0.0231
25.2000 -16.7687 0.0236
25.2200 -16.7821 0.0255
25.2400 -16.7954 0.0240
25.2600 -16.8087 0.0276
25.2800 -16.8221 0.0258
25.3000 -16.8354 0.0253
25.3200 -16.8487 0.0260
25.3400 -16.8620 0.0263
25.3600 -16.8754 0.0274
25.3800 -16.8888 0.0266
25.4000 -16.9021 0.0260
25.4200 -16.9154 0.0273
25.4400 -16.9287 0.0284
25.4600 -16.9421 0.0283
25.4800 -16.9555 0.0289
25.5000 -16.9688 0.0273
25.5200 -16.9820 0.0356
25.5400 -16.9954 0.0258
25.5600 -17.0087 0.0344
25.5800 -17.0220 0.0308
25.6000 -17.0353 0.0329
25.6200 -17.0487 0.0313
25.6400 -17.0620 0.0348
25.6600 -17.0754 0.0337
25.6800 -17.0887 0.0326
25.7000 -17.1020 0.0352
25.7200 -17.1154 0.0321
25.7400 -17.1287 0.0363
25.7600 -17.1421 0.0310
25.7800 -17.1554 0.0380
25.8000 -17.1687 0.0316
25.8200 -17.1821 0.0385
25.8400 -17.1954 0.0328
25.8600 -17.2088 0.0385
25.8800 -17.2221 0.0352
25.9000 -17.2354 0.0378
25.9200 -17.2488 0.0361
25.9400 -17.2621 0.0378
25.9600 -17.2754 0.0360
25.9800 -17.2888 0.0351
26.0000 -17.3021 0.0375
26.0200 -17.3154 0.0353
26.0400 -17.3287 0.0394
26.0600 -17.3420 0.0362
26.0800 -17.3554 0.0379
26.1000 -17.3687 0.0388
26.1200 -17.3820 0.0401
26.1400 -17.3953 0.0370
26.1600 -17.4087 0.0397
26.1800 -17.4221 0.0372
26.2000 -17.4355 0.0403
26.2200 -17.4488 0.0397
26.2400 -17.4621 0.0385
26.2600 -17.4754 0.0376
26.2800 -17.4888 0.0387
26.3000 -17.5022 0.0397
26.3200 -17.5155 0.0404
26.3400 -17.5287 0.0400
26.3600 -17.5421 0.0405
26.3800 -17.5554 0.0379
26.4000 -17.5687 0.0396
26.4200 -17.5820 0.0418
26.4400 -17.5954 0.0405
26.4600 -17.6088 0.0393
26.4800 -17.6221 0.0397
26.5000 -17.6354 0.0398
26.5200 -17.6487 0.0416
26.5400 -17.6621 0.0424
26.5600 -17.6755 0.0416
26.5800 -17.6888 0.0393
26.6000 -17.7021 0.0402
26.6200 -17.7154 0.0431
26.6400 -17.7287 0.0432
26.6600 -17.7421 0.0428
26.6800 -17.7554 0.0422
26.7000 -17.7687 0.0442
26.7200 -17.7821 0.0433
26.7400 -17.7954 0.0451
26.7600 -17.8087 0.0438
26.7800 -17.8220 0.0438
26.8000 -17.8353 0.0455
26.8200 -17.8487 0.0463
26.8400 -17.8621 0.0456
26.8600 -17.8754 0.0449
26.8800 -17.8887 0.0448
26.9000 -17.9021 0.0478
26.9200 -17.9154 0.0475
26.9400 -17.9288 0.0487
26.9600 -17.9421 0.0472
26.9800 -17.9554 0.0474
27.0000 -17.9688 0.0479
27.0200 -17.9821 0.0489
27.0400 -17.9954 0.0510
27.0600 -18.0087 0.0504
27.0800 -18.0221 0.0500
27.1000 -18.0354 0.0504
27.1200 -18.0487 0.0478
27.1400 -18.0620 0.0493
27.1600 -18.0753 0.0492
27.1800 -18.0887 0.0521
27.2000 -18.1020 0.0524
27.2200 -18.1153 0.0522
27.2400 -18.1287 0.0529
27.2600 -18.1421 0.0519
27.2800 -18.1555 0.0534
27.3000 -18.1688 0.0552
27.3200 -18.1821 0.0538
27.3400 -18.1954 0.0531
27.3600 -18.2088 0.0547
27.3800 -18.2221 0.0557
27.4000 -18.2354 0.0568
27.4200 -18.2487 0.0560
27.4400 -18.2621 0.0570
27.4600 -18.2754 0.0575
27.4800 -18.2887 0.0573
27.5000 -18.3020 0.0586
27.5200 -18.3153 0.0593
27.5400 -18.3287 0.0580
27.5600 -18.3421 0.0590
27.5800 -18.3554 0.0606
27.6000 -18.3687 0.0585
27.6200 -18.3820 0.0583
27.6400 -18.3954 0.0589
27.6600 -18.4088 0.0604
27.6800 -18.4221 0.0633
27.7000 -18.4354 0.0622
27.7200 -18.4488 0.0623
27.7400 -18.4621 0.0627
27.7600 -18.4754 0.0612
27.7800 -18.4888 0.0607
27.8000 -18.5021 0.0625
27.8200 -18.5155 0.0612
27.8400 -18.5288 0.0630
27.8600 -18.5420 0.0614
27.8800 -18.5553 0.0631
27.9000 -18.5687 0.0611
27.9200 -18.5821 0.0649
27.9400 -18.5954 0.0640
27.9600 -18.6087 0.0636
27.9800 -18.6220 0.0624
28.0000 -18.6354 0.0640
28.0200 -18.6488 0.0643
28.0400 -18.6620 0.0639
28.0600 -18.6754 0.0649
28.0800 -18.6887 0.0644
28.1000 -18.7021 0.0655
28.1200 -18.7154 0.0655
28.1400 -18.7288 0.0658
28.1600 -18.7421 0.0661
28.1800 -18.7554 0.0671
28.2000 -18.7687 0.0678
28.2200 -18.7820 0.0680
28.2400 -18.7953 0.0673
28.2600 -18.8087 0.0680
28.2800 -18.8221 0.0685
28.3000 -18.8354 0.0687
28.3200 -18.8487 0.0684
28.3400 -18.8620 0.0669
28.3600 -18.8754 0.0693
28.3800 -18.8888 0.0679
28.4000 -18.9021 0.0670
28.4200 -18.9154 0.0684
28.4400 -18.9288 0.0670
28.4600 -18.9421 0.0690
28.4800 -18.9554 0.0688
28.5000 -18.9687 0.0701
28.5200 -18.9820 0.0684
28.5400 -18.9954 0.0717
28.5600 -19.0087 0.0689
28.5800 -19.0220 0.0722
28.6000 -19.0353 0.0721
28.6200 -19.0487 0.0716
28.6400 -19.0621 0.0705
28.6600 -19.0754 0.0719
28.6800 -19.0887 0.0714
28.7000 -19.1021 0.0687
28.7200 -19.1155 0.0732
28.7400 -19.1288 0.0743
28.7600 -19.1421 0.0757
28.7800 -19.1554 0.0748
28.8000 -19.1688 0.0749
28.8200 -19.1821 0.0754
28.8400 -19.1955 0.0755
28.8600 -19.2088 0.0763
28.8800 -19.2221 0.0751
28.9000 -19.2354 0.0789
28.9200 -19.2488 0.0770
28.9400 -19.2620 0.0762
28.9600 -19.2754 0.0792
28.9800 -19.2887 0.0771
29.0000 -19.3020 0.0776
29.0200 -19.3153 0.0805
29.0400 -19.3286 0.0793
29.0600 -19.3420 0.0787
29.0800 -19.3554 0.0789
29.1000 -19.3688 0.0774
29.1200 -19.3821 0.0809
29.1400 -19.3954 0.0809
29.1600 -19.4088 0.0811
29.1800 -19.4221 0.0811
29.2000 -19.4355 0.0828
29.2200 -19.4488 0.0817
29.2400 -19.4621 0.0808
29.2600 -19.4754 0.0817
29.2800 -19.4887 0.0809
29.3000 -19.5020 0.0828
29.3200 -19.5153 0.0827
29.3400 -19.5287 0.0820
29.3600 -19.5421 0.0828
29.3800 -19.5554 0.0827
29.4000 -19.5687 0.0829
29.4200 -19.5821 0.0837
29.4400 -19.5954 0.0854
29.4600 -19.6088 0.0858
29.4800 -19.6221 0.0838
29.5000 -19.6354 0.0857
29.5200 -19.6487 0.0871
29.5400 -19.6621 0.0878
29.5600 -19.6754 0.0872
29.5800 -19.6887 0.0896
29.6000 -19.7020 0.0892
29.6200 -19.7154 0.0905
29.6400 -19.7287 0.0888
29.6600 -19.7420 0.0885
29.6800 -19.7553 0.0913
29.7000 -19.7687 0.0920
29.7200 -19.7821 0.0908
29.7400 -19.7954 0.0929
29.7600 -19.8087 0.0906
29.7800 -19.8221 0.0898
29.8000 -19.8354 0.0919
29.8200 -19.8488 0.0919
29.8400 -19.8621 0.0917
29.8600 -19.8754 0.0912
29.8800 -19.8888 0.0924
29.9000 -19.9021 0.0916
29.9200 -19.9154 0.0926
29.9400 -19.9287 0.0925
29.9600 -19.9421 0.0912
29.9800 -19.9554 0.0926
30.0000 -19.9687 0.0957
30.0200 -19.9820 0.0955
30.0400 -19.9953 0.0957
30.0600 -20.0086 0.0974
30.0800 -20.0220 0.0959
30.1000 -20.0354 0.0988
30.1200 -20.0487 0.0880
30.1400 -20.0620 0.0594
30.1600 -20.0754 0.0181
30.1800 -20.0888 -0.0219
30.2000 -20.1021 -0.0616
30.2200 -20.1154 -0.0963
30.2400 -20.1288 -0.1313
30.2600 -20.1421 -0.1736
30.2800 -20.1555 -0.2189
30.3000 -20.1688 -0.2610
30.3200 -20.1821 -0.3015
30.3400 -20.1954 -0.3363
30.3600 -20.2087 -0.3714
30.3800 -20.2220 -0.3900
30.4000 -20.2353 -0.3946
30.4200 -20.2487 -0.3912
30.4400 -20.2620 -0.3908
30.4600 -20.2754 -0.3908
30.4800 -20.2887 -0.3890
30.5000 -20.3020 -0.3909
30.5200 -20.3154 -0.3894
30.5400 -20.3288 -0.3876
30.5600 -20.3421 -0.3868
30.5800 -20.3554 -0.3863
30.6000 -20.3688 -0.3842
30.6200 -20.3821 -0.3855
30.6400 -20.3955 -0.3834
30.6600 -20.4088 -0.3828
30.6800 -20.4221 -0.3822
30.7000 -20.4354 -0.3824
30.7200 -20.4487 -0.3781
30.7400 -20.4620 -0.3794
30.7600 -20.4753 -0.3781
30.7800 -20.4887 -0.3791
30.8000 -20.5021 -0.3789
30.8200 -20.5154 -0.3797
30.8400 -20.5287 -0.3764
30.8600 -20.5421 -0.3775
30.8800 -20.5554 -0.3725
30.9000 -20.5688 -0.3743
30.9200 -20.5821 -0.3752
30.9400 -20.5954 -0.3751
30.9600 -20.6087 -0.3741
30.9800 -20.6220 -0.3740
31.0000 -20.6354 -0.3728
31.0200 -20.6487 -0.3713
31.0400 -20.6621 -0.3705
31.0600 -20.6754 -0.3706
31.0800 -20.6888 -0.3687
31.1000 -20.7021 -0.3717
31.1200 -20.7154 -0.3694
31.1400 -20.7287 -0.3684
31.1600 -20.7420 -0.3677
31.1800 -20.7554 -0.3656
31.2000 -20.7687 -0.3655
31.2200 -20.7821 -0.3652
31.2400 -20.7954 -0.3635
31.2600 -20.8088 -0.3603
31.2800 -20.8221 -0.3627
31.3000 -20.8354 -0.3622
31.3200 -20.8488 -0.3618
31.3400 -20.8621 -0.3608
31.3600 -20.8755 -0.3608
31.3800 -20.8888 -0.3597
31.4000 -20.9021 -0.3606
31.4200 -20.9154 -0.3570
31.4400 -20.9287 -0.3563
31.4600 -20.9420 -0.3536
31.4800 -20.9553 -0.3541
31.5000 -20.9687 -0.3523
31.5200 -20.9820 -0.3532
31.5400 -20.9954 -0.3519
31.5600 -21.0087 -0.3507
31.5800 -21.0221 -0.3505
31.6000 -21.0354 -0.3486
31.6200 -21.0488 -0.3472
31.6400 -21.0621 -0.3510
31.6600 -21.0754 -0.3493
31.6800 -21.0888 -0.3473
31.7000 -21.1021 -0.3460
31.7200 -21.1155 -0.3453
31.7400 -21.1288 -0.3448
31.7600 -21.1421 -0.3464
31.7800 -21.1554 -0.3441
31.8000 -21.1688 -0.3414
31.8200 -21.1821 -0.3416
31.8400 -21.1954 -0.3400
31.8600 -21.2087 -0.3378
31.8800 -21.2220 -0.3412
31.9000 -21.2354 -0.3354
31.9200 -21.2487 -0.3383
31.9400 -21.2620 -0.3373
31.9600 -21.2754 -0.3365
31.9800 -21.2888 -0.3353
32.0000 -21.3021 -0.3366
32.0200 -21.3154 -0.3337
32.0400 -21.3287 -0.3342
32.0600 -21.3421 -0.3330
32.0800 -21.3554 -0.3340
32.1000 -21.3688 -0.3311
32.1200 -21.3821 -0.3320
32.1400 -21.3954 -0.3303
32.1600 -21.4088 -0.3280
32.1800 -21.4221 -0.3299
32.2000 -21.4354 -0.3278
32.2200 -21.4487 -0.3286
32.2400 -21.4620 -0.3306
32.2600 -21.4754 -0.3282
32.2800 -21.4887 -0.3256
32.3000 -21.5020 -0.3278
32.3200 -21.5154 -0.3244
32.3400 -21.5288 -0.3259
32.3600 -21.5421 -0.3245
32.3800 -21.5554 -0.3255
32.4000 -21.5687 -0.3232
32.4200 -21.5821 -0.3244
32.4400 -21.5954 -0.3221
32.4600 -21.6087 -0.3203
32.4800 -21.6220 -0.3209
32.5000 -21.6354 -0.3202
32.5200 -21.6487 -0.3196
32.5400 -21.6620 -0.3177
32.5600 -21.6753 -0.3173
32.5800 -21.6887 -0.3158
32.6000 -21.7020 -0.3165
32.6200 -21.7154 -0.3153
32.6400 -21.7287 -0.3138
32.6600 -21.7421 -0.3153
32.6800 -21.7554 -0.3146
32.7000 -21.7688 -0.3141
32.7200 -21.7821 -0.3153
32.7400 -21.7954 -0.3134
32.7600 -21.8087 -0.3117
32.7800 -21.8221 -0.3137
32.8000 -21.8354 -0.3101
32.8200 -21.8488 -0.3102
32.8400 -21.8620 -0.3077
32.8600 -21.8754 -0.3101
32.8800 -21.8887 -0.3075
32.9000 -21.9020 -0.3086
32.9200 -21.9153 -0.3055
32.9400 -21.9287 -0.3051
32.9600 -21.9420 -0.3066
32.9800 -21.9554 -0.3049
33.0000 -21.9687 -0.3041
33.0200 -21.9821 -0.3049
33.0400 -21.9954 -0.3054
33.0600 -22.0088 -0.3033
33.0800 -22.0221 -0.3018
33.1000 -22.0354 -0.3007
33.1200 -22.0487 -0.2999
33.1400 -22.0621 -0.3005
33.1600 -22.0754 -0.3011
33.1800 -22.0888 -0.2996
33.2000 -22.1021 -0.3005
33.2200 -22.1154 -0.3008
33.2400 -22.1288 -0.2969
33.2600 -22.1421 -0.2973
33.2800 -22.1554 -0.2965
33.3000 -22.1687 -0.2959
33.3200 -22.1820 -0.2967
33.3400 -22.1953 -0.2970
33.3600 -22.2086 -0.2931
33.3800 -22.2220 -0.2962
33.4000 -22.2354 -0.2940
33.4200 -22.2488 -0.2927
33.4400 -22.2621 -0.2930
33.4600 -22.2754 -0.2930
33.4800 -22.2888 -0.2909
33.5000 -22.3021 -0.2893
33.5200 -22.3155 -0.2901
33.5400 -22.3288 -0.2871
33.5600 -22.3421 -0.2886
33.5800 -22.3554 -0.2861
33.6000 -22.3687 -0.2876
33.6200 -22.3821 -0.2863
33.6400 -22.3954 -0.2879
33.6600 -22.4087 -0.2859
33.6800 -22.4220 -0.2851
33.7000 -22.4354 -0.2835
33.7200 -22.4487 -0.2794
33.7400 -22.4620 -0.2814
33.7600 -22.4754 -0.2791
33.7800 -22.4888 -0.2775
33.8000 -22.5021 -0.2787
33.8200 -22.5154 -0.2797
33.8400 -22.5287 -0.2780
33.8600 -22.5421 -0.2768
33.8800 -22.5554 -0.2776
33.9000 -22.5687 -0.2760
33.9200 -22.5820 -0.2747
33.9400 -22.5954 -0.2743
33.9600 -22.6088 -0.2718
33.9800 -22.6221 -0.2728
34.0000 -22.6354 -0.2736
34.0200 -22.6487 -0.2709
34.0400 -22.6620 -0.2734
34.0600 -22.6754 -0.2715
34.0800 -22.6887 -0.2694
34.1000 -22.7020 -0.2678
34.1200 -22.7154 -0.2679
34.1400 -22.7287 -0.2643
34.1600 -22.7421 -0.2652
34.1800 -22.7554 -0.2639
34.2000 -22.7688 -0.2621
34.2200 -22.7821 -0.2608
34.2400 -22.7955 -0.2605
34.2600 -22.8088 -0.2552
34.2800 -22.8221 -0.2536
34.3000 -22.8354 -0.2544
34.3200 -22.8488 -0.2513
34.3400 -22.8621 -0.2523
34.3600 -22.8754 -0.2529
34.3800 -22.8887 -0.2514
34.4000 -22.9020 -0.2550
34.4200 -22.9154 -0.2529
34.4400 -22.9287 -0.2506
34.4600 -22.9420 -0.2507
34.4800 -22.9554 -0.2520
34.5000 -22.9688 -0.2493
34.5200 -22.9821 -0.2525
34.5400 -22.9955 -0.2508
34.5600 -23.0088 -0.2495
34.5800 -23.0221 -0.2507
34.6000 -23.0355 -0.2519
34.6200 -23.0488 -0.2498
34.6400 -23.0621 -0.2499
34.6600 -23.0754 -0.2492
34.6800 -23.0887 -0.2472
34.7000 -23.1021 -0.2459
34.7200 -23.1154 -0.2475
34.7400 -23.1287 -0.2471
34.7600 -23.1420 -0.2461
34.7800 -23.1554 -0.2460
34.8000 -23.1687 -0.2425
34.8200 -23.1820 -0.2454
34.8400 -23.1954 -0.2447
34.8600 -23.2087 -0.2421
34.8800 -23.2221 -0.2418
34.9000 -23.2354 -0.2427
34.9200 -23.2487 -0.2405
34.9400 -23.2621 -0.2428
34.9600 -23.2754 -0.2432
34.9800 -23.2888 -0.2395
35.0000 -23.3021 -0.2403
35.0200 -23.3154 -0.2400
35.0400 -23.3288 -0.2388
35.0600 -23.3421 -0.2374
35.0800 -23.3554 -0.2393
35.1000 -23.3687 -0.2360
35.1200 -23.3820 -0.2353
35.1400 -23.3954 -0.2362
35.1600 -23.4087 -0.2344
35.1800 -23.4220 -0.2343
35.2000 -23.4353 -0.2346
35.2200 -23.4487 -0.2353
35.2400 -23.4621 -0.2325
35.2600 -23.4754 -0.2335
35.2800 -23.4887 -0.2308
35.3000 -23.5021 -0.2321
35.3200 -23.5155 -0.2317
35.3400 -23.5288 -0.2306
35.3600 -23.5421 -0.2316
35.3800 -23.5554 -0.2316
35.4000 -23.5688 -0.2276
35.4200 -23.5821 -0.2289
35.4400 -23.5954 -0.2296
35.4600 -23.6087 -0.2283
35.4800 -23.6220 -0.2292
35.5000 -23.6354 -0.2292
35.5200 -23.6487 -0.2260
35.5400 -23.6620 -0.2259
35.5600 -23.6754 -0.2257
35.5800 -23.6887 -0.2246
35.6000 -23.7021 -0.2226
35.6200 -23.7155 -0.2265
35.6400 -23.7288 -0.2222
35.6600 -23.7421 -0.2229
35.6800 -23.7555 -0.2232
35.7000 -23.7688 -0.2197
35.7200 -23.7821 -0.2178
35.7400 -23.7954 -0.2173
35.7600 -23.8087 -0.2133
35.7800 -23.8220 -0.2156
35.8000 -23.8353 -0.2148
35.8200 -23.8486 -0.2136
35.8400 -23.8620 -0.2128
35.8600 -23.8754 -0.2157
35.8800 -23.8887 -0.2126
35.9000 -23.9021 -0.2119
35.9200 -23.9154 -0.2140
35.9400 -23.9288 -0.2108
35.9600 -23.9421 -0.2112
35.9800 -23.9555 -0.2106
36.0000 -23.9687 -0.2099
36.0200 -23.9821 -0.2080
36.0400 -23.9955 -0.2104
36.0600 -24.0088 -0.2096
36.0800 -24.0221 -0.2105
36.1000 -24.0354 -0.2095
36.1200 -24.0488 -0.2068
36.1400 -24.0621 -0.2055
36.1600 -24.0754 -0.2090
36.1800 -24.0887 -0.2052
36.2000 -24.1020 -0.2080
36.2200 -24.1154 -0.2075
36.2400 -24.1287 -0.2074
36.2600 -24.1420 -0.2045
36.2800 -24.1553 -0.2077
36.3000 -24.1687 -0.2049
36.3200 -24.1821 -0.2063
36.3400 -24.1954 -0.2063
36.3600 -24.2087 -0.2049
36.3800 -24.2221 -0.2015
36.4000 -24.2354 -0.2029
36.4200 -24.2488 -0.2001
36.4400 -24.2621 -0.2010
36.4600 -24.2754 -0.2013
36.4800 -24.2887 -0.2024
36.5000 -24.3021 -0.1997
36.5200 -24.3154 -0.2005
36.5400 -24.3287 -0.1990
36.5600 -24.3420 -0.1987
36.5800 -24.3554 -0.2008
36.6000 -24.3687 -0.1973
36.6200 -24.3821 -0.1967
36.6400 -24.3954 -0.1982
36.6600 -24.4087 -0.1971
36.6800 -24.4221 -0.1929
36.7000 -24.4355 -0.1951
36.7200 -24.4488 -0.1947
36.7400 -24.4621 -0.1952
36.7600 -24.4754 -0.1965
36.7800 -24.4888 -0.1922
36.8000 -24.5021 -0.1932
36.8200 -24.5154 -0.1937
36.8400 -24.5287 -0.1935
36.8600 -24.5421 -0.1902
36.8800 -24.5554 -0.1913
36.9000 -24.5687 -0.1912
36.9200 -24.5820 -0.1902
36.9400 -24.5954 -0.1916
36.9600 -24.6088 -0.1879
36.9800 -24.6221 -0.1872
37.0000 -24.6354 -0.1881
37.0200 -24.6488 -0.1870
37.0400 -24.6622 -0.1857
37.0600 -24.6755 -0.1871
37.0800 -24.6888 -0.1852
37.1000 -24.7021 -0.1848
37.1200 -24.7155 -0.1847
37.1400 -24.7288 -0.1848
37.1600 -24.7421 -0.1824
37.1800 -24.7554 -0.1846
37.2000 -24.7687 -0.1837
37.2200 -24.7821 -0.1821
37.2400 -24.7954 -0.1827
37.2600 -24.8087 -0.1812
37.2800 -24.8220 -0.1802
37.3000 -24.8353 -0.1814
37.3200 -24.8487 -0.1793
37.3400 -24.8620 -0.1782
37.3600 -24.8753 -0.1802
37.3800 -24.8887 -0.1784
37.4000 -24.9021 -0.1774
37.4200 -24.9155 -0.1774
37.4400 -24.9288 -0.1763
37.4600 -24.9421 -0.1762
37.4800 -24.9554 -0.1773
37.5000 -24.9688 -0.1763
37.5200 -24.9821 -0.1724
37.5400 -24.9954 -0.1753
37.5600 -25.0087 -0.1730
37.5800 -25.0221 -0.1730
37.6000 -25.0354 -0.1734
37.6200 -25.0487 -0.1736
37.6400 -25.0620 -0.1715
37.6600 -25.0753 -0.1727
37.6800 -25.0887 -0.1706
37.7000 -25.1020 -0.1690
37.7200 -25.1154 -0.1726
37.7400 -25.1288 -0.1710
37.7600 -25.1421 -0.1707
37.7800 -25.1555 -0.1711
37.8000 -25.1688 -0.1701
37.8200 -25.1821 -0.1664
37.8400 -25.1954 -0.1696
37.8600 -25.2088 -0.1690
37.8800 -25.2221 -0.1671
37.9000 -25.2354 -0.1692
37.9200 -25.2487 -0.1687
37.9400 -25.2621 -0.1684
37.9600 -25.2754 -0.1665
37.9800 -25.2887 -0.1668
38.0000 -25.3020 -0.1630
38.0200 -25.3154 -0.1663
38.0400 -25.3287 -0.1633
38.0600 -25.3421 -0.1641
38.0800 -25.3554 -0.1653
38.1000 -25.3688 -0.1659
38.1200 -25.3821 -0.1618
38.1400 -25.3954 -0.1641
38.1600 -25.4087 -0.1618
38.1800 -25.4220 -0.1596
38.2000 -25.4354 -0.1618
38.2200 -25.4488 -0.1628
38.2400 -25.4621 -0.1590
38.2600 -25.4754 -0.1604
38.2800 -25.4887 -0.1578
38.3000 -25.5020 -0.1565
38.3200 -25.5154 -0.1583
38.3400 -25.5287 -0.1577
38.3600 -25.5420 -0.1568
38.3800 -25.5554 -0.1593
38.4000 -25.5687 -0.1563
38.4200 -25.5820 -0.1559
38.4400 -25.5954 -0.1563
38.4600 -25.6087 -0.1571
38.4800 -25.6221 -0.1526
38.5000 -25.6355 -0.1547
38.5200 -25.6488 -0.1544
38.5400 -25.6621 -0.1531
38.5600 -25.6754 -0.1536
38.5800 -25.6888 -0.1548
38.6000 -25.7021 -0.1509
38.6200 -25.7154 -0.1530
38.6400 -25.7287 -0.1522
38.6600 -25.7420 -0.1502
38.6800 -25.7554 -0.1496
38.7000 -25.7687 -0.1492
38.7200 -25.7820 -0.1490
38.7400 -25.7953 -0.1512
38.7600 -25.8087 -0.1486
38.7800 -25.8221 -0.1467
38.8000 -25.8354 -0.1475
38.8200 -25.8487 -0.1469
38.8400 -25.8621 -0.1448
38.8600 -25.8755 -0.1477
38.8800 -25.8888 -0.1474
38.9000 -25.9021 -0.1443
38.9200 -25.9154 -0.1454
38.9400 -25.9288 -0.1431
38.9600 -25.9421 -0.1414
38.9800 -25.9554 -0.1420
39.0000 -25.9687 -0.1435
39.0200 -25.9821 -0.1409
39.0400 -25.9954 -0.1410
39.0600 -26.0087 -0.1418
39.0800 -26.0220 -0.1379
39.1000 -26.0354 -0.1398
39.1200 -26.0487 -0.1408
39.1400 -26.0621 -0.1376
39.1600 -26.0754 -0.1402
39.1800 -26.0887 -0.1390
39.2000 -26.1021 -0.1371
39.2200 -26.1154 -0.1350
39.2400 -26.1288 -0.1380
39.2600 -26.1421 -0.1357
39.2800 -26.1554 -0.1366
39.3000 -26.1688 -0.1374
39.3200 -26.1821 -0.1333
39.3400 -26.1954 -0.1343
39.3600 -26.2088 -0.1356
39.3800 -26.2221 -0.1333
39.4000 -26.2355 -0.1350
39.4200 -26.2487 -0.1343
39.4400 -26.2620 -0.1345
39.4600 -26.2754 -0.1343
39.4800 -26.2887 -0.1347
39.5000 -26.3021 -0.1326
39.5200 -26.3154 -0.1338
39.5400 -26.3287 -0.1333
39.5600 -26.3421 -0.1314
39.5800 -26.3555 -0.1309
39.6000 -26.3688 -0.1327
39.6200 -26.3821 -0.1273
39.6400 -26.3954 -0.1315
39.6600 -26.4087 -0.1305
39.6800 -26.4221 -0.1294
39.7000 -26.4354 -0.1293
39.7200 -26.4487 -0.1295
39.7400 -26.4621 -0.1252
39.7600 -26.4754 -0.1271
39.7800 -26.4887 -0.1285
39.8000 -26.5020 -0.1275
39.8200 -26.5154 -0.1274
39.8400 -26.5287 -0.1273
39.8600 -26.5421 -0.1272
39.8800 -26.5554 -0.1257
39.9000 -26.5687 -0.1260
39.9200 -26.5821 -0.1208
39.9400 -26.5955 -0.1241
39.9600 -26.6088 -0.1245
39.9800 -26.6221 -0.1226
40.0000 -26.6354 -0.1216
40.0200 -26.6488 -0.1237
40.0400 -26.6621 -0.1188
40.0600 -26.6754 -0.1231
40.0800 -26.6887 -0.1219
40.1000 -26.7020 -0.1201
40.1200 -26.7154 -0.1182
40.1400 -26.7287 -0.1214
40.1600 -26.7420 -0.1168
40.1800 -26.7553 -0.1200
40.2000 -26.7687 -0.1196
40.2200 -26.7821 -0.1164
40.2400 -26.7954 -0.1164
40.2600 -26.8087 -0.1164
40.2800 -26.8221 -0.1160
40.3000 -26.8354 -0.1165
40.3200 -26.8488 -0.1186
40.3400 -26.8621 -0.1146
40.3600 -26.8754 -0.1147
40.3800 -26.8888 -0.1153
40.4000 -26.9021 -0.1119
40.4200 -26.9154 -0.1133
40.4400 -26.9287 -0.1124
40.4600 -26.9421 -0.1090
40.4800 -26.9554 -0.1082
40.5000 -26.9687 -0.1109
40.5200 -26.9820 -0.1086
40.5400 -26.9953 -0.1106
40.5600 -27.0087 -0.1081
40.5800 -27.0220 -0.1060
40.6000 -27.0353 -0.1057
40.6200 -27.0487 -0.1081
40.6400 -27.0620 -0.1069
40.6600 -27.0754 -0.1074
40.6800 -27.0888 -0.1076
40.7000 -27.1021 -0.1054
40.7200 -27.1154 -0.1076
40.7400 -27.1288 -0.1065
40.7600 -27.1421 -0.1048
40.7800 -27.1554 -0.1052
40.8000 -27.1687 -0.1057
40.8200 -27.1821 -0.1016
40.8400 -27.1954 -0.1013
40.8600 -27.2087 -0.1020
40.8800 -27.2220 -0.1000
40.9000 -27.2354 -0.0992
40.9200 -27.2487 -0.1022
40.9400 -27.2621 -0.0996
40.9600 -27.2754 -0.1006
40.9800 -27.2887 -0.1006
41.0000 -27.3021 -0.0979
41.0200 -27.3155 -0.0985
41.0400 -27.3288 -0.0988
41.0600 -27.3421 -0.0975
41.0800 -27.3554 -0.0974
41.1000 -27.3687 -0.0996
41.1200 -27.3821 -0.0941
41.1400 -27.3954 -0.0966
41.1600 -27.4087 -0.0943
41.1800 -27.4221 -0.0935
41.2000 -27.4354 -0.0924
41.2200 -27.4487 -0.0965
41.2400 -27.4620 -0.0924
41.2600 -27.4753 -0.0928
41.2800 -27.4887 -0.0923
41.3000 -27.5021 -0.0899
41.3200 -27.5154 -0.0931
41.3400 -27.5287 -0.0926
41.3600 -27.5421 -0.0911
41.3800 -27.5554 -0.0918
41.4000 -27.5688 -0.0918
41.4200 -27.5821 -0.0888
41.4400 -27.5954 -0.0886
41.4600 -27.6088 -0.0896
41.4800 -27.6221 -0.0886
41.5000 -27.6354 -0.0886
41.5200 -27.6487 -0.0905
41.5400 -27.6621 -0.0860
41.5600 -27.6754 -0.0871
41.5800 -27.6887 -0.0889
41.6000 -27.7020 -0.0874
41.6200 -27.7153 -0.0883
41.6400 -27.7287 -0.0870
41.6600 -27.7420 -0.0841
41.6800 -27.7554 -0.0855
41.7000 -27.7687 -0.0876
41.7200 -27.7820 -0.0844
41.7400 -27.7955 -0.0840
41.7600 -27.8088 -0.0845
41.7800 -27.8221 -0.0855
41.8000 -27.8354 -0.0836
41.8200 -27.8488 -0.0837
41.8400 -27.8621 -0.0821
41.8600 -27.8754 -0.0819
41.8800 -27.8887 -0.0826
41.9000 -27.9021 -0.0805
41.9200 -27.9154 -0.0817
41.9400 -27.9287 -0.0817
41.9600 -27.9420 -0.0821
41.9800 -27.9554 -0.0801
42.0000 -27.9687 -0.0817
42.0200 -27.9821 -0.0797
42.0400 -27.9954 -0.0794
42.0600 -28.0087 -0.0797
42.0800 -28.0220 -0.0758
42.1000 -28.0354 -0.0751
42.1200 -28.0488 -0.0776
42.1400 -28.0621 -0.0755
42.1600 -28.0754 -0.0767
42.1800 -28.0888 -0.0760
42.2000 -28.1021 -0.0735
42.2200 -28.1155 -0.0726
42.2400 -28.1288 -0.0751
42.2600 -28.1421 -0.0725
42.2800 -28.1554 -0.0728
42.3000 -28.1687 -0.0722
42.3200 -28.1820 -0.0713
42.3400 -28.1953 -0.0701
42.3600 -28.2087 -0.0716
42.3800 -28.2221 -0.0709
42.4000 -28.2354 -0.0721
42.4200 -28.2487 -0.0717
42.4400 -28.2620 -0.0703
42.4600 -28.2754 -0.0693
42.4800 -28.2888 -0.0708
42.5000 -28.3021 -0.0664
42.5200 -28.3154 -0.0667
42.5400 -28.3287 -0.0683
42.5600 -28.3421 -0.0668
42.5800 -28.3554 -0.0658
42.6000 -28.3688 -0.0677
42.6200 -28.3821 -0.0642
42.6400 -28.3954 -0.0635
42.6600 -28.4088 -0.0646
42.6800 -28.4220 -0.0635
42.7000 -28.4353 -0.0638
42.7200 -28.4487 -0.0642
42.7400 -28.4620 -0.0626
42.7600 -28.4754 -0.0629
42.7800 -28.4887 -0.0629
42.8000 -28.5020 -0.0605
42.8200 -28.5154 -0.0605
42.8400 -28.5288 -0.0614
42.8600 -28.5421 -0.0614
42.8800 -28.5554 -0.0588
42.9000 -28.5688 -0.0600
42.9200 -28.5821 -0.0561
42.9400 -28.5955 -0.0572
42.9600 -28.6087 -0.0576
42.9800 -28.6220 -0.0595
43.0000 -28.6354 -0.0568
43.0200 -28.6487 -0.0573
43.0400 -28.6620 -0.0557
43.0600 -28.6753 -0.0562
43.0800 -28.6887 -0.0563
43.1000 -28.7021 -0.0554
43.1200 -28.7154 -0.0549
43.1400 -28.7287 -0.0561
43.1600 -28.7421 -0.0539
43.1800 -28.7554 -0.0553
43.2000 -28.7688 -0.0539
43.2200 -28.7821 -0.0532
43.2400 -28.7954 -0.0522
43.2600 -28.8088 -0.0536
43.2800 -28.8221 -0.0509
43.3000 -28.8355 -0.0524
43.3200 -28.8488 -0.0537
43.3400 -28.8621 -0.0536
43.3600 -28.8754 -0.0507
43.3800 -28.8888 -0.0518
43.4000 -28.9021 -0.0505
43.4200 -28.9154 -0.0486
43.4400 -28.9287 -0.0512
43.4600 -28.9420 -0.0492
43.4800 -28.9553 -0.0501
43.5000 -28.9687 -0.0499
43.5200 -28.9820 -0.0470
43.5400 -28.9954 -0.0498
43.5600 -29.0088 -0.0485
43.5800 -29.0221 -0.0471
43.6000 -29.0354 -0.0468
43.6200 -29.0488 -0.0463
43.6400 -29.0621 -0.0461
43.6600 -29.0755 -0.0447
43.6800 -29.0888 -0.0465
43.7000 -29.1021 -0.0463
43.7200 -29.1154 -0.0463
43.7400 -29.1287 -0.0456
43.7600 -29.1420 -0.0430
43.7800 -29.1553 -0.0437
43.8000 -29.1687 -0.0436
43.8200 -29.1821 -0.0435
43.8400 -29.1954 -0.0438
43.8600 -29.2087 -0.0429
43.8800 -29.2221 -0.0438
43.9000 -29.2354 -0.0389
43.9200 -29.2488 -0.0420
43.9400 -29.2621 -0.0396
43.9600 -29.2754 -0.0406
43.9800 -29.2887 -0.0409
44.0000 -29.3021 -0.0408
44.0200 -29.3154 -0.0383
44.0400 -29.3287 -0.0383
44.0600 -29.3420 -0.0378
44.0800 -29.3554 -0.0366
44.1000 -29.3687 -0.0370
44.1200 -29.3820 -0.0383
44.1400 -29.3953 -0.0365
44.1600 -29.4087 -0.0372
44.1800 -29.4221 -0.0357
44.2000 -29.4354 -0.0344
44.2200 -29.4487 -0.0352
44.2400 -29.4621 -0.0344
44.2600 -29.4754 -0.0338
44.2800 -29.4888 -0.0352
44.3000 -29.5021 -0.0329
44.3200 -29.5154 -0.0333
44.3400 -29.5288 -0.0324
44.3600 -29.5421 -0.0317
44.3800 -29.5555 -0.0332
44.4000 -29.5688 -0.0338
44.4200 -29.5821 -0.0333
44.4400 -29.5954 -0.0333
44.4600 -29.6087 -0.0321
44.4800 -29.6220 -0.0306
44.5000 -29.6353 -0.0311
44.5200 -29.6486 -0.0281
44.5400 -29.6620 -0.0277
44.5600 -29.6754 -0.0271
44.5800 -29.6887 -0.0277
44.6000 -29.7020 -0.0281
44.6200 -29.7154 -0.0293
44.6400 -29.7288 -0.0260
44.6600 -29.7421 -0.0268
44.6800 -29.7554 -0.0234
44.7000 -29.7688 -0.0231
44.7200 -29.7821 -0.0232
44.7400 -29.7955 -0.0236
44.7600 -29.8088 -0.0239
44.7800 -29.8221 -0.0214
44.8000 -29.8354 -0.0222
44.8200 -29.8487 -0.0210
44.8400 -29.8620 -0.0205
44.8600 -29.8753 -0.0199
44.8800 -29.8886 -0.0203
44.9000 -29.9020 -0.0207
44.9200 -29.9153 -0.0195
44.9400 -29.9287 -0.0180
44.9600 -29.9420 -0.0195
44.9800 -29.9554 -0.0189
45.0000 -29.9688 -0.0179
45.0200 -29.9821 -0.0187
45.0400 -29.9954 -0.0159
45.0600 -30.0088 -0.0182
45.0800 -30.0221 -0.0163
45.1000 -30.0355 -0.0152
45.1200 -30.0488 -0.0122
45.1400 -30.0621 -0.0141
45.1600 -30.0754 -0.0142
45.1800 -30.0887 -0.0149
45.2000 -30.1020 -0.0147
45.2200 -30.1153 -0.0137
45.2400 -30.1287 -0.0113
45.2600 -30.1420 -0.0116
45.2800 -30.1554 -0.0099
45.3000 -30.1687 -0.0108
45.3200 -30.1821 -0.0094
45.3400 -30.1954 -0.0100
45.3600 -30.2088 -0.0099
45.3800 -30.2221 -0.0108
45.4000 -30.2354 -0.0098
45.4200 -30.2487 -0.0094
45.4400 -30.2621 -0.0083
45.4600 -30.2754 -0.0079
45.4800 -30.2888 -0.0057
45.5000 -30.3021 -0.0082
45.5200 -30.3154 -0.0060
45.5400 -30.3288 -0.0066
45.5600 -30.3421 -0.0045
45.5800 -30.3554 -0.0047
45.6000 -30.3687 -0.0042
45.6200 -30.3820 -0.0055
45.6400 -30.3954 -0.0037
45.6600 -30.4087 -0.0040
45.6800 -30.4220 -0.0046
45.7000 -30.4354 -0.0037
45.7200 -30.4488 -0.0035
45.7400 -30.4621 -0.0018
45.7600 -30.4754 -0.0015
45.7800 -30.4888 -0.0025
45.8000 -30.5021 -0.0033
45.8200 -30.5155 -0.0026
45.8400 -30.5288 -0.0015
45.8600 -30.5421 -0.0005
45.8800 -30.5554 0.0014
45.9000 -30.5687 0.0009
45.9200 -30.5820 0.0000
45.9400 -30.5953 0.0012
45.9600 -30.6086 -0.0005
45.9800 -30.6220 0.0005
46.0000 -30.6354 0.0007
46.0200 -30.6487 0.0028
46.0400 -30.6620 0.0010
46.0600 -30.6754 0.0045
46.0800 -30.6888 0.0038
46.1000 -30.7021 0.0019
46.1200 -30.7154 0.0034
46.1400 -30.7287 0.0025
46.1600 -30.7421 0.0049
46.1800 -30.7555 0.0033
46.2000 -30.7688 0.0052
46.2200 -30.7821 0.0053
46.2400 -30.7954 0.0057
46.2600 -30.8088 0.0052
46.2800 -30.8221 0.0067
46.3000 -30.8354 0.0058
46.3200 -30.8487 0.0092
46.3400 -30.8620 0.0072
46.3600 -30.8754 0.0098
46.3800 -30.8887 0.0109
46.4000 -30.9020 0.0120
46.4200 -30.9154 0.0116
46.4400 -30.9288 0.0106
46.4600 -30.9421 0.0108
46.4800 -30.9554 0.0096
46.5000 -30.9687 0.0131
46.5200 -30.9821 0.0102
46.5400 -30.9954 0.0121
46.5600 -31.0088 0.0110
46.5800 -31.0221 0.0122
46.6000 -31.0354 0.0117
46.6200 -31.0488 0.0141
46.6400 -31.0621 0.0130
46.6600 -31.0754 0.0149
46.6800 -31.0887 0.0144
46.7000 -31.1020 0.0167
46.7200 -31.1154 0.0146
46.7400 -31.1287 0.0167
46.7600 -31.1421 0.0165
46.7800 -31.1554 0.0177
46.8000 -31.1688 0.0174
46.8200 -31.1821 0.0176
46.8400 -31.1954 0.0185
46.8600 -31.2087 0.0227
46.8800 -31.2221 0.0184
46.9000 -31.2354 0.0202
46.9200 -31.2487 0.0201
46.9400 -31.2620 0.0204
46.9600 -31.2754 0.0202
46.9800 -31.2887 0.0219
47.0000 -31.3020 0.0212
47.0200 -31.3153 0.0218
47.0400 -31.3287 0.0227
47.0600 -31.3420 0.0224
47.0800 -31.3554 0.0228
47.1000 -31.3688 0.0234
47.1200 -31.3821 0.0222
47.1400 -31.3954 0.0248
47.1600 -31.4088 0.0248
47.1800 -31.4221 0.0267
47.2000 -31.4354 0.0234
47.2200 -31.4487 0.0240
47.2400 -31.4621 0.0228
47.2600 -31.4754 0.0255
47.2800 -31.4887 0.0266
47.3000 -31.5020 0.0259
47.3200 -31.5154 0.0247
47.3400 -31.5287 0.0271
47.3600 -31.5420 0.0270
47.3800 -31.5553 0.0268
47.4000 -31.5687 0.0281
47.4200 -31.5820 0.0276
47.4400 -31.5954 0.0313
47.4600 -31.6087 0.0305
47.4800 -31.6220 0.0323
47.5000 -31.6354 0.0299
47.5200 -31.6488 0.0310
47.5400 -31.6621 0.0313
47.5600 -31.6754 0.0329
47.5800 -31.6887 0.0330
47.6000 -31.7021 0.0352
47.6200 -31.7154 0.0343
47.6400 -31.7288 0.0358
47.6600 -31.7421 0.0337
47.6800 -31.7554 0.0353
47.7000 -31.7688 0.0377
47.7200 -31.7821 0.0375
47.7400 -31.7954 0.0352
47.7600 -31.8087 0.0374
47.7800 -31.8220 0.0386
47.8000 -31.8353 0.0386
47.8200 -31.8487 0.0390
47.8400 -31.8620 0.0377
47.8600 -31.8753 0.0387
47.8800 -31.8887 0.0415
47.9000 -31.9021 0.0418
47.9200 -31.9154 0.0426
47.9400 -31.9287 0.0444
47.9600 -31.9421 0.0429
47.9800 -31.9555 0.0427
48.0000 -31.9688 0.0430
48.0200 -31.9821 0.0433
48.0400 -31.9954 0.0435
48.0600 -32.0087 0.0445
48.0800 -32.0221 0.0462
48.1000 -32.0354 0.0430
48.1200 -32.0487 0.0459
48.1400 -32.0620 0.0464
48.1600 -32.0754 0.0472
48.1800 -32.0887 0.0484
48.2000 -32.1021 0.0457
48.2200 -32.1154 0.0468
48.2400 -32.1288 0.0482
48.2600 -32.1422 0.0486
48.2800 -32.1554 0.0489
48.3000 -32.1687 0.0473
48.3200 -32.1820 0.0467
48.3400 -32.1954 0.0490
48.3600 -32.2087 0.0498
48.3800 -32.2221 0.0507
48.4000 -32.2354 0.0467
48.4200 -32.2487 0.0486
48.4400 -32.2621 0.0493
48.4600 -32.2754 0.0534
48.4800 -32.2887 0.0528
48.5000 -32.3020 0.0532
48.5200 -32.3154 0.0522
48.5400 -32.3287 0.0539
48.5600 -32.3420 0.0546
48.5800 -32.3554 0.0547
48.6000 -32.3687 0.0554
48.6200 -32.3821 0.0560
48.6400 -32.3954 0.0565
48.6600 -32.4088 0.0572
48.6800 -32.4221 0.0592
48.7000 -32.4355 0.0581
48.7200 -32.4488 0.0577
48.7400 -32.4621 0.0607
48.7600 -32.4754 0.0593
48.7800 -32.4888 0.0588
48.8000 -32.5021 0.0604
48.8200 -32.5154 0.0615
48.8400 -32.5286 0.0620
48.8600 -32.5420 0.0614
48.8800 -32.5554 0.0608
48.9000 -32.5687 0.0628
48.9200 -32.5820 0.0615
48.9400 -32.5954 0.0613
48.9600 -32.6088 0.0659
48.9800 -32.6221 0.0644
49.0000 -32.6355 0.0645
49.0200 -32.6488 0.0656
49.0400 -32.6621 0.0648
49.0600 -32.6755 0.0643
49.0800 -32.6888 0.0674
49.1000 -32.7021 0.0678
49.1200 -32.7154 0.0689
49.1400 -32.7288 0.0685
49.1600 -32.7421 0.0712
49.1800 -32.7554 0.0688
49.2000 -32.7687 0.0697
49.2200 -32.7820 0.0703
49.2400 -32.7954 0.0688
49.2600 -32.8087 0.0697
49.2800 -32.8220 0.0706
49.3000 -32.8354 0.0715
49.3200 -32.8487 0.0706
49.3400 -32.8621 0.0716
49.3600 -32.8754 0.0692
49.3800 -32.8887 0.0728
49.4000 -32.9021 0.0741
49.4200 -32.9154 0.0730
49.4400 -32.9288 0.0730
49.4600 -32.9421 0.0720
49.4800 -32.9554 0.0733
49.5000 -32.9688 0.0762
49.5200 -32.9821 0.0748
49.5400 -32.9954 0.0733
49.5600 -33.0087 0.0733
49.5800 -33.0220 0.0777
49.6000 -33.0354 0.0782
49.6200 -33.0487 0.0773
49.6400 -33.0620 0.0778
49.6600 -33.0753 0.0755
49.6800 -33.0887 0.0761
49.7000 -33.1021 0.0795
49.7200 -33.1154 0.0782
49.7400 -33.1287 0.0800
49.7600 -33.1420 0.0800
49.7800 -33.1554 0.0802
49.8000 -33.1688 0.0792
49.8200 -33.1821 0.0821
49.8400 -33.1954 0.0805
49.8600 -33.2088 0.0815
49.8800 -33.2221 0.0824
49.9000 -33.2354 0.0822
49.9200 -33.2487 0.0812
49.9400 -33.2620 0.0838
49.9600 -33.2754 0.0837
49.9800 -33.2887 0.0849
50.0000 -33.3020 0.0857
50.0200 -33.3154 0.0832
50.0400 -33.3287 0.0863
50.0600 -33.3421 0.0871
50.0800 -33.3554 0.0896
50.1000 -33.3688 0.0889
50.1200 -33.3821 0.0894
50.1400 -33.3955 0.0887
50.1600 -33.4088 0.0904
50.1800 -33.4221 0.0903
50.2000 -33.4354 0.0909
50.2200 -33.4487 0.0896
50.2400 -33.4620 0.0910
50.2600 -33.4753 0.0917
50.2800 -33.4886 0.0911
50.3000 -33.5020 0.0919
50.3200 -33.5154 0.0916
50.3400 -33.5287 0.0914
50.3600 -33.5421 0.0930
50.3800 -33.5554 0.0939
50.4000 -33.5688 0.0957
50.4200 -33.5821 0.0949
50.4400 -33.5955 0.0938
50.4600 -33.6088 0.0916
50.4800 -33.6221 0.0946
50.5000 -33.6355 0.0931
50.5200 -33.6488 0.0963
50.5400 -33.6621 0.0945
50.5600 -33.6754 0.0967
50.5800 -33.6888 0.0957
50.6000 -33.7021 0.1000
50.6200 -33.7154 0.0991
50.6400 -33.7287 0.1002
50.6600 -33.7420 0.0990
50.6800 -33.7554 0.0995
50.7000 -33.7687 0.1005
50.7200 -33.7820 0.1014
50.7400 -33.7953 0.1025
50.7600 -33.8087 0.1007
50.7800 -33.8221 0.1026
50.8000 -33.8354 0.1022
50.8200 -33.8488 0.1022
50.8400 -33.8621 0.1046
50.8600 -33.8754 0.1025
50.8800 -33.8888 0.1039
50.9000 -33.9021 0.1042
50.9200 -33.9154 0.1056
50.9400 -33.9287 0.1048
50.9600 -33.9421 0.1075
50.9800 -33.9554 0.1038
51.0000 -33.9686 0.1061
51.0200 -33.9819 0.1085
51.0400 -33.9953 0.1088
51.0600 -34.0087 0.1084
51.0800 -34.0220 0.1080
51.1000 -34.0354 0.1075
51.1200 -34.0487 0.1086
51.1400 -34.0621 0.1099
51.1600 -34.0755 0.1104
51.1800 -34.0888 0.1099
51.2000 -34.1021 0.1093
51.2200 -34.1154 0.1123
51.2400 -34.1288 0.1103
51.2600 -34.1421 0.1113
51.2800 -34.1554 0.1103
51.3000 -34.1687 0.1098
51.3200 -34.1821 0.1131
51.3400 -34.1954 0.1114
51.3600 -34.2087 0.1109
51.3800 -34.2220 0.1142
51.4000 -34.2354 0.1143
51.4200 -34.2487 0.1149
51.4400 -34.2621 0.1174
51.4600 -34.2754 0.1150
51.4800 -34.2888 0.1152
51.5000 -34.3021 0.1161
51.5200 -34.3155 0.1178
51.5400 -34.3288 0.1145
51.5600 -34.3421 0.1168
51.5800 -34.3555 0.1171
51.6000 -34.3688 0.1189
51.6200 -34.3821 0.1177
51.6400 -34.3954 0.1177
51.6600 -34.4087 0.1197
51.6800 -34.4221 0.1200
51.7000 -34.4354 0.1198
51.7200 -34.4487 0.1183
51.7400 -34.4620 0.1225
51.7600 -34.4753 0.1204
51.7800 -34.4887 0.1192
51.8000 -34.5021 0.1192
51.8200 -34.5154 0.1219
51.8400 -34.5287 0.1201
51.8600 -34.5421 0.1234
51.8800 -34.5555 0.1219
51.9000 -34.5688 0.1244
51.9200 -34.5821 0.1239
51.9400 -34.5955 0.1243
51.9600 -34.6088 0.1237
51.9800 -34.6221 0.1262
52.0000 -34.6354 0.1271
52.0200 -34.6487 0.1280
52.0400 -34.6621 0.1282
52.0600 -34.6754 0.1308
52.0800 -34.6887 0.1274
52.1000 -34.7020 0.1286
52.1200 -34.7153 0.1295
52.1400 -34.7287 0.1277
52.1600 -34.7420 0.1282
52.1800 -34.7553 0.1297
52.2000 -34.7687 0.1291
52.2200 -34.7821 0.1307
52.2400 -34.7955 0.1344
52.2600 -34.8088 0.1340
52.2800 -34.8221 0.1355
52.3000 -34.8354 0.1336
52.3200 -34.8488 0.1323
52.3400 -34.8621 0.1330
52.3600 -34.8754 0.1344
52.3800 -34.8887 0.1338
52.4000 -34.9021 0.1375
52.4200 -34.9154 0.1352
52.4400 -34.9287 0.1358
52.4600 -34.9420 0.1378
52.4800 -34.9554 0.1404
52.5000 -34.9687 0.1387
52.5200 -34.9821 0.1402
52.5400 -34.9954 0.1424
52.5600 -35.0087 0.1417
52.5800 -35.0221 0.1438
52.6000 -35.0354 0.1453
52.6200 -35.0487 0.1444
52.6400 -35.0620 0.1466
52.6600 -35.0754 0.1408
52.6800 -35.0887 0.0910
52.7000 -35.1021 0.0388
52.7200 -35.1154 0.0126
52.7400 -35.1287 0.0069
52.7600 -35.1421 0.0096
52.7800 -35.1554 0.0108
52.8000 -35.1687 0.0093
52.8200 -35.1820 0.0100
52.8400 -35.1954 0.0118
52.8600 -35.2087 0.0072
52.8800 -35.2220 0.0105
52.9000 -35.2354 0.0092
52.9200 -35.2487 0.0086
52.9400 -35.2621 0.0088
52.9600 -35.2755 0.0094
52.9800 -35.2888 0.0069
53.0000 -35.3021 0.0092
53.0200 -35.3154 0.0073
53.0400 -35.3288 0.0092
53.0600 -35.3422 0.0095
53.0800 -35.3554 0.0091
53.1000 -35.3687 0.0069
53.1200 -35.3821 0.0068
53.1400 -35.3954 0.0081
53.1600 -35.4087 0.0077
53.1800 -35.4220 0.0087
53.2000 -35.4353 0.0096
53.2200 -35.4487 0.0060
53.2400 -35.4621 0.0092
53.2600 -35.4754 0.0104
53.2800 -35.4887 0.0103
53.3000 -35.5021 0.0073
53.3200 -35.5154 0.0111
53.3400 -35.5287 0.0074
53.3600 -35.5421 0.0091
53.3800 -35.5554 0.0107
53.4000 -35.5688 0.0115
53.4200 -35.5821 0.0130
53.4400 -35.5954 0.0146
53.4600 -35.6087 0.0109
53.4800 -35.6221 0.0127
53.5000 -35.6354 0.0160
53.5200 -35.6487 0.0134
53.5400 -35.6620 0.0134
53.5600 -35.6754 0.0143
53.5800 -35.6887 0.0119
53.6000 -35.7021 0.0152
53.6200 -35.7154 0.0149
53.6400 -35.7287 0.0135
53.6600 -35.7421 0.0115
53.6800 -35.7554 0.0157
53.7000 -35.7688 0.0145
53.7200 -35.7821 0.0168
53.7400 -35.7954 0.0152
53.7600 -35.8088 0.0138
53.7800 -35.8221 0.0106
53.8000 -35.8354 0.0149
53.8200 -35.8487 0.0117
53.8400 -35.8621 0.0141
53.8600 -35.8754 0.0148
53.8800 -35.8887 0.0160
53.9000 -35.9020 0.0158
53.9200 -35.9154 0.0161
53.9400 -35.9287 0.0150
53.9600 -35.9421 0.0167
53.9800 -35.9554 0.0172
54.0000 -35.9687 0.0137
54.0200 -35.9821 0.0178
54.0400 -35.9955 0.0173
54.0600 -36.0088 0.0180
54.0800 -36.0221 0.0151
54.1000 -36.0354 0.0186
54.1200 -36.0487 0.0148
54.1400 -36.0621 0.0172
54.1600 -36.0754 0.0155
54.1800 -36.0887 0.0173
54.2000 -36.1021 0.0135
54.2200 -36.1154 0.0167
54.2400 -36.1287 0.0170
54.2600 -36.1420 0.0175
54.2800 -36.1553 0.0203
54.3000 -36.1687 0.0179
54.3200 -36.1821 0.0186
54.3400 -36.1954 0.0175
54.3600 -36.2087 0.0168
54.3800 -36.2221 0.0171
54.4000 -36.2355 0.0182
54.4200 -36.2488 0.0171
54.4400 -36.2621 0.0169
54.4600 -36.2754 0.0199
54.4800 -36.2888 0.0187
54.5000 -36.3021 0.0207
54.5200 -36.3154 0.0192
54.5400 -36.3287 0.0191
54.5600 -36.3420 0.0182
54.5800 -36.3554 0.0228
54.6000 -36.3687 0.0192
54.6200 -36.3820 0.0203
54.6400 -36.3954 0.0197
54.6600 -36.4087 0.0202
54.6800 -36.4221 0.0195
54.7000 -36.4354 0.0229
54.7200 -36.4487 0.0216
54.7400 -36.4621 0.0217
54.7600 -36.4755 0.0225
54.7800 -36.4888 0.0203
54.8000 -36.5021 0.0229
54.8200 -36.5154 0.0246
54.8400 -36.5288 0.0208
54.8600 -36.5421 0.0222
54.8800 -36.5554 0.0247
54.9000 -36.5687 0.0211
54.9200 -36.5821 0.0252
54.9400 -36.5955 0.0253
54.9600 -36.6088 0.0257
54.9800 -36.6220 0.0249
55.0000 -36.6353 0.0264
55.0200 -36.6487 0.0254
55.0400 -36.6620 0.0273
55.0600 -36.6753 0.0294
55.0800 -36.6887 0.0274
55.1000 -36.7020 0.0275
55.1200 -36.7154 0.0287
55.1400 -36.7288 0.0279
55.1600 -36.7421 0.0290
55.1800 -36.7554 0.0303
55.2000 -36.7688 0.0298
55.2200 -36.7821 0.0286
55.2400 -36.7954 0.0298
55.2600 -36.8087 0.0296
55.2800 -36.8221 0.0320
55.3000 -36.8354 0.0325
55.3200 -36.8487 0.0305
55.3400 -36.8620 0.0293
55.3600 -36.8753 0.0323
55.3800 -36.8887 0.0301
55.4000 -36.9021 0.0306
55.4200 -36.9154 0.0312
55.4400 -36.9287 0.0322
55.4600 -36.9421 0.0315
55.4800 -36.9554 0.0328
55.5000 -36.9688 0.0320
55.5200 -36.9821 0.0317
55.5400 -36.9954 0.0341
55.5600 -37.0087 0.0323
55.5800 -37.0221 0.0326
55.6000 -37.0354 0.0327
55.6200 -37.0487 0.0320
55.6400 -37.0621 0.0341
55.6600 -37.0754 0.0343
55.6800 -37.0887 0.0329
55.7000 -37.1020 0.0329
55.7200 -37.1153 0.0339
55.7400 -37.1287 0.0309
55.7600 -37.1421 0.0337
55.7800 -37.1554 0.0338
55.8000 -37.1687 0.0346
55.8200 -37.1821 0.0345
55.8400 -37.1954 0.0379
55.8600 -37.2088 0.0335
55.8800 -37.2221 0.0363
55.9000 -37.2354 0.0344
55.9200 -37.2488 0.0354
55.9400 -37.2621 0.0371
55.9600 -37.2754 0.0384
55.9800 -37.2888 0.0355
56.0000 -37.3021 0.0358
56.0200 -37.3154 0.0396
56.0400 -37.3287 0.0379
56.0600 -37.3420 0.0378
56.0800 -37.3553 0.0411
56.1000 -37.3687 0.0380
56.1200 -37.3820 0.0382
56.1400 -37.3954 0.0405
56.1600 -37.4087 0.0391
56.1800 -37.4221 0.0391
56.2000 -37.4355 0.0420
56.2200 -37.4488 0.0394
56.2400 -37.4621 0.0399
56.2600 -37.4754 0.0391
56.2800 -37.4888 0.0397
56.3000 -37.5021 0.0392
56.3200 -37.5155 0.0405
56.3400 -37.5288 0.0391
56.3600 -37.5421 0.0401
56.3800 -37.5554 0.0414
56.4000 -37.5687 0.0394
56.4200 -37.5820 0.0416
56.4400 -37.5953 0.0417
56.4600 -37.6087 0.0405
56.4800 -37.6221 0.0407
56.5000 -37.6354 0.0439
56.5200 -37.6487 0.0416
56.5400 -37.6620 0.0419
56.5600 -37.6754 0.0437
56.5800 -37.6888 0.0425
56.6000 -37.7021 0.0411
56.6200 -37.7154 0.0453
56.6400 -37.7287 0.0429
56.6600 -37.7421 0.0433
56.6800 -37.7555 0.0437
56.7000 -37.7688 0.0436
56.7200 -37.7821 0.0439
56.7400 -37.7954 0.0448
56.7600 -37.8088 0.0424
56.7800 -37.8220 0.0461
56.8000 -37.8354 0.0470
56.8200 -37.8487 0.0463
56.8400 -37.8621 0.0447
56.8600 -37.8754 0.0477
56.8800 -37.8887 0.0465
56.9000 -37.9020 0.0459
56.9200 -37.9154 0.0477
56.9400 -37.9288 0.0464
56.9600 -37.9421 0.0450
56.9800 -37.9554 0.0492
57.0000 -37.9688 0.0442
57.0200 -37.9821 0.0456
57.0400 -37.9955 0.0460
57.0600 -38.0088 0.0485
57.0800 -38.0221 0.0471
57.1000 -38.0354 0.0484
57.1200 -38.0488 0.0463
57.1400 -38.0620 0.0470
57.1600 -38.0753 0.0485
57.1800 -38.0887 0.0489
57.2000 -38.1020 0.0497
57.2200 -38.1154 0.0522
57.2400 -38.1287 0.0495
57.2600 -38.1420 0.0493
57.2800 -38.1554 0.0493
57.3000 -38.1688 0.0493
57.3200 -38.1821 0.0514
57.3400 -38.1954 0.0537
57.3600 -38.2088 0.0519
57.3800 -38.2221 0.0498
57.4000 -38.2355 0.0521
57.4200 -38.2488 0.0534
57.4400 -38.2620 0.0533
57.4600 -38.2754 0.0532
57.4800 -38.2887 0.0529
57.5000 -38.3020 0.0545
57.5200 -38.3153 0.0582
57.5400 -38.3287 0.0573
57.5600 -38.3420 0.0574
57.5800 -38.3554 0.0575
57.6000 -38.3687 0.0576
57.6200 -38.3821 0.0563
57.6400 -38.3954 0.0606
57.6600 -38.4088 0.0587
57.6800 -38.4221 0.0551
57.7000 -38.4354 0.0563
57.7200 -38.4487 0.0554
57.7400 -38.4621 0.0542
57.7600 -38.4755 0.0584
57.7800 -38.4888 0.0575
57.8000 -38.5021 0.0584
57.8200 -38.5154 0.0599
57.8400 -38.5288 0.0579
57.8600 -38.5421 0.0572
57.8800 -38.5554 0.0599
57.9000 -38.5687 0.0580
57.9200 -38.5820 0.0579
57.9400 -38.5954 0.0593
57.9600 -38.6087 0.0593
57.9800 -38.6220 0.0586
58.0000 -38.6354 0.0616
58.0200 -38.6488 0.0620
58.0400 -38.6621 0.0612
58.0600 -38.6754 0.0628
58.0800 -38.6887 0.0629
58.1000 -38.7021 0.0616
58.1200 -38.7155 0.0643
58.1400 -38.7288 0.0642
58.1600 -38.7421 0.0637
58.1800 -38.7554 0.0642
58.2000 -38.7688 0.0646
58.2200 -38.7821 0.0622
58.2400 -38.7953 0.0653
58.2600 -38.8087 0.0655
58.2800 -38.8220 0.0646
58.3000 -38.8354 0.0651
58.3200 -38.8487 0.0626
58.3400 -38.8621 0.0635
58.3600 -38.8754 0.0661
58.3800 -38.8888 0.0636
58.4000 -38.9021 0.0646
58.4200 -38.9154 0.0657
58.4400 -38.9287 0.0671
58.4600 -38.9421 0.0664
58.4800 -38.9554 0.0654
58.5000 -38.9687 0.0641
58.5200 -38.9820 0.0634
58.5400 -38.9954 0.0659
58.5600 -39.0087 0.0663
58.5800 -39.0220 0.0651
58.6000 -39.0353 0.0667
58.6200 -39.0487 0.0662
58.6400 -39.0621 0.0644
58.6600 -39.0754 0.0670
58.6800 -39.0888 0.0654
58.7000 -39.1021 0.0672
58.7200 -39.1154 0.0671
58.7400 -39.1288 0.0678
58.7600 -39.1421 0.0652
58.7800 -39.1554 0.0681
58.8000 -39.1687 0.0692
58.8200 -39.1821 0.0680
58.8400 -39.1955 0.0693
58.8600 -39.2088 0.0712
58.8800 -39.2221 0.0701
58.9000 -39.2354 0.0729
58.9200 -39.2487 0.0724
58.9400 -39.2620 0.0719
58.9600 -39.2753 0.0710
58.9800 -39.2886 0.0745
59.0000 -39.3020 0.0717
59.0200 -39.3154 0.0741
59.0400 -39.3287 0.0747
59.0600 -39.3420 0.0723
59.0800 -39.3554 0.0747
59.1000 -39.3688 0.0752
59.1200 -39.3821 0.0734
59.1400 -39.3954 0.0780
59.1600 -39.4088 0.0770
59.1800 -39.4221 0.0772
59.2000 -39.4355 0.0754
59.2200 -39.4488 0.0763
59.2400 -39.4621 0.0743
59.2600 -39.4754 0.0784
59.2800 -39.4887 0.0794
59.3000 -39.5020 0.0767
59.3200 -39.5153 0.0759
59.3400 -39.5286 0.0769
59.3600 -39.5420 0.0771
59.3800 -39.5554 0.0791
59.4000 -39.5687 0.0788
59.4200 -39.5820 0.0799
59.4400 -39.5954 0.0792
59.4600 -39.6088 0.0801
59.4800 -39.6221 0.0781
59.5000 -39.6354 0.0813
59.5200 -39.6488 0.0808
59.5400 -39.6621 0.0802
59.5600 -39.6755 0.0794
59.5800 -39.6888 0.0819
59.6000 -39.7021 0.0802
59.6200 -39.7154 0.0832
59.6400 -39.7287 0.0838
59.6600 -39.7420 0.0822
59.6800 -39.7553 0.0843
59.7000 -39.7687 0.0836
59.7200 -39.7820 0.0852
59.7400 -39.7954 0.0841
59.7600 -39.8087 0.0867
59.7800 -39.8221 0.0835
59.8000 -39.8354 0.0869
59.8200 -39.8488 0.0865
59.8400 -39.8621 0.0845
59.8600 -39.8754 0.0846
59.8800 -39.8887 0.0876
59.9000 -39.9021 0.0844
59.9200 -39.9154 0.0888
59.9400 -39.9288 0.0896
59.9600 -39.9421 0.0900
59.9800 -39.9554 0.0893
60.0000 -39.9688 0.0922
60.0200 -39.9821 0.0896
60.0400 -39.9954 0.0935
60.0480 -40.0006 0.0976
