Raw Data
Time Displacement Force
(s) (mm) (N)
0.0000 0.0000 -0.2944
0.0200 -0.0001 -0.2957
0.0400 -0.0019 -0.3112
0.0600 -0.0092 -0.3127
0.0800 -0.0209 -0.2990
0.1000 -0.0335 -0.3038
0.1200 -0.0462 -0.3030
0.1400 -0.0596 -0.3024
0.1600 -0.0736 -0.2981
0.1800 -0.0878 -0.2991
0.2000 -0.1016 -0.2931
0.2200 -0.1152 -0.2927
0.2400 -0.1286 -0.2919
0.2600 -0.1419 -0.2884
0.2800 -0.1552 -0.2875
0.3000 -0.1685 -0.2853
0.3200 -0.1819 -0.2816
0.3400 -0.1953 -0.2786
0.3600 -0.2086 -0.2803
0.3800 -0.2219 -0.2746
0.4000 -0.2352 -0.2740
0.4200 -0.2486 -0.2697
0.4400 -0.2619 -0.2685
0.4600 -0.2753 -0.2656
0.4800 -0.2886 -0.2676
0.5000 -0.3019 -0.2610
0.5200 -0.3153 -0.2584
0.5400 -0.3287 -0.2558
0.5600 -0.3420 -0.2525
0.5800 -0.3553 -0.2504
0.6000 -0.3687 -0.2493
0.6200 -0.3820 -0.2456
0.6400 -0.3953 -0.2444
0.6600 -0.4086 -0.2419
0.6800 -0.4219 -0.2374
0.7000 -0.4353 -0.2355
0.7200 -0.4486 -0.2340
0.7400 -0.4619 -0.2314
0.7600 -0.4752 -0.2300
0.7800 -0.4886 -0.2298
0.8000 -0.5020 -0.2249
0.8200 -0.5153 -0.2236
0.8400 -0.5286 -0.2228
0.8600 -0.5420 -0.2187
0.8800 -0.5553 -0.2173
0.9000 -0.5687 -0.2169
0.9200 -0.5819 -0.2131
0.9400 -0.5953 -0.2100
0.9600 -0.6086 -0.2086
0.9800 -0.6220 -0.2061
1.0000 -0.6353 -0.2058
1.0200 -0.6486 -0.2079
1.0400 -0.6619 -0.2025
1.0600 -0.6752 -0.2004
1.0800 -0.6885 -0.1989
1.1000 -0.7018 -0.1940
1.1200 -0.7152 -0.1960
1.1400 -0.7285 -0.1934
1.1600 -0.7419 -0.1884
1.1800 -0.7552 -0.1856
1.2000 -0.7686 -0.1866
1.2200 -0.7819 -0.1834
1.2400 -0.7953 -0.1826
1.2600 -0.8087 -0.1814
1.2800 -0.8220 -0.1752
1.3000 -0.8353 -0.1749
1.3200 -0.8487 -0.1725
1.3400 -0.8620 -0.1695
1.3600 -0.8753 -0.1655
1.3800 -0.8886 -0.1669
1.4000 -0.9020 -0.1624
1.4200 -0.9153 -0.1612
1.4400 -0.9286 -0.1583
1.4600 -0.9419 -0.1555
1.4800 -0.9552 -0.1507
1.5000 -0.9685 -0.1521
1.5200 -0.9819 -0.1485
1.5400 -0.9952 -0.1455
1.5600 -1.0086 -0.1446
1.5800 -1.0219 -0.1414
1.6000 -1.0353 -0.1393
1.6200 -1.0487 -0.1394
1.6400 -1.0620 -0.1341
1.6600 -1.0753 -0.1319
1.6800 -1.0887 -0.1321
1.7000 -1.1020 -0.1278
1.7200 -1.1153 -0.1263
1.7400 -1.1286 -0.1227
1.7600 -1.1419 -0.1217
1.7800 -1.1553 -0.1190
1.8000 -1.1686 -0.1188
1.8200 -1.1819 -0.1153
1.8400 -1.1952 -0.1135
1.8600 -1.2086 -0.1148
1.8800 -1.2220 -0.1108
1.9000 -1.2353 -0.1106
1.9200 -1.2486 -0.1106
1.9400 -1.2620 -0.1090
1.9600 -1.2753 -0.1055
1.9800 -1.2887 -0.1051
2.0000 -1.3019 -0.1033
2.0200 -1.3152 -0.1021
2.0400 -1.3286 -0.1019
2.0600 -1.3420 -0.0998
2.0800 -1.3553 -0.0988
2.1000 -1.3686 -0.0990
2.1200 -1.3819 -0.0977
2.1400 -1.3953 -0.0983
2.1600 -1.4086 -0.0966
2.1800 -1.4219 -0.0938
2.2000 -1.4353 -0.0894
2.2200 -1.4486 -0.0888
2.2400 -1.4619 -0.0874
2.2600 -1.4752 -0.0878
2.2800 -1.4886 -0.0871
2.3000 -1.5019 -0.0862
2.3200 -1.5153 -0.0833
2.3400 -1.5287 -0.0818
2.3600 -1.5420 -0.0820
2.3800 -1.5553 -0.0804
2.4000 -1.5687 -0.0804
2.4200 -1.5820 -0.0769
2.4400 -1.5953 -0.0743
2.4600 -1.6086 -0.0747
2.4800 -1.6219 -0.0741
2.5000 -1.6352 -0.0729
2.5200 -1.6486 -0.0713
2.5400 -1.6618 -0.0707
2.5600 -1.6752 -0.0693
2.5800 -1.6885 -0.0681
2.6000 -1.7019 -0.0660
2.6200 -1.7153 -0.0631
2.6400 -1.7286 -0.0638
2.6600 -1.7419 -0.0618
2.6800 -1.7553 -0.0601
2.7000 -1.7687 -0.0586
2.7200 -1.7820 -0.0557
2.7400 -1.7953 -0.0543
2.7600 -1.8086 -0.0537
2.7800 -1.8220 -0.0519
2.8000 -1.8353 -0.0500
2.8200 -1.8486 -0.0504
2.8400 -1.8619 -0.0457
2.8600 -1.8753 -0.0444
2.8800 -1.8886 -0.0439
2.9000 -1.9019 -0.0398
2.9200 -1.9152 -0.0385
2.9400 -1.9286 -0.0368
2.9600 -1.9419 -0.0356
2.9800 -1.9553 -0.0316
3.0000 -1.9686 -0.0320
3.0200 -1.9819 -0.0271
3.0400 -1.9953 -0.0280
3.0600 -2.0086 -0.0270
3.0800 -2.0220 -0.0267
3.1000 -2.0353 -0.0225
3.1200 -2.0486 -0.0234
3.1400 -2.0620 -0.0184
3.1600 -2.0753 -0.0165
3.1800 -2.0886 -0.0155
3.2000 -2.1020 -0.0119
3.2200 -2.1153 -0.0073
3.2400 -2.1286 -0.0097
3.2600 -2.1419 -0.0057
3.2800 -2.1552 -0.0059
3.3000 -2.1686 -0.0034
3.3200 -2.1819 -0.0014
3.3400 -2.1953 0.0028
3.3600 -2.2086 0.0018
3.3800 -2.2219 0.0050
3.4000 -2.2353 0.0081
3.4200 -2.2487 0.0096
3.4400 -2.2620 0.0092
3.4600 -2.2753 0.0148
3.4800 -2.2886 0.0138
3.5000 -2.3020 0.0179
3.5200 -2.3153 0.0208
3.5400 -2.3286 0.0203
3.5600 -2.3419 0.0220
3.5800 -2.3553 0.0245
3.6000 -2.3686 0.0290
3.6200 -2.3819 0.0304
3.6400 -2.3952 0.0325
3.6600 -2.4086 0.0329
3.6800 -2.4219 0.0365
3.7000 -2.4353 0.0357
3.7200 -2.4486 0.0392
3.7400 -2.4619 0.0370
3.7600 -2.4753 0.0414
3.7800 -2.4887 0.0409
3.8000 -2.5020 0.0435
3.8200 -2.5153 0.0440
3.8400 -2.5286 0.0457
3.8600 -2.5420 0.0441
3.8800 -2.5553 0.0481
3.9000 -2.5686 0.0475
3.9200 -2.5819 0.0484
3.9400 -2.5953 0.0497
3.9600 -2.6086 0.0504
3.9800 -2.6219 0.0488
4.0000 -2.6352 0.0515
4.0200 -2.6486 0.0513
4.0400 -2.6619 0.0532
4.0600 -2.6753 0.0540
4.0800 -2.6886 0.0544
4.1000 -2.7019 0.0566
4.1200 -2.7153 0.0575
4.1400 -2.7287 0.0585
4.1600 -2.7420 0.0586
4.1800 -2.7553 0.0614
4.2000 -2.7686 0.0610
4.2200 -2.7820 0.0633
4.2400 -2.7953 0.0638
4.2600 -2.8086 0.0652
4.2800 -2.8220 0.0669
4.3000 -2.8353 0.0676
4.3200 -2.8487 0.0698
4.3400 -2.8619 0.0706
4.3600 -2.8752 0.0726
4.3800 -2.8885 0.0719
4.4000 -2.9019 0.0757
4.4200 -2.9152 0.0779
4.4400 -2.9285 0.0772
4.4600 -2.9419 0.0788
4.4800 -2.9553 0.0802
4.5000 -2.9687 0.0814
4.5200 -2.9820 0.0827
4.5400 -2.9953 0.0856
4.5600 -3.0086 0.0842
4.5800 -3.0220 0.0874
4.6000 -3.0354 0.0892
4.6200 -3.0487 0.0911
4.6400 -3.0619 0.0914
4.6600 -3.0753 0.0943
4.6800 -3.0886 0.0955
4.7000 -3.1019 0.0961
4.7200 -3.1152 0.1005
4.7400 -3.1286 0.1022
4.7600 -3.1420 0.1048
4.7800 -3.1553 0.1059
4.8000 -3.1686 0.1051
4.8200 -3.1820 0.1044
4.8400 -3.1953 0.1078
4.8600 -3.2087 0.1070
4.8800 -3.2220 0.1092
4.9000 -3.2353 0.1116
4.9200 -3.2486 0.1112
4.9400 -3.2619 0.1117
4.9600 -3.2753 0.1161
4.9800 -3.2886 0.1147
5.0000 -3.3019 0.1150
5.0200 -3.3153 0.1186
5.0400 -3.3286 0.1208
5.0600 -3.3419 0.1204
5.0800 -3.3552 0.1247
5.1000 -3.3686 0.1234
5.1200 -3.3819 0.1248
5.1400 -3.3953 0.1276
5.1600 -3.4086 0.1300
5.1800 -3.4219 0.1299
5.2000 -3.4353 0.1341
5.2200 -3.4487 0.1349
5.2400 -3.4620 0.1352
5.2600 -3.4753 0.1377
5.2800 -3.4886 0.1376
5.3000 -3.5020 0.1390
5.3200 -3.5153 0.1423
5.3400 -3.5286 0.1424
5.3600 -3.5420 0.1442
5.3800 -3.5553 0.1486
5.4000 -3.5686 0.1475
5.4200 -3.5819 0.1501
5.4400 -3.5952 0.1506
5.4600 -3.6085 0.1524
5.4800 -3.6219 0.1517
5.5000 -3.6353 0.1555
5.5200 -3.6486 0.1552
5.5400 -3.6619 0.1576
5.5600 -3.6753 0.1585
5.5800 -3.6887 0.1631
5.6000 -3.7020 0.1619
5.6200 -3.7153 0.1661
5.6400 -3.7287 0.1644
5.6600 -3.7420 0.1645
5.6800 -3.7554 0.1663
5.7000 -3.7687 0.1689
5.7200 -3.7820 0.1687
5.7400 -3.7953 0.1713
5.7600 -3.8086 0.1720
5.7800 -3.8219 0.1727
5.8000 -3.8352 0.1719
5.8200 -3.8485 0.1734
5.8400 -3.8619 0.1731
5.8600 -3.8753 0.1757
5.8800 -3.8886 0.1755
5.9000 -3.9019 0.1779
5.9200 -3.9153 0.1785
5.9400 -3.9286 0.1781
5.9600 -3.9420 0.1805
5.9800 -3.9553 0.1821
6.0000 -3.9686 0.1809
6.0200 -3.9820 0.1803
6.0400 -3.9954 0.1838
6.0600 -4.0087 0.1829
6.0800 -4.0220 0.1851
6.1000 -4.0353 0.1851
6.1200 -4.0487 0.1877
6.1400 -4.0620 0.1857
6.1600 -4.0753 0.1888
6.1800 -4.0886 0.1871
6.2000 -4.1019 0.1899
6.2200 -4.1153 0.1892
6.2400 -4.1286 0.1926
6.2600 -4.1419 0.1905
6.2800 -4.1552 0.1924
6.3000 -4.1686 0.1903
6.3200 -4.1820 0.1920
6.3400 -4.1953 0.1923
6.3600 -4.2086 0.1943
6.3800 -4.2220 0.1946
6.4000 -4.2353 0.1980
6.4200 -4.2487 0.1993
6.4400 -4.2620 0.1993
6.4600 -4.2753 0.2017
6.4800 -4.2886 0.2023
6.5000 -4.3020 0.2039
6.5200 -4.3152 0.2057
6.5400 -4.3285 0.2064
6.5600 -4.3419 0.2086
6.5800 -4.3553 0.2126
6.6000 -4.3686 0.2134
6.6200 -4.3819 0.2153
6.6400 -4.3952 0.2176
6.6600 -4.4086 0.2195
6.6800 -4.4220 0.2191
6.7000 -4.4353 0.2223
6.7200 -4.4487 0.2231
6.7400 -4.4620 0.2231
6.7600 -4.4753 0.2250
6.7800 -4.4887 0.2262
6.8000 -4.5019 0.2270
6.8200 -4.5152 0.2322
6.8400 -4.5286 0.2318
6.8600 -4.5419 0.2305
6.8800 -4.5552 0.2303
6.9000 -4.5685 0.2329
6.9200 -4.5819 0.2331
6.9400 -4.5953 0.2371
6.9600 -4.6086 0.2371
6.9800 -4.6219 0.2371
7.0000 -4.6353 0.2361
7.0200 -4.6487 0.2386
7.0400 -4.6620 0.2372
7.0600 -4.6753 0.2393
7.0800 -4.6886 0.2386
7.1000 -4.7020 0.2401
7.1200 -4.7153 0.2421
7.1400 -4.7287 0.2455
7.1600 -4.7420 0.2458
7.1800 -4.7553 0.2440
7.2000 -4.7686 0.2460
7.2200 -4.7820 0.2445
7.2400 -4.7953 0.2471
7.2600 -4.8086 0.2481
7.2800 -4.8219 0.2484
7.3000 -4.8353 0.2501
7.3200 -4.8486 0.2518
7.3400 -4.8619 0.2529
7.3600 -4.8752 0.2532
7.3800 -4.8886 0.2555
7.4000 -4.9020 0.2576
7.4200 -4.9153 0.2580
7.4400 -4.9286 0.2598
7.4600 -4.9420 0.2612
7.4800 -4.9553 0.2623
7.5000 -4.9687 0.2636
7.5200 -4.9820 0.2646
7.5400 -4.9953 0.2652
7.5600 -5.0086 0.2681
7.5800 -5.0220 0.2748
7.6000 -5.0352 0.2820
7.6200 -5.0485 0.2829
7.6400 -5.0619 0.2841
7.6600 -5.0753 0.2820
7.6800 -5.0886 0.2832
7.7000 -5.1019 0.2834
7.7200 -5.1153 0.2823
7.7400 -5.1286 0.2837
7.7600 -5.1420 0.2856
7.7800 -5.1553 0.2842
7.8000 -5.1686 0.2839
7.8200 -5.1820 0.2822
7.8400 -5.1953 0.2820
7.8600 -5.2086 0.2842
7.8800 -5.2219 0.2820
7.9000 -5.2353 0.2827
7.9200 -5.2486 0.2831
7.9400 -5.2619 0.2856
7.9600 -5.2752 0.2850
7.9800 -5.2885 0.2876
8.0000 -5.3019 0.2863
8.0200 -5.3153 0.2892
8.0400 -5.3286 0.2900
8.0600 -5.3420 0.2877
8.0800 -5.3553 0.2880
8.1000 -5.3687 0.2893
8.1200 -5.3820 0.2910
8.1400 -5.3953 0.2906
8.1600 -5.4086 0.2905
8.1800 -5.4220 0.2922
8.2000 -5.4353 0.2940
8.2200 -5.4487 0.2954
8.2400 -5.4620 0.2962
8.2600 -5.4753 0.2969
8.2800 -5.4886 0.2978
8.3000 -5.5019 0.2983
8.3200 -5.5152 0.3016
8.3400 -5.5285 0.3031
8.3600 -5.5419 0.3039
8.3800 -5.5552 0.3062
8.4000 -5.5686 0.3088
8.4200 -5.5819 0.3083
8.4400 -5.5952 0.3110
8.4600 -5.6086 0.3122
8.4800 -5.6220 0.3143
8.5000 -5.6354 0.3154
8.5200 -5.6487 0.3188
8.5400 -5.6620 0.3190
8.5600 -5.6753 0.3218
8.5800 -5.6887 0.3233
8.6000 -5.7020 0.3241
8.6200 -5.7153 0.3248
8.6400 -5.7286 0.3265
8.6600 -5.7419 0.3263
8.6800 -5.7552 0.3286
8.7000 -5.7685 0.3294
8.7200 -5.7819 0.3293
8.7400 -5.7952 0.3304
8.7600 -5.8086 0.3317
8.7800 -5.8219 0.3320
8.8000 -5.8352 0.3313
8.8200 -5.8486 0.3359
8.8400 -5.8620 0.3349
8.8600 -5.8754 0.3341
8.8800 -5.8887 0.3358
8.9000 -5.9020 0.3363
8.9200 -5.9154 0.3391
8.9400 -5.9287 0.3369
8.9600 -5.9420 0.3394
8.9800 -5.9553 0.3389
9.0000 -5.9686 0.3427
9.0200 -5.9819 0.3424
9.0400 -5.9952 0.3420
9.0600 -6.0085 0.3418
9.0800 -6.0219 0.3426
9.1000 -6.0353 0.3444
9.1200 -6.0487 0.3471
9.1400 -6.0620 0.3458
9.1600 -6.0753 0.3455
9.1800 -6.0886 0.3477
9.2000 -6.1020 0.3465
9.2200 -6.1153 0.3500
9.2400 -6.1286 0.3500
9.2600 -6.1419 0.3530
9.2800 -6.1553 0.3491
9.3000 -6.1686 0.3517
9.3200 -6.1820 0.3509
9.3400 -6.1953 0.3531
9.3600 -6.2086 0.3534
9.3800 -6.2220 0.3574
9.4000 -6.2353 0.3558
9.4200 -6.2486 0.3566
9.4400 -6.2619 0.3574
9.4600 -6.2753 0.3593
9.4800 -6.2886 0.3603
9.5000 -6.3019 0.3613
9.5200 -6.3153 0.3614
9.5400 -6.3286 0.3641
9.5600 -6.3420 0.3638
9.5800 -6.3554 0.3639
9.6000 -6.3686 0.3659
9.6200 -6.3820 0.3660
9.6400 -6.3953 0.3690
9.6600 -6.4087 0.3702
9.6800 -6.4220 0.3703
9.7000 -6.4353 0.3730
9.7200 -6.4486 0.3729
9.7400 -6.4619 0.3731
9.7600 -6.4752 0.3771
9.7800 -6.4885 0.3771
9.8000 -6.5019 0.3801
9.8200 -6.5152 0.3795
9.8400 -6.5286 0.3809
9.8600 -6.5419 0.3803
9.8800 -6.5553 0.3809
9.9000 -6.5686 0.3821
9.9200 -6.5820 0.3845
9.9400 -6.5953 0.3862
9.9600 -6.6086 0.3861
9.9800 -6.6220 0.3869
10.0000 -6.6353 0.3862
10.0200 -6.6487 0.3878
10.0400 -6.6620 0.3912
10.0600 -6.6753 0.3901
10.0800 -6.6886 0.3913
10.1000 -6.7020 0.3898
10.1200 -6.7153 0.3910
10.1400 -6.7286 0.3914
10.1600 -6.7419 0.3938
10.1800 -6.7552 0.3948
10.2000 -6.7686 0.3937
10.2200 -6.7819 0.3941
10.2400 -6.7952 0.3953
10.2600 -6.8086 0.3960
10.2800 -6.8220 0.3955
10.3000 -6.8353 0.3974
10.3200 -6.8486 0.3953
10.3400 -6.8620 0.3987
10.3600 -6.8753 0.3951
10.3800 -6.8887 0.3982
10.4000 -6.9020 0.3969
10.4200 -6.9153 0.3987
10.4400 -6.9286 0.3978
10.4600 -6.9420 0.3989
10.4800 -6.9553 0.3988
10.5000 -6.9686 0.3988
10.5200 -6.9819 0.3986
10.5400 -6.9952 0.3978
10.5600 -7.0086 0.3981
10.5800 -7.0219 0.3988
10.6000 -7.0353 0.4005
10.6200 -7.0486 0.4012
10.6400 -7.0620 0.4013
10.6600 -7.0753 0.4006
10.6800 -7.0886 0.4023
10.7000 -7.1019 0.4032
10.7200 -7.1153 0.4026
10.7400 -7.1286 0.4031
10.7600 -7.1420 0.4031
10.7800 -7.1553 0.4041
10.8000 -7.1686 0.4042
10.8200 -7.1819 0.4056
10.8400 -7.1952 0.4063
10.8600 -7.2085 0.4069
10.8800 -7.2219 0.4100
10.9000 -7.2353 0.4092
10.9200 -7.2486 0.4122
10.9400 -7.2620 0.4108
10.9600 -7.2753 0.4135
10.9800 -7.2886 0.4143
11.0000 -7.3020 0.4179
11.0200 -7.3153 0.4176
11.0400 -7.3286 0.4189
11.0600 -7.3420 0.4167
11.0800 -7.3553 0.4211
11.1000 -7.3686 0.4210
11.1200 -7.3820 0.4221
11.1400 -7.3953 0.4222
11.1600 -7.4086 0.4236
11.1800 -7.4219 0.4252
11.2000 -7.4353 0.4255
11.2200 -7.4486 0.4253
11.2400 -7.4619 0.4269
11.2600 -7.4752 0.4279
11.2800 -7.4886 0.4283
11.3000 -7.5019 0.4286
11.3200 -7.5153 0.4310
11.3400 -7.5286 0.4331
11.3600 -7.5420 0.4359
11.3800 -7.5553 0.4353
11.4000 -7.5687 0.4358
11.4200 -7.5820 0.4346
11.4400 -7.5953 0.4383
11.4600 -7.6087 0.4374
11.4800 -7.6220 0.4404
11.5000 -7.6353 0.4408
11.5200 -7.6487 0.4419
11.5400 -7.6620 0.4433
11.5600 -7.6753 0.4452
11.5800 -7.6886 0.4445
11.6000 -7.7019 0.4459
11.6200 -7.7152 0.4474
11.6400 -7.7286 0.4471
11.6600 -7.7419 0.4511
11.6800 -7.7552 0.4510
11.7000 -7.7686 0.4518
11.7200 -7.7820 0.4536
11.7400 -7.7953 0.4558
11.7600 -7.8087 0.4541
11.7800 -7.8220 0.4565
11.8000 -7.8353 0.4552
11.8200 -7.8487 0.4589
11.8400 -7.8620 0.4588
11.8600 -7.8753 0.4607
11.8800 -7.8886 0.4594
11.9000 -7.9019 0.4618
11.9200 -7.9153 0.4650
11.9400 -7.9286 0.4648
11.9600 -7.9419 0.4658
11.9800 -7.9552 0.4659
12.0000 -7.9686 0.4677
12.0200 -7.9820 0.4681
12.0400 -7.9953 0.4695
12.0600 -8.0086 0.4701
12.0800 -8.0220 0.4725
12.1000 -8.0354 0.4732
12.1200 -8.0487 0.4731
12.1400 -8.0619 0.4739
12.1600 -8.0753 0.4735
12.1800 -8.0886 0.4724
12.2000 -8.1020 0.4736
12.2200 -8.1153 0.4734
12.2400 -8.1286 0.4737
12.2600 -8.1420 0.4747
12.2800 -8.1553 0.4752
12.3000 -8.1686 0.4758
12.3200 -8.1819 0.4778
12.3400 -8.1952 0.4767
12.3600 -8.2086 0.4777
12.3800 -8.2219 0.4776
12.4000 -8.2353 0.4762
12.4200 -8.2486 0.4746
12.4400 -8.2620 0.4760
12.4600 -8.2753 0.4785
12.4800 -8.2886 0.4772
12.5000 -8.3020 0.4767
12.5200 -8.3153 0.4761
12.5400 -8.3287 0.4750
12.5600 -8.3420 0.4777
12.5800 -8.3553 0.4789
12.6000 -8.3686 0.4779
12.6200 -8.3819 0.4793
12.6400 -8.3953 0.4782
12.6600 -8.4086 0.4775
12.6800 -8.4219 0.4799
12.7000 -8.4352 0.4787
12.7200 -8.4486 0.4777
12.7400 -8.4619 0.4810
12.7600 -8.4752 0.4785
12.7800 -8.4886 0.4784
12.8000 -8.5019 0.4808
12.8200 -8.5153 0.4809
12.8400 -8.5286 0.4794
12.8600 -8.5419 0.4823
12.8800 -8.5553 0.4803
12.9000 -8.5687 0.4817
12.9200 -8.5820 0.4817
12.9400 -8.5953 0.4841
12.9600 -8.6086 0.4820
12.9800 -8.6220 0.4850
13.0000 -8.6353 0.4844
13.0200 -8.6486 0.4857
13.0400 -8.6619 0.4861
13.0600 -8.6752 0.4873
13.0800 -8.6886 0.4853
13.1000 -8.7019 0.4890
13.1200 -8.7152 0.4881
13.1400 -8.7286 0.4877
13.1600 -8.7419 0.4888
13.1800 -8.7553 0.4923
13.2000 -8.7687 0.4912
13.2200 -8.7820 0.4939
13.2400 -8.7953 0.4940
13.2600 -8.8087 0.4915
13.2800 -8.8220 0.4947
13.3000 -8.8353 0.4928
13.3200 -8.8487 0.4950
13.3400 -8.8620 0.4960
13.3600 -8.8753 0.4992
13.3800 -8.8886 0.4970
13.4000 -8.9019 0.5013
13.4200 -8.9152 0.4996
13.4400 -8.9286 0.5005
13.4600 -8.9419 0.5008
13.4800 -8.9552 0.5034
13.5000 -8.9686 0.5023
13.5200 -8.9819 0.5044
13.5400 -8.9953 0.5043
13.5600 -9.0086 0.5039
13.5800 -9.0219 0.5046
13.6000 -9.0353 0.5078
13.6200 -9.0486 0.5061
13.6400 -9.0620 0.5094
13.6600 -9.0753 0.5107
13.6800 -9.0886 0.5128
13.7000 -9.1020 0.5127
13.7200 -9.1153 0.5142
13.7400 -9.1286 0.5149
13.7600 -9.1419 0.5167
13.7800 -9.1552 0.5167
13.8000 -9.1686 0.5181
13.8200 -9.1819 0.5196
13.8400 -9.1952 0.5189
13.8600 -9.2085 0.5196
13.8800 -9.2219 0.5229
13.9000 -9.2353 0.5223
13.9200 -9.2487 0.5201
13.9400 -9.2620 0.5231
13.9600 -9.2753 0.5235
13.9800 -9.2887 0.5264
14.0000 -9.3020 0.5283
14.0200 -9.3153 0.5292
14.0400 -9.3286 0.5276
14.0600 -9.3419 0.5296
14.0800 -9.3552 0.5297
14.1000 -9.3686 0.5287
14.1200 -9.3819 0.5308
14.1400 -9.3952 0.5321
14.1600 -9.4086 0.5301
14.1800 -9.4219 0.5323
14.2000 -9.4353 0.5312
14.2200 -9.4486 0.5303
14.2400 -9.4620 0.5306
14.2600 -9.4753 0.5321
14.2800 -9.4887 0.5304
14.3000 -9.5020 0.5308
14.3200 -9.5153 0.5330
14.3400 -9.5287 0.5307
14.3600 -9.5420 0.5353
14.3800 -9.5553 0.5326
14.4000 -9.5687 0.5347
14.4200 -9.5820 0.5350
14.4400 -9.5953 0.5375
14.4600 -9.6086 0.5361
14.4800 -9.6219 0.5356
14.5000 -9.6352 0.5356
14.5200 -9.6486 0.5349
14.5400 -9.6619 0.5368
14.5600 -9.6752 0.5363
14.5800 -9.6885 0.5343
14.6000 -9.7019 0.5353
14.6200 -9.7153 0.5386
14.6400 -9.7287 0.5365
14.6600 -9.7420 0.5387
14.6800 -9.7553 0.5408
14.7000 -9.7686 0.5401
14.7200 -9.7820 0.5404
14.7400 -9.7953 0.5417
14.7600 -9.8086 0.5429
14.7800 -9.8219 0.5428
14.8000 -9.8353 0.5452
14.8200 -9.8486 0.5437
14.8400 -9.8619 0.5456
14.8600 -9.8752 0.5467
14.8800 -9.8886 0.5475
14.9000 -9.9019 0.5498
14.9200 -9.9153 0.5511
14.9400 -9.9286 0.5501
14.9600 -9.9419 0.5506
14.9800 -9.9553 0.5538
15.0000 -9.9687 0.5537
15.0200 -9.9820 0.5565
15.0400 -9.9953 0.5560
15.0600 -10.0086 0.5567
15.0800 -10.0220 0.5576
15.1000 -10.0353 0.5607
15.1200 -10.0486 0.5596
15.1400 -10.0619 0.5618
15.1600 -10.0753 0.5626
15.1800 -10.0886 0.5645
15.2000 -10.1019 0.5645
15.2200 -10.1152 0.5676
15.2400 -10.1286 0.5650
15.2600 -10.1420 0.5681
15.2800 -10.1553 0.5693
15.3000 -10.1686 0.5714
15.3200 -10.1820 0.5713
15.3400 -10.1953 0.5735
15.3600 -10.2087 0.5712
15.3800 -10.2220 0.5729
15.4000 -10.2353 0.5716
15.4200 -10.2486 0.5739
15.4400 -10.2620 0.5755
15.4600 -10.2753 0.5796
15.4800 -10.2886 0.5791
15.5000 -10.3019 0.5795
15.5200 -10.3153 0.5797
15.5400 -10.3286 0.5811
15.5600 -10.3419 0.5787
15.5800 -10.3552 0.5819
15.6000 -10.3686 0.5830
15.6200 -10.3819 0.5821
15.6400 -10.3953 0.5838
15.6600 -10.4086 0.5824
15.6800 -10.4219 0.5848
15.7000 -10.4353 0.5838
15.7200 -10.4487 0.5848
15.7400 -10.4620 0.5834
15.7600 -10.4753 0.5880
15.7800 -10.4887 0.5863
15.8000 -10.5020 0.5884
15.8200 -10.5153 0.5888
15.8400 -10.5286 0.5894
15.8600 -10.5419 0.5883
15.8800 -10.5553 0.5902
15.9000 -10.5686 0.5885
15.9200 -10.5819 0.5886
15.9400 -10.5952 0.5902
15.9600 -10.6085 0.5895
15.9800 -10.6219 0.5895
16.0000 -10.6352 0.5917
16.0200 -10.6486 0.5914
16.0400 -10.6619 0.5910
16.0600 -10.6753 0.5906
16.0800 -10.6887 0.5913
16.1000 -10.7020 0.5902
16.1200 -10.7153 0.5942
16.1400 -10.7286 0.5917
16.1600 -10.7420 0.5932
16.1800 -10.7553 0.5937
16.2000 -10.7686 0.5962
16.2200 -10.7819 0.5927
16.2400 -10.7953 0.5956
16.2600 -10.8086 0.5938
16.2800 -10.8219 0.5954
16.3000 -10.8352 0.5965
16.3200 -10.8485 0.5985
16.3400 -10.8619 0.5969
16.3600 -10.8753 0.6000
16.3800 -10.8886 0.5991
16.4000 -10.9019 0.5978
16.4200 -10.9153 0.6027
16.4400 -10.9287 0.6003
16.4600 -10.9419 0.6031
16.4800 -10.9552 0.6060
16.5000 -10.9686 0.6048
16.5200 -10.9820 0.6050
16.5400 -10.9953 0.6063
16.5600 -11.0086 0.6059
16.5800 -11.0219 0.6093
16.6000 -11.0353 0.6095
16.6200 -11.0486 0.6080
16.6400 -11.0619 0.6098
16.6600 -11.0752 0.6126
16.6800 -11.0886 0.6148
16.7000 -11.1019 0.6138
16.7200 -11.1153 0.6175
16.7400 -11.1286 0.6167
16.7600 -11.1419 0.6174
16.7800 -11.1553 0.6201
16.8000 -11.1687 0.6185
16.8200 -11.1820 0.6181
16.8400 -11.1953 0.6221
16.8600 -11.2087 0.6228
16.8800 -11.2220 0.6215
16.9000 -11.2354 0.6235
16.9200 -11.2487 0.6235
16.9400 -11.2620 0.6240
16.9600 -11.2753 0.6252
16.9800 -11.2886 0.6288
17.0000 -11.3019 0.6270
17.0200 -11.3152 0.6300
17.0400 -11.3285 0.6288
17.0600 -11.3419 0.6295
17.0800 -11.3553 0.6317
17.1000 -11.3686 0.6351
17.1200 -11.3819 0.6353
17.1400 -11.3953 0.6350
17.1600 -11.4087 0.6372
17.1800 -11.4220 0.6364
17.2000 -11.4353 0.6392
17.2200 -11.4486 0.6382
17.2400 -11.4620 0.6388
17.2600 -11.4753 0.6393
17.2800 -11.4886 0.6407
17.3000 -11.5019 0.6403
17.3200 -11.5153 0.6430
17.3400 -11.5286 0.6426
17.3600 -11.5419 0.6410
17.3800 -11.5552 0.6429
17.4000 -11.5686 0.6454
17.4200 -11.5819 0.6457
17.4400 -11.5953 0.6480
17.4600 -11.6086 0.6467
17.4800 -11.6219 0.6474
17.5000 -11.6353 0.6494
17.5200 -11.6486 0.6506
17.5400 -11.6620 0.6489
17.5600 -11.6753 0.6493
17.5800 -11.6886 0.6518
17.6000 -11.7020 0.6515
17.6200 -11.7153 0.6539
17.6400 -11.7287 0.6528
17.6600 -11.7420 0.6539
17.6800 -11.7553 0.6531
17.7000 -11.7687 0.6549
17.7200 -11.7819 0.6526
17.7400 -11.7952 0.6565
17.7600 -11.8086 0.6539
17.7800 -11.8219 0.6543
17.8000 -11.8353 0.6536
17.8200 -11.8486 0.6521
17.8400 -11.8619 0.6510
17.8600 -11.8753 0.6524
17.8800 -11.8887 0.6545
17.9000 -11.9020 0.6529
17.9200 -11.9153 0.6537
17.9400 -11.9286 0.6526
17.9600 -11.9420 0.6512
17.9800 -11.9553 0.6541
18.0000 -11.9686 0.6531
18.0200 -11.9819 0.6524
18.0400 -11.9953 0.6518
18.0600 -12.0086 0.6521
18.0800 -12.0219 0.6502
18.1000 -12.0352 0.6520
18.1200 -12.0486 0.6511
18.1400 -12.0619 0.6492
18.1600 -12.0753 0.6522
18.1800 -12.0886 0.6509
18.2000 -12.1019 0.6496
18.2200 -12.1153 0.6500
18.2400 -12.1287 0.6542
18.2600 -12.1420 0.6528
18.2800 -12.1553 0.6561
18.3000 -12.1686 0.6540
18.3200 -12.1820 0.6533
18.3400 -12.1953 0.6535
18.3600 -12.2086 0.6557
18.3800 -12.2219 0.6536
18.4000 -12.2353 0.6595
18.4200 -12.2486 0.6572
18.4400 -12.2619 0.6554
18.4600 -12.2752 0.6565
18.4800 -12.2886 0.6573
18.5000 -12.3019 0.6563
18.5200 -12.3153 0.6585
18.5400 -12.3286 0.6591
18.5600 -12.3419 0.6584
18.5800 -12.3553 0.6609
18.6000 -12.3687 0.6624
18.6200 -12.3820 0.6606
18.6400 -12.3953 0.6641
18.6600 -12.4086 0.6650
18.6800 -12.4220 0.6633
18.7000 -12.4353 0.6644
18.7200 -12.4486 0.6668
18.7400 -12.4620 0.6649
18.7600 -12.4753 0.6664
18.7800 -12.4887 0.6700
18.8000 -12.5020 0.6696
18.8200 -12.5153 0.6721
18.8400 -12.5286 0.6727
18.8600 -12.5419 0.6721
18.8800 -12.5552 0.6751
18.9000 -12.5685 0.6771
18.9200 -12.5819 0.6734
18.9400 -12.5953 0.6784
18.9600 -12.6086 0.6807
18.9800 -12.6220 0.6808
19.0000 -12.6353 0.6810
19.0200 -12.6486 0.6850
19.0400 -12.6620 0.6848
19.0600 -12.6754 0.6872
19.0800 -12.6887 0.6886
19.1000 -12.7020 0.6883
19.1200 -12.7153 0.6901
19.1400 -12.7286 0.6928
19.1600 -12.7419 0.6912
19.1800 -12.7552 0.6946
19.2000 -12.7686 0.6939
19.2200 -12.7819 0.6958
19.2400 -12.7953 0.6969
19.2600 -12.8086 0.7001
19.2800 -12.8219 0.6985
19.3000 -12.8353 0.7013
19.3200 -12.8487 0.7010
19.3400 -12.8620 0.7017
19.3600 -12.8753 0.7017
19.3800 -12.8886 0.7061
19.4000 -12.9019 0.7022
19.4200 -12.9153 0.7067
19.4400 -12.9286 0.7075
19.4600 -12.9419 0.7062
19.4800 -12.9553 0.7075
19.5000 -12.9686 0.7079
19.5200 -12.9819 0.7071
19.5400 -12.9952 0.7079
19.5600 -13.0085 0.7115
19.5800 -13.0219 0.7087
19.6000 -13.0353 0.7130
19.6200 -13.0486 0.7118
19.6400 -13.0619 0.7112
19.6600 -13.0753 0.7115
19.6800 -13.0886 0.7147
19.7000 -13.1020 0.7111
19.7200 -13.1153 0.7127
19.7400 -13.1286 0.7121
19.7600 -13.1420 0.7099
19.7800 -13.1554 0.7137
19.8000 -13.1687 0.7136
19.8200 -13.1820 0.7121
19.8400 -13.1953 0.7123
19.8600 -13.2086 0.7131
19.8800 -13.2219 0.7115
19.9000 -13.2352 0.7132
19.9200 -13.2485 0.7128
19.9400 -13.2619 0.7092
19.9600 -13.2752 0.7120
19.9800 -13.2886 0.7133
20.0000 -13.3019 0.7084
20.0200 -13.3153 0.7096
20.0400 -13.3287 0.7117
20.0600 -13.3420 0.7117
20.0800 -13.3553 0.7113
20.1000 -13.3687 0.7100
20.1200 -13.3820 0.7100
20.1400 -13.3953 0.7108
20.1600 -13.4087 0.7102
20.1800 -13.4220 0.7099
20.2000 -13.4353 0.7107
20.2200 -13.4486 0.7129
20.2400 -13.4620 0.7102
20.2600 -13.4752 0.7120
20.2800 -13.4886 0.7135
20.3000 -13.5019 0.7123
20.3200 -13.5153 0.7133
20.3400 -13.5286 0.7165
20.3600 -13.5419 0.7171
20.3800 -13.5552 0.7192
20.4000 -13.5686 0.7187
20.4200 -13.5820 0.7183
20.4400 -13.5953 0.7195
20.4600 -13.6086 0.7231
20.4800 -13.6220 0.7212
20.5000 -13.6353 0.7242
20.5200 -13.6487 0.7273
20.5400 -13.6620 0.7257
20.5600 -13.6753 0.7283
20.5800 -13.6886 0.7305
20.6000 -13.7020 0.7319
20.6200 -13.7152 0.7316
20.6400 -13.7285 0.7354
20.6600 -13.7419 0.7340
20.6800 -13.7553 0.7363
20.7000 -13.7686 0.7370
20.7200 -13.7819 0.7371
20.7400 -13.7952 0.7369
20.7600 -13.8086 0.7427
20.7800 -13.8220 0.7382
20.8000 -13.8353 0.7406
20.8200 -13.8486 0.7399
20.8400 -13.8620 0.7420
20.8600 -13.8753 0.7394
20.8800 -13.8887 0.7436
20.9000 -13.9020 0.7427
20.9200 -13.9153 0.7438
20.9400 -13.9287 0.7456
20.9600 -13.9420 0.7453
20.9800 -13.9553 0.7429
21.0000 -13.9685 0.7466
21.0200 -13.9819 0.7451
21.0400 -13.9953 0.7465
21.0600 -14.0086 0.7475
21.0800 -14.0219 0.7462
21.1000 -14.0352 0.7469
21.1200 -14.0486 0.7486
21.1400 -14.0620 0.7500
21.1600 -14.0753 0.7512
21.1800 -14.0887 0.7524
21.2000 -14.1020 0.7513
21.2200 -14.1154 0.7523
21.2400 -14.1287 0.7525
21.2600 -14.1420 0.7526
21.2800 -14.1553 0.7535
21.3000 -14.1686 0.7567
21.3200 -14.1819 0.7556
21.3400 -14.1952 0.7571
21.3600 -14.2085 0.7585
21.3800 -14.2219 0.7586
21.4000 -14.2353 0.7587
21.4200 -14.2486 0.7611
21.4400 -14.2619 0.7578
21.4600 -14.2753 0.7602
21.4800 -14.2886 0.7604
21.5000 -14.3020 0.7611
21.5200 -14.3153 0.7597
21.5400 -14.3286 0.7626
21.5600 -14.3419 0.7596
21.5800 -14.3553 0.7635
21.6000 -14.3687 0.7638
21.6200 -14.3820 0.7622
21.6400 -14.3953 0.7645
21.6600 -14.4086 0.7661
21.6800 -14.4220 0.7638
21.7000 -14.4353 0.7653
21.7200 -14.4486 0.7653
21.7400 -14.4619 0.7642
21.7600 -14.4753 0.7650
21.7800 -14.4886 0.7661
21.8000 -14.5019 0.7643
21.8200 -14.5152 0.7642
21.8400 -14.5286 0.7662
21.8600 -14.5420 0.7659
21.8800 -14.5553 0.7659
21.9000 -14.5686 0.7676
21.9200 -14.5820 0.7656
21.9400 -14.5953 0.7672
21.9600 -14.6087 0.7671
21.9800 -14.6220 0.7649
22.0000 -14.6353 0.7667
22.0200 -14.6486 0.7705
22.0400 -14.6620 0.7718
22.0600 -14.6752 0.7719
22.0800 -14.6885 0.7734
22.1000 -14.7019 0.7721
22.1200 -14.7152 0.7726
22.1400 -14.7286 0.7748
22.1600 -14.7419 0.7743
22.1800 -14.7553 0.7738
22.2000 -14.7686 0.7762
22.2200 -14.7820 0.7752
22.2400 -14.7953 0.7752
22.2600 -14.8086 0.7775
22.2800 -14.8220 0.7769
22.3000 -14.8353 0.7762
22.3200 -14.8487 0.7797
22.3400 -14.8619 0.7781
22.3600 -14.8753 0.7787
22.3800 -14.8886 0.7826
22.4000 -14.9019 0.7835
22.4200 -14.9152 0.7824
22.4400 -14.9285 0.7839
22.4600 -14.9419 0.7840
22.4800 -14.9553 0.7830
22.5000 -14.9686 0.7835
22.5200 -14.9820 0.7839
22.5400 -14.9953 0.7855
22.5600 -15.0086 0.7875
22.5800 -15.0220 0.7889
22.6000 -15.0353 0.7870
22.6200 -15.0486 0.7898
22.6400 -15.0620 0.7892
22.6600 -15.0754 0.7894
22.6800 -15.0887 0.7914
22.7000 -15.1020 0.7925
22.7200 -15.1153 0.7910
22.7400 -15.1286 0.7948
22.7600 -15.1419 0.7919
22.7800 -15.1552 0.7921
22.8000 -15.1685 0.7926
22.8200 -15.1819 0.7935
22.8400 -15.1952 0.7932
22.8600 -15.2086 0.7960
22.8800 -15.2219 0.7964
22.9000 -15.2352 0.7952
22.9200 -15.2486 0.7991
22.9400 -15.2620 0.7985
22.9600 -15.2753 0.8006
22.9800 -15.2887 0.8023
23.0000 -15.3020 0.8034
23.0200 -15.3153 0.8022
23.0400 -15.3287 0.8024
23.0600 -15.3420 0.8026
23.0800 -15.3553 0.8025
23.1000 -15.3686 0.8055
23.1200 -15.3820 0.8065
23.1400 -15.3953 0.8045
23.1600 -15.4085 0.8070
23.1800 -15.4219 0.8087
23.2000 -15.4352 0.8088
23.2200 -15.4486 0.8103
23.2400 -15.4619 0.8104
23.2600 -15.4752 0.8112
23.2800 -15.4886 0.8141
23.3000 -15.5020 0.8141
23.3200 -15.5154 0.8154
23.3400 -15.5287 0.8172
23.3600 -15.5420 0.8178
23.3800 -15.5553 0.8161
23.4000 -15.5687 0.8217
23.4200 -15.5820 0.8174
23.4400 -15.5953 0.8199
23.4600 -15.6086 0.8223
23.4800 -15.6219 0.8244
23.5000 -15.6353 0.8217
23.5200 -15.6486 0.8251
23.5400 -15.6619 0.8239
23.5600 -15.6753 0.8243
23.5800 -15.6886 0.8279
23.6000 -15.7019 0.8274
23.6200 -15.7153 0.8288
23.6400 -15.7286 0.8297
23.6600 -15.7420 0.8296
23.6800 -15.7553 0.8289
23.7000 -15.7686 0.8323
23.7200 -15.7819 0.8310
23.7400 -15.7953 0.8314
23.7600 -15.8086 0.8349
23.7800 -15.8220 0.8349
23.8000 -15.8353 0.8352
23.8200 -15.8486 0.8367
23.8400 -15.8620 0.8366
23.8600 -15.8753 0.8387
23.8800 -15.8886 0.8406
23.9000 -15.9019 0.8437
23.9200 -15.9153 0.8407
23.9400 -15.9286 0.8436
23.9600 -15.9419 0.8427
23.9800 -15.9552 0.8440
24.0000 -15.9686 0.8447
24.0200 -15.9820 0.8457
24.0400 -15.9954 0.8457
24.0600 -16.0087 0.8491
24.0800 -16.0220 0.8487
24.1000 -16.0354 0.8500
24.1200 -16.0487 0.8510
24.1400 -16.0620 0.8536
24.1600 -16.0753 0.8513
24.1800 -16.0886 0.8561
24.2000 -16.1019 0.8554
24.2200 -16.1153 0.8585
24.2400 -16.1286 0.8615
24.2600 -16.1419 0.8637
24.2800 -16.1552 0.8610
24.3000 -16.1686 0.8645
24.3200 -16.1819 0.8634
24.3400 -16.1952 0.8622
24.3600 -16.2086 0.8652
24.3800 -16.2220 0.8649
24.4000 -16.2353 0.8647
24.4200 -16.2486 0.8656
24.4400 -16.2620 0.8674
24.4600 -16.2753 0.8651
24.4800 -16.2887 0.8671
24.5000 -16.3020 0.8680
24.5200 -16.3153 0.8672
24.5400 -16.3286 0.8690
24.5600 -16.3420 0.8675
24.5800 -16.3553 0.8678
24.6000 -16.3686 0.8687
24.6200 -16.3819 0.8682
24.6400 -16.3952 0.8703
24.6600 -16.4086 0.8712
24.6800 -16.4219 0.8716
24.7000 -16.4352 0.8714
24.7200 -16.4486 0.8706
24.7400 -16.4619 0.8721
24.7600 -16.4753 0.8736
24.7800 -16.4886 0.8745
24.8000 -16.5019 0.8763
24.8200 -16.5153 0.8754
24.8400 -16.5287 0.8764
24.8600 -16.5420 0.8776
24.8800 -16.5553 0.8764
24.9000 -16.5686 0.8757
24.9200 -16.5820 0.8767
24.9400 -16.5953 0.8786
24.9600 -16.6086 0.8793
24.9800 -16.6219 0.8807
25.0000 -16.6353 0.8790
25.0200 -16.6486 0.8818
25.0400 -16.6620 0.8824
25.0600 -16.6753 0.8811
25.0800 -16.6886 0.8820
25.1000 -16.7020 0.8834
25.1200 -16.7154 0.8812
25.1400 -16.7287 0.8841
25.1600 -16.7420 0.8836
25.1800 -16.7553 0.8850
25.2000 -16.7687 0.8865
25.2200 -16.7820 0.8884
25.2400 -16.7953 0.8871
25.2600 -16.8086 0.8870
25.2800 -16.8219 0.8880
25.3000 -16.8353 0.8861
25.3200 -16.8486 0.8894
25.3400 -16.8619 0.8915
25.3600 -16.8752 0.8907
25.3800 -16.8886 0.8925
25.4000 -16.9020 0.8927
25.4200 -16.9153 0.8913
25.4400 -16.9286 0.8915
25.4600 -16.9420 0.8932
25.4800 -16.9553 0.8951
25.5000 -16.9686 0.8956
25.5200 -16.9819 0.8981
25.5400 -16.9952 0.8956
25.5600 -17.0086 0.8979
25.5800 -17.0219 0.8969
25.6000 -17.0352 0.8970
25.6200 -17.0485 0.8983
25.6400 -17.0619 0.8995
25.6600 -17.0753 0.8987
25.6800 -17.0886 0.9007
25.7000 -17.1019 0.9005
25.7200 -17.1152 0.9019
25.7400 -17.1286 0.9013
25.7600 -17.1419 0.9063
25.7800 -17.1553 0.9027
25.8000 -17.1686 0.9049
25.8200 -17.1820 0.9068
25.8400 -17.1953 0.9074
25.8600 -17.2086 0.9066
25.8800 -17.2219 0.9075
25.9000 -17.2353 0.9072
25.9200 -17.2487 0.9106
25.9400 -17.2620 0.9097
25.9600 -17.2753 0.9100
25.9800 -17.2886 0.9096
26.0000 -17.3020 0.9120
26.0200 -17.3153 0.9118
26.0400 -17.3286 0.9118
26.0600 -17.3419 0.9156
26.0800 -17.3552 0.9134
26.1000 -17.3686 0.9154
26.1200 -17.3819 0.9163
26.1400 -17.3952 0.9154
26.1600 -17.4086 0.9171
26.1800 -17.4220 0.9183
26.2000 -17.4353 0.9211
26.2200 -17.4487 0.9214
26.2400 -17.4620 0.9223
26.2600 -17.4753 0.9220
26.2800 -17.4887 0.9220
26.3000 -17.5020 0.9250
26.3200 -17.5153 0.9272
26.3400 -17.5286 0.9267
26.3600 -17.5419 0.9276
26.3800 -17.5553 0.9277
26.4000 -17.5686 0.9273
26.4200 -17.5819 0.9325
26.4400 -17.5953 0.9310
26.4600 -17.6086 0.9342
26.4800 -17.6220 0.9331
26.5000 -17.6353 0.9340
26.5200 -17.6486 0.9323
26.5400 -17.6620 0.9362
26.5600 -17.6754 0.9344
26.5800 -17.6887 0.9361
26.6000 -17.7019 0.9362
26.6200 -17.7153 0.9369
26.6400 -17.7286 0.9373
26.6600 -17.7420 0.9407
26.6800 -17.7553 0.9394
26.7000 -17.7686 0.9420
26.7200 -17.7819 0.9418
26.7400 -17.7953 0.9415
26.7600 -17.8086 0.9428
26.7800 -17.8219 0.9427
26.8000 -17.8352 0.9441
26.8200 -17.8486 0.9435
26.8400 -17.8619 0.9452
26.8600 -17.8753 0.9451
26.8800 -17.8886 0.9465
26.9000 -17.9019 0.9485
26.9200 -17.9153 0.9504
26.9400 -17.9286 0.9500
26.9600 -17.9420 0.9521
26.9800 -17.9553 0.9519
27.0000 -17.9687 0.9535
27.0200 -17.9820 0.9541
27.0400 -17.9953 0.9542
27.0600 -18.0086 0.9535
27.0800 -18.0220 0.9567
27.1000 -18.0353 0.9562
27.1200 -18.0486 0.9575
27.1400 -18.0619 0.9582
27.1600 -18.0752 0.9588
27.1800 -18.0886 0.9581
27.2000 -18.1019 0.9594
27.2200 -18.1152 0.9577
27.2400 -18.1286 0.9605
27.2600 -18.1419 0.9615
27.2800 -18.1553 0.9631
27.3000 -18.1687 0.9631
27.3200 -18.1820 0.9646
27.3400 -18.1953 0.9674
27.3600 -18.2087 0.9723
27.3800 -18.2220 0.9765
27.4000 -18.2353 0.9755
27.4200 -18.2486 0.9759
27.4400 -18.2620 0.9766
27.4600 -18.2753 0.9762
27.4800 -18.2886 0.9752
27.5000 -18.3019 0.9775
27.5200 -18.3152 0.9759
27.5400 -18.3286 0.9763
27.5600 -18.3419 0.9755
27.5800 -18.3552 0.9786
27.6000 -18.3685 0.9778
27.6200 -18.3819 0.9803
27.6400 -18.3953 0.9806
27.6600 -18.4087 0.9805
27.6800 -18.4220 0.9832
27.7000 -18.4353 0.9850
27.7200 -18.4486 0.9853
27.7400 -18.4620 0.9866
27.7600 -18.4753 0.9860
27.7800 -18.4887 0.9884
27.8000 -18.5020 0.9909
27.8200 -18.5153 0.9926
27.8400 -18.5286 0.9921
27.8600 -18.5419 0.9940
27.8800 -18.5552 0.9971
27.9000 -18.5686 0.9958
27.9200 -18.5819 0.9986
27.9400 -18.5952 0.9982
27.9600 -18.6086 0.9983
27.9800 -18.6219 0.9995
28.0000 -18.6353 1.0016
28.0200 -18.6486 1.0012
28.0400 -18.6619 1.0038
28.0600 -18.6753 1.0057
28.0800 -18.6886 1.0062
28.1000 -18.7020 1.0073
28.1200 -18.7153 1.0084
28.1400 -18.7286 1.0079
28.1600 -18.7420 1.0102
28.1800 -18.7553 1.0083
28.2000 -18.7686 1.0095
28.2200 -18.7819 1.0085
28.2400 -18.7952 1.0096
28.2600 -18.8086 1.0094
28.2800 -18.8219 1.0123
28.3000 -18.8352 1.0128
28.3200 -18.8486 1.0176
28.3400 -18.8619 1.0152
28.3600 -18.8753 1.0176
28.3800 -18.8887 1.0167
28.4000 -18.9020 1.0178
28.4200 -18.9153 1.0189
28.4400 -18.9286 1.0203
28.4600 -18.9420 1.0229
28.4800 -18.9553 1.0226
28.5000 -18.9686 1.0226
28.5200 -18.9819 1.0228
28.5400 -18.9952 1.0268
28.5600 -19.0086 1.0276
28.5800 -19.0219 1.0275
28.6000 -19.0352 1.0288
28.6200 -19.0486 1.0319
28.6400 -19.0619 1.0315
28.6600 -19.0753 1.0343
28.6800 -19.0886 1.0337
28.7000 -19.1019 1.0355
28.7200 -19.1153 1.0328
28.7400 -19.1287 1.0341
28.7600 -19.1420 1.0339
28.7800 -19.1553 1.0362
28.8000 -19.1686 1.0364
28.8200 -19.1820 1.0368
28.8400 -19.1953 1.0382
28.8600 -19.2086 1.0417
28.8800 -19.2220 1.0399
28.9000 -19.2353 1.0420
28.9200 -19.2486 1.0425
28.9400 -19.2619 1.0446
28.9600 -19.2752 1.0443
28.9800 -19.2886 1.0438
29.0000 -19.3019 1.0444
29.0200 -19.3152 1.0460
29.0400 -19.3285 1.0460
29.0600 -19.3419 1.0476
29.0800 -19.3553 1.0474
29.1000 -19.3687 1.0493
29.1200 -19.3820 1.0524
29.1400 -19.3953 1.0536
29.1600 -19.4086 1.0536
29.1800 -19.4220 1.0550
29.2000 -19.4353 1.0576
29.2200 -19.4486 1.0571
29.2400 -19.4619 1.0579
29.2600 -19.4753 1.0583
29.2800 -19.4886 1.0588
29.3000 -19.5019 1.0592
29.3200 -19.5152 1.0611
29.3400 -19.5286 1.0616
29.3600 -19.5419 1.0648
29.3800 -19.5553 1.0649
29.4000 -19.5686 1.0669
29.4200 -19.5819 1.0663
29.4400 -19.5953 1.0679
29.4600 -19.6087 1.0627
29.4800 -19.6220 1.0256
29.5000 -19.6353 0.9671
29.5200 -19.6486 0.9016
29.5400 -19.6620 0.8397
29.5600 -19.6753 0.7794
29.5800 -19.6886 0.7210
29.6000 -19.7019 0.6644
29.6200 -19.7153 0.6134
29.6400 -19.7286 0.5596
29.6600 -19.7419 0.5075
29.6800 -19.7552 0.4557
29.7000 -19.7686 0.4047
29.7200 -19.7820 0.3558
29.7400 -19.7953 0.3032
29.7600 -19.8086 0.2482
29.7800 -19.8219 0.1927
29.8000 -19.8353 0.1408
29.8200 -19.8487 0.0879
29.8400 -19.8620 0.0369
29.8600 -19.8753 -0.0133
29.8800 -19.8886 -0.0396
29.9000 -19.9020 -0.0360
29.9200 -19.9153 -0.0255
29.9400 -19.9286 -0.0078
29.9600 -19.9419 -0.0054
29.9800 -19.9553 -0.0158
30.0000 -19.9686 -0.0415
30.0200 -19.9819 -0.0891
30.0400 -19.9952 -0.1483
30.0600 -20.0085 -0.2003
30.0800 -20.0219 -0.2497
30.1000 -20.0353 -0.2962
30.1200 -20.0486 -0.3422
30.1400 -20.0619 -0.3838
30.1600 -20.0753 -0.4257
30.1800 -20.0887 -0.4595
30.2000 -20.1020 -0.4897
30.2200 -20.1153 -0.5435
30.2400 -20.1287 -0.6074
30.2600 -20.1420 -0.6732
30.2800 -20.1553 -0.7343
30.3000 -20.1686 -0.7736
30.3200 -20.1819 -0.7879
30.3400 -20.1953 -0.7882
30.3600 -20.2086 -0.7868
30.3800 -20.2219 -0.7878
30.4000 -20.2352 -0.7845
30.4200 -20.2485 -0.7834
30.4400 -20.2619 -0.7819
30.4600 -20.2752 -0.7805
30.4800 -20.2886 -0.7801
30.5000 -20.3019 -0.7804
30.5200 -20.3153 -0.7796
30.5400 -20.3287 -0.7771
30.5600 -20.3420 -0.7752
30.5800 -20.3553 -0.7720
30.6000 -20.3686 -0.7701
30.6200 -20.3820 -0.7689
30.6400 -20.3953 -0.7680
30.6600 -20.4086 -0.7674
30.6800 -20.4219 -0.7634
30.7000 -20.4353 -0.7619
30.7200 -20.4486 -0.7591
30.7400 -20.4619 -0.7596
30.7600 -20.4752 -0.7592
30.7800 -20.4886 -0.7579
30.8000 -20.5019 -0.7564
30.8200 -20.5153 -0.7540
30.8400 -20.5286 -0.7537
30.8600 -20.5419 -0.7505
30.8800 -20.5553 -0.7466
30.9000 -20.5687 -0.7438
30.9200 -20.5820 -0.7453
30.9400 -20.5952 -0.7440
30.9600 -20.6086 -0.7424
30.9800 -20.6219 -0.7386
31.0000 -20.6353 -0.7373
31.0200 -20.6486 -0.7334
31.0400 -20.6619 -0.7350
31.0600 -20.6753 -0.7310
31.0800 -20.6886 -0.7317
31.1000 -20.7019 -0.7292
31.1200 -20.7152 -0.7290
31.1400 -20.7286 -0.7272
31.1600 -20.7419 -0.7259
31.1800 -20.7553 -0.7215
31.2000 -20.7686 -0.7213
31.2200 -20.7819 -0.7197
31.2400 -20.7953 -0.7180
31.2600 -20.8087 -0.7177
31.2800 -20.8220 -0.7148
31.3000 -20.8353 -0.7107
31.3200 -20.8486 -0.7101
31.3400 -20.8620 -0.7093
31.3600 -20.8754 -0.7075
31.3800 -20.8887 -0.7054
31.4000 -20.9020 -0.7057
31.4200 -20.9153 -0.7031
31.4400 -20.9286 -0.7033
31.4600 -20.9419 -0.7026
31.4800 -20.9552 -0.7013
31.5000 -20.9686 -0.6973
31.5200 -20.9819 -0.6954
31.5400 -20.9953 -0.6918
31.5600 -21.0086 -0.6925
31.5800 -21.0219 -0.6916
31.6000 -21.0353 -0.6896
31.6200 -21.0487 -0.6861
31.6400 -21.0620 -0.6849
31.6600 -21.0753 -0.6834
31.6800 -21.0886 -0.6805
31.7000 -21.1020 -0.6810
31.7200 -21.1153 -0.6775
31.7400 -21.1286 -0.6778
31.7600 -21.1419 -0.6738
31.7800 -21.1553 -0.6726
31.8000 -21.1686 -0.6675
31.8200 -21.1819 -0.6683
31.8400 -21.1952 -0.6668
31.8600 -21.2086 -0.6670
31.8800 -21.2219 -0.6649
31.9000 -21.2353 -0.6638
31.9200 -21.2486 -0.6608
31.9400 -21.2619 -0.6606
31.9600 -21.2753 -0.6589
31.9800 -21.2886 -0.6574
32.0000 -21.3020 -0.6557
32.0200 -21.3153 -0.6568
32.0400 -21.3286 -0.6532
32.0600 -21.3420 -0.6505
32.0800 -21.3553 -0.6525
32.1000 -21.3686 -0.6482
32.1200 -21.3820 -0.6463
32.1400 -21.3953 -0.6453
32.1600 -21.4087 -0.6445
32.1800 -21.4220 -0.6434
32.2000 -21.4352 -0.6421
32.2200 -21.4486 -0.6385
32.2400 -21.4619 -0.6387
32.2600 -21.4753 -0.6363
32.2800 -21.4886 -0.6353
32.3000 -21.5019 -0.6332
32.3200 -21.5153 -0.6296
32.3400 -21.5287 -0.6280
32.3600 -21.5420 -0.6284
32.3800 -21.5553 -0.6261
32.4000 -21.5686 -0.6236
32.4200 -21.5820 -0.6224
32.4400 -21.5953 -0.6219
32.4600 -21.6086 -0.6200
32.4800 -21.6219 -0.6190
32.5000 -21.6353 -0.6164
32.5200 -21.6486 -0.6159
32.5400 -21.6619 -0.6167
32.5600 -21.6752 -0.6147
32.5800 -21.6886 -0.6127
32.6000 -21.7019 -0.6095
32.6200 -21.7153 -0.6084
32.6400 -21.7286 -0.6059
32.6600 -21.7419 -0.6073
32.6800 -21.7553 -0.6060
32.7000 -21.7687 -0.6041
32.7200 -21.7820 -0.6025
32.7400 -21.7953 -0.6018
32.7600 -21.8086 -0.6009
32.7800 -21.8220 -0.6007
32.8000 -21.8353 -0.5970
32.8200 -21.8486 -0.5935
32.8400 -21.8619 -0.5935
32.8600 -21.8752 -0.5923
32.8800 -21.8886 -0.5919
32.9000 -21.9019 -0.5905
32.9200 -21.9152 -0.5912
32.9400 -21.9286 -0.5875
32.9600 -21.9419 -0.5868
32.9800 -21.9553 -0.5861
33.0000 -21.9686 -0.5846
33.0200 -21.9819 -0.5849
33.0400 -21.9953 -0.5830
33.0600 -22.0086 -0.5808
33.0800 -22.0220 -0.5789
33.1000 -22.0353 -0.5782
33.1200 -22.0486 -0.5758
33.1400 -22.0620 -0.5760
33.1600 -22.0753 -0.5726
33.1800 -22.0886 -0.5696
33.2000 -22.1020 -0.5686
33.2200 -22.1153 -0.5687
33.2400 -22.1287 -0.5673
33.2600 -22.1420 -0.5684
33.2800 -22.1552 -0.5649
33.3000 -22.1685 -0.5626
33.3200 -22.1819 -0.5624
33.3400 -22.1952 -0.5638
33.3600 -22.2085 -0.5616
33.3800 -22.2219 -0.5608
33.4000 -22.2352 -0.5601
33.4200 -22.2486 -0.5570
33.4400 -22.2620 -0.5577
33.4600 -22.2753 -0.5576
33.4800 -22.2886 -0.5532
33.5000 -22.3020 -0.5526
33.5200 -22.3154 -0.5529
33.5400 -22.3287 -0.5519
33.5600 -22.3420 -0.5504
33.5800 -22.3553 -0.5468
33.6000 -22.3686 -0.5456
33.6200 -22.3819 -0.5445
33.6400 -22.3952 -0.5463
33.6600 -22.4086 -0.5429
33.6800 -22.4219 -0.5419
33.7000 -22.4353 -0.5404
33.7200 -22.4486 -0.5387
33.7400 -22.4619 -0.5379
33.7600 -22.4753 -0.5393
33.7800 -22.4887 -0.5353
33.8000 -22.5020 -0.5324
33.8200 -22.5153 -0.5327
33.8400 -22.5286 -0.5314
33.8600 -22.5419 -0.5312
33.8800 -22.5553 -0.5290
33.9000 -22.5686 -0.5294
33.9200 -22.5819 -0.5250
33.9400 -22.5953 -0.5239
33.9600 -22.6086 -0.5219
33.9800 -22.6219 -0.5191
34.0000 -22.6352 -0.5206
34.0200 -22.6486 -0.5182
34.0400 -22.6619 -0.5166
34.0600 -22.6753 -0.5161
34.0800 -22.6886 -0.5138
34.1000 -22.7019 -0.5132
34.1200 -22.7153 -0.5148
34.1400 -22.7286 -0.5114
34.1600 -22.7420 -0.5108
34.1800 -22.7553 -0.5101
34.2000 -22.7686 -0.5090
34.2200 -22.7820 -0.5081
34.2400 -22.7954 -0.5084
34.2600 -22.8087 -0.5037
34.2800 -22.8220 -0.5023
34.3000 -22.8353 -0.5015
34.3200 -22.8486 -0.4991
34.3400 -22.8620 -0.4983
34.3600 -22.8752 -0.4977
34.3800 -22.8885 -0.4958
34.4000 -22.9019 -0.4940
34.4200 -22.9153 -0.4960
34.4400 -22.9286 -0.4941
34.4600 -22.9419 -0.4952
34.4800 -22.9553 -0.4936
34.5000 -22.9686 -0.4932
34.5200 -22.9820 -0.4897
34.5400 -22.9953 -0.4896
34.5600 -23.0087 -0.4872
34.5800 -23.0220 -0.4867
34.6000 -23.0354 -0.4874
34.6200 -23.0487 -0.4846
34.6400 -23.0620 -0.4817
34.6600 -23.0753 -0.4820
34.6800 -23.0886 -0.4778
34.7000 -23.1019 -0.4759
34.7200 -23.1152 -0.4762
34.7400 -23.1285 -0.4761
34.7600 -23.1419 -0.4760
34.7800 -23.1552 -0.4770
34.8000 -23.1686 -0.4737
34.8200 -23.1819 -0.4715
34.8400 -23.1952 -0.4703
34.8600 -23.2086 -0.4693
34.8800 -23.2220 -0.4677
34.9000 -23.2353 -0.4624
34.9200 -23.2486 -0.4587
34.9400 -23.2619 -0.4487
34.9600 -23.2753 -0.4420
34.9800 -23.2887 -0.4382
35.0000 -23.3020 -0.4386
35.0200 -23.3153 -0.4392
35.0400 -23.3286 -0.4378
35.0600 -23.3420 -0.4350
35.0800 -23.3553 -0.4382
35.1000 -23.3686 -0.4340
35.1200 -23.3819 -0.4345
35.1400 -23.3952 -0.4356
35.1600 -23.4086 -0.4336
35.1800 -23.4219 -0.4320
35.2000 -23.4352 -0.4333
35.2200 -23.4486 -0.4338
35.2400 -23.4620 -0.4310
35.2600 -23.4753 -0.4328
35.2800 -23.4886 -0.4290
35.3000 -23.5019 -0.4292
35.3200 -23.5153 -0.4279
35.3400 -23.5287 -0.4263
35.3600 -23.5420 -0.4224
35.3800 -23.5553 -0.4277
35.4000 -23.5686 -0.4222
35.4200 -23.5820 -0.4255
35.4400 -23.5953 -0.4232
35.4600 -23.6086 -0.4229
35.4800 -23.6219 -0.4196
35.5000 -23.6353 -0.4226
35.5200 -23.6486 -0.4186
35.5400 -23.6619 -0.4184
35.5600 -23.6752 -0.4175
35.5800 -23.6886 -0.4162
35.6000 -23.7020 -0.4124
35.6200 -23.7153 -0.4167
35.6400 -23.7286 -0.4132
35.6600 -23.7420 -0.4125
35.6800 -23.7554 -0.4145
35.7000 -23.7687 -0.4095
35.7200 -23.7820 -0.4108
35.7400 -23.7953 -0.4091
35.7600 -23.8086 -0.4084
35.7800 -23.8219 -0.4074
35.8000 -23.8352 -0.4089
35.8200 -23.8485 -0.4052
35.8400 -23.8619 -0.4048
35.8600 -23.8752 -0.4024
35.8800 -23.8886 -0.4009
35.9000 -23.9019 -0.4008
35.9200 -23.9153 -0.4001
35.9400 -23.9286 -0.3986
35.9600 -23.9420 -0.3956
35.9800 -23.9553 -0.3954
36.0000 -23.9686 -0.3960
36.0200 -23.9820 -0.3945
36.0400 -23.9953 -0.3904
36.0600 -24.0087 -0.3906
36.0800 -24.0220 -0.3916
36.1000 -24.0353 -0.3912
36.1200 -24.0487 -0.3913
36.1400 -24.0620 -0.3862
36.1600 -24.0753 -0.3882
36.1800 -24.0886 -0.3857
36.2000 -24.1019 -0.3854
36.2200 -24.1153 -0.3843
36.2400 -24.1286 -0.3843
36.2600 -24.1419 -0.3796
36.2800 -24.1552 -0.3808
36.3000 -24.1686 -0.3776
36.3200 -24.1820 -0.3782
36.3400 -24.1953 -0.3777
36.3600 -24.2086 -0.3771
36.3800 -24.2220 -0.3754
36.4000 -24.2353 -0.3746
36.4200 -24.2487 -0.3728
36.4400 -24.2620 -0.3714
36.4600 -24.2753 -0.3726
36.4800 -24.2886 -0.3716
36.5000 -24.3020 -0.3683
36.5200 -24.3153 -0.3682
36.5400 -24.3286 -0.3692
36.5600 -24.3419 -0.3659
36.5800 -24.3552 -0.3664
36.6000 -24.3686 -0.3640
36.6200 -24.3819 -0.3635
36.6400 -24.3953 -0.3650
36.6600 -24.4086 -0.3638
36.6800 -24.4220 -0.3593
36.7000 -24.4353 -0.3610
36.7200 -24.4486 -0.3587
36.7400 -24.4619 -0.3581
36.7600 -24.4753 -0.3567
36.7800 -24.4886 -0.3540
36.8000 -24.5020 -0.3537
36.8200 -24.5153 -0.3553
36.8400 -24.5286 -0.3543
36.8600 -24.5419 -0.3525
36.8800 -24.5552 -0.3529
36.9000 -24.5685 -0.3504
36.9200 -24.5819 -0.3472
36.9400 -24.5953 -0.3493
36.9600 -24.6087 -0.3472
36.9800 -24.6220 -0.3434
37.0000 -24.6353 -0.3464
37.0200 -24.6486 -0.3449
37.0400 -24.6620 -0.3422
37.0600 -24.6753 -0.3405
37.0800 -24.6886 -0.3433
37.1000 -24.7020 -0.3400
37.1200 -24.7153 -0.3412
37.1400 -24.7287 -0.3392
37.1600 -24.7420 -0.3363
37.1800 -24.7553 -0.3358
37.2000 -24.7686 -0.3371
37.2200 -24.7820 -0.3338
37.2400 -24.7953 -0.3366
37.2600 -24.8085 -0.3332
37.2800 -24.8219 -0.3305
37.3000 -24.8352 -0.3302
37.3200 -24.8486 -0.3294
37.3400 -24.8619 -0.3292
37.3600 -24.8752 -0.3283
37.3800 -24.8886 -0.3289
37.4000 -24.9020 -0.3258
37.4200 -24.9154 -0.3251
37.4400 -24.9287 -0.3228
37.4600 -24.9420 -0.3234
37.4800 -24.9553 -0.3219
37.5000 -24.9687 -0.3215
37.5200 -24.9820 -0.3176
37.5400 -24.9953 -0.3212
37.5600 -25.0086 -0.3196
37.5800 -25.0220 -0.3182
37.6000 -25.0353 -0.3176
37.6200 -25.0485 -0.3181
37.6400 -25.0619 -0.3150
37.6600 -25.0752 -0.3148
37.6800 -25.0886 -0.3121
37.7000 -25.1019 -0.3116
37.7200 -25.1153 -0.3125
37.7400 -25.1286 -0.3136
37.7600 -25.1420 -0.3100
37.7800 -25.1554 -0.3100
37.8000 -25.1687 -0.3058
37.8200 -25.1820 -0.3054
37.8400 -25.1953 -0.3057
37.8600 -25.2087 -0.3059
37.8800 -25.2220 -0.3027
37.9000 -25.2353 -0.3039
37.9200 -25.2486 -0.3017
37.9400 -25.2619 -0.3028
37.9600 -25.2753 -0.3016
37.9800 -25.2886 -0.3023
38.0000 -25.3019 -0.2978
38.0200 -25.3152 -0.2994
38.0400 -25.3286 -0.2974
38.0600 -25.3420 -0.2953
38.0800 -25.3553 -0.2966
38.1000 -25.3686 -0.2952
38.1200 -25.3820 -0.2917
38.1400 -25.3953 -0.2917
38.1600 -25.4086 -0.2915
38.1800 -25.4219 -0.2897
38.2000 -25.4353 -0.2903
38.2200 -25.4486 -0.2881
38.2400 -25.4620 -0.2847
38.2600 -25.4752 -0.2856
38.2800 -25.4886 -0.2857
38.3000 -25.5019 -0.2846
38.3200 -25.5153 -0.2851
38.3400 -25.5286 -0.2858
38.3600 -25.5419 -0.2840
38.3800 -25.5552 -0.2824
38.4000 -25.5686 -0.2816
38.4200 -25.5819 -0.2787
38.4400 -25.5953 -0.2798
38.4600 -25.6086 -0.2797
38.4800 -25.6220 -0.2789
38.5000 -25.6354 -0.2763
38.5200 -25.6487 -0.2790
38.5400 -25.6620 -0.2735
38.5600 -25.6753 -0.2769
38.5800 -25.6887 -0.2755
38.6000 -25.7020 -0.2735
38.6200 -25.7153 -0.2732
38.6400 -25.7286 -0.2743
38.6600 -25.7419 -0.2694
38.6800 -25.7553 -0.2707
38.7000 -25.7686 -0.2691
38.7200 -25.7819 -0.2673
38.7400 -25.7952 -0.2682
38.7600 -25.8086 -0.2681
38.7800 -25.8219 -0.2650
38.8000 -25.8353 -0.2644
38.8200 -25.8486 -0.2652
38.8400 -25.8620 -0.2609
38.8600 -25.8753 -0.2632
38.8800 -25.8886 -0.2628
38.9000 -25.9019 -0.2625
38.9200 -25.9153 -0.2600
38.9400 -25.9287 -0.2626
38.9600 -25.9420 -0.2589
38.9800 -25.9553 -0.2581
39.0000 -25.9686 -0.2565
39.0200 -25.9820 -0.2546
39.0400 -25.9953 -0.2539
39.0600 -26.0086 -0.2561
39.0800 -26.0219 -0.2526
39.1000 -26.0352 -0.2516
39.1200 -26.0486 -0.2520
39.1400 -26.0619 -0.2479
39.1600 -26.0752 -0.2496
39.1800 -26.0886 -0.2513
39.2000 -26.1019 -0.2500
39.2200 -26.1153 -0.2467
39.2400 -26.1286 -0.2487
39.2600 -26.1419 -0.2467
39.2800 -26.1553 -0.2476
39.3000 -26.1686 -0.2455
39.3200 -26.1820 -0.2442
39.3400 -26.1953 -0.2442
39.3600 -26.2086 -0.2452
39.3800 -26.2220 -0.2401
39.4000 -26.2353 -0.2413
39.4200 -26.2486 -0.2405
39.4400 -26.2619 -0.2396
39.4600 -26.2752 -0.2376
39.4800 -26.2886 -0.2387
39.5000 -26.3019 -0.2365
39.5200 -26.3153 -0.2364
39.5400 -26.3286 -0.2349
39.5600 -26.3420 -0.2338
39.5800 -26.3554 -0.2319
39.6000 -26.3687 -0.2347
39.6200 -26.3819 -0.2314
39.6400 -26.3953 -0.2300
39.6600 -26.4086 -0.2300
39.6800 -26.4220 -0.2271
39.7000 -26.4353 -0.2279
39.7200 -26.4486 -0.2290
39.7400 -26.4619 -0.2265
39.7600 -26.4753 -0.2251
39.7800 -26.4886 -0.2263
39.8000 -26.5019 -0.2216
39.8200 -26.5152 -0.2229
39.8400 -26.5286 -0.2228
39.8600 -26.5420 -0.2215
39.8800 -26.5553 -0.2215
39.9000 -26.5686 -0.2203
39.9200 -26.5820 -0.2170
39.9400 -26.5953 -0.2176
39.9600 -26.6087 -0.2199
39.9800 -26.6220 -0.2170
40.0000 -26.6353 -0.2165
40.0200 -26.6486 -0.2177
40.0400 -26.6620 -0.2142
40.0600 -26.6753 -0.2136
40.0800 -26.6886 -0.2121
40.1000 -26.7019 -0.2100
40.1200 -26.7153 -0.2092
40.1400 -26.7286 -0.2118
40.1600 -26.7419 -0.2073
40.1800 -26.7552 -0.2084
40.2000 -26.7686 -0.2078
40.2200 -26.7820 -0.2038
40.2400 -26.7953 -0.2052
40.2600 -26.8086 -0.2057
40.2800 -26.8219 -0.2045
40.3000 -26.8353 -0.2036
40.3200 -26.8486 -0.2025
40.3400 -26.8619 -0.2006
40.3600 -26.8753 -0.2004
40.3800 -26.8886 -0.2019
40.4000 -26.9020 -0.2005
40.4200 -26.9153 -0.1988
40.4400 -26.9286 -0.1988
40.4600 -26.9420 -0.1954
40.4800 -26.9553 -0.1947
40.5000 -26.9686 -0.1966
40.5200 -26.9819 -0.1936
40.5400 -26.9952 -0.1934
40.5600 -27.0086 -0.1932
40.5800 -27.0219 -0.1911
40.6000 -27.0352 -0.1905
40.6200 -27.0485 -0.1908
40.6400 -27.0619 -0.1872
40.6600 -27.0753 -0.1863
40.6800 -27.0887 -0.1879
40.7000 -27.1020 -0.1867
40.7200 -27.1153 -0.1865
40.7400 -27.1287 -0.1855
40.7600 -27.1420 -0.1823
40.7800 -27.1553 -0.1813
40.8000 -27.1686 -0.1821
40.8200 -27.1819 -0.1789
40.8400 -27.1953 -0.1777
40.8600 -27.2086 -0.1772
40.8800 -27.2219 -0.1767
40.9000 -27.2352 -0.1736
40.9200 -27.2486 -0.1757
40.9400 -27.2620 -0.1718
40.9600 -27.2753 -0.1722
40.9800 -27.2886 -0.1746
41.0000 -27.3020 -0.1713
41.0200 -27.3154 -0.1718
41.0400 -27.3287 -0.1696
41.0600 -27.3420 -0.1674
41.0800 -27.3553 -0.1682
41.1000 -27.3686 -0.1679
41.1200 -27.3820 -0.1660
41.1400 -27.3953 -0.1659
41.1600 -27.4086 -0.1655
41.1800 -27.4220 -0.1649
41.2000 -27.4353 -0.1624
41.2200 -27.4486 -0.1632
41.2400 -27.4619 -0.1605
41.2600 -27.4752 -0.1588
41.2800 -27.4886 -0.1590
41.3000 -27.5019 -0.1592
41.3200 -27.5153 -0.1572
41.3400 -27.5286 -0.1582
41.3600 -27.5419 -0.1561
41.3800 -27.5553 -0.1541
41.4000 -27.5687 -0.1550
41.4200 -27.5820 -0.1543
41.4400 -27.5953 -0.1539
41.4600 -27.6087 -0.1546
41.4800 -27.6220 -0.1524
41.5000 -27.6353 -0.1493
41.5200 -27.6486 -0.1521
41.5400 -27.6620 -0.1489
41.5600 -27.6753 -0.1498
41.5800 -27.6886 -0.1508
41.6000 -27.7019 -0.1499
41.6200 -27.7152 -0.1487
41.6400 -27.7286 -0.1485
41.6600 -27.7419 -0.1468
41.6800 -27.7552 -0.1466
41.7000 -27.7686 -0.1473
41.7200 -27.7819 -0.1443
41.7400 -27.7953 -0.1420
41.7600 -27.8087 -0.1441
41.7800 -27.8220 -0.1445
41.8000 -27.8353 -0.1419
41.8200 -27.8487 -0.1424
41.8400 -27.8620 -0.1413
41.8600 -27.8753 -0.1384
41.8800 -27.8886 -0.1398
41.9000 -27.9020 -0.1371
41.9200 -27.9153 -0.1376
41.9400 -27.9286 -0.1359
41.9600 -27.9419 -0.1363
41.9800 -27.9552 -0.1332
42.0000 -27.9686 -0.1346
42.0200 -27.9819 -0.1304
42.0400 -27.9952 -0.1337
42.0600 -28.0086 -0.1315
42.0800 -28.0219 -0.1298
42.1000 -28.0353 -0.1277
42.1200 -28.0486 -0.1305
42.1400 -28.0620 -0.1301
42.1600 -28.0753 -0.1269
42.1800 -28.0886 -0.1262
42.2000 -28.1020 -0.1254
42.2200 -28.1153 -0.1238
42.2400 -28.1287 -0.1247
42.2600 -28.1420 -0.1247
42.2800 -28.1553 -0.1190
42.3000 -28.1686 -0.1199
42.3200 -28.1819 -0.1159
42.3400 -28.1952 -0.1190
42.3600 -28.2086 -0.1196
42.3800 -28.2219 -0.1191
42.4000 -28.2353 -0.1162
42.4200 -28.2486 -0.1189
42.4400 -28.2619 -0.1151
42.4600 -28.2753 -0.1150
42.4800 -28.2886 -0.1145
42.5000 -28.3019 -0.1153
42.5200 -28.3152 -0.1117
42.5400 -28.3286 -0.1137
42.5600 -28.3420 -0.1106
42.5800 -28.3553 -0.1086
42.6000 -28.3686 -0.1094
42.6200 -28.3820 -0.1089
42.6400 -28.3953 -0.1062
42.6600 -28.4086 -0.1052
42.6800 -28.4219 -0.1058
42.7000 -28.4352 -0.1042
42.7200 -28.4486 -0.1054
42.7400 -28.4619 -0.1032
42.7600 -28.4752 -0.1032
42.7800 -28.4885 -0.1035
42.8000 -28.5019 -0.1016
42.8200 -28.5153 -0.0987
42.8400 -28.5287 -0.0990
42.8600 -28.5420 -0.0996
42.8800 -28.5553 -0.0978
42.9000 -28.5687 -0.0991
42.9200 -28.5820 -0.0987
42.9400 -28.5953 -0.0952
42.9600 -28.6086 -0.0977
42.9800 -28.6219 -0.0950
43.0000 -28.6352 -0.0925
43.0200 -28.6486 -0.0930
43.0400 -28.6619 -0.0947
43.0600 -28.6752 -0.0907
43.0800 -28.6886 -0.0932
43.1000 -28.7019 -0.0886
43.1200 -28.7153 -0.0869
43.1400 -28.7286 -0.0897
43.1600 -28.7419 -0.0896
43.1800 -28.7553 -0.0865
43.2000 -28.7687 -0.0880
43.2200 -28.7820 -0.0873
43.2400 -28.7953 -0.0866
43.2600 -28.8086 -0.0861
43.2800 -28.8220 -0.0857
43.3000 -28.8353 -0.0827
43.3200 -28.8486 -0.0825
43.3400 -28.8620 -0.0840
43.3600 -28.8753 -0.0823
43.3800 -28.8887 -0.0816
43.4000 -28.9019 -0.0808
43.4200 -28.9152 -0.0775
43.4400 -28.9286 -0.0794
43.4600 -28.9419 -0.0810
43.4800 -28.9553 -0.0784
43.5000 -28.9686 -0.0791
43.5200 -28.9819 -0.0773
43.5400 -28.9953 -0.0769
43.5600 -29.0087 -0.0755
43.5800 -29.0220 -0.0754
43.6000 -29.0353 -0.0732
43.6200 -29.0486 -0.0738
43.6400 -29.0620 -0.0725
43.6600 -29.0753 -0.0702
43.6800 -29.0886 -0.0709
43.7000 -29.1019 -0.0690
43.7200 -29.1153 -0.0667
43.7400 -29.1286 -0.0674
43.7600 -29.1419 -0.0658
43.7800 -29.1552 -0.0677
43.8000 -29.1686 -0.0660
43.8200 -29.1819 -0.0669
43.8400 -29.1953 -0.0651
43.8600 -29.2086 -0.0650
43.8800 -29.2219 -0.0650
43.9000 -29.2353 -0.0608
43.9200 -29.2487 -0.0606
43.9400 -29.2620 -0.0599
43.9600 -29.2753 -0.0562
43.9800 -29.2886 -0.0572
44.0000 -29.3020 -0.0574
44.0200 -29.3153 -0.0561
44.0400 -29.3286 -0.0572
44.0600 -29.3419 -0.0581
44.0800 -29.3553 -0.0544
44.1000 -29.3686 -0.0563
44.1200 -29.3819 -0.0541
44.1400 -29.3952 -0.0525
44.1600 -29.4086 -0.0524
44.1800 -29.4219 -0.0519
44.2000 -29.4353 -0.0522
44.2200 -29.4486 -0.0507
44.2400 -29.4620 -0.0512
44.2600 -29.4753 -0.0484
44.2800 -29.4887 -0.0501
44.3000 -29.5020 -0.0485
44.3200 -29.5153 -0.0494
44.3400 -29.5286 -0.0474
44.3600 -29.5420 -0.0490
44.3800 -29.5553 -0.0436
44.4000 -29.5686 -0.0444
44.4200 -29.5819 -0.0435
44.4400 -29.5953 -0.0413
44.4600 -29.6086 -0.0418
44.4800 -29.6219 -0.0455
44.5000 -29.6352 -0.0399
44.5200 -29.6485 -0.0389
44.5400 -29.6619 -0.0384
44.5600 -29.6753 -0.0380
44.5800 -29.6886 -0.0386
44.6000 -29.7019 -0.0389
44.6200 -29.7153 -0.0370
44.6400 -29.7287 -0.0357
44.6600 -29.7420 -0.0376
44.6800 -29.7553 -0.0356
44.7000 -29.7687 -0.0367
44.7200 -29.7820 -0.0329
44.7400 -29.7953 -0.0310
44.7600 -29.8086 -0.0309
44.7800 -29.8219 -0.0320
44.8000 -29.8353 -0.0286
44.8200 -29.8486 -0.0291
44.8400 -29.8619 -0.0275
44.8600 -29.8752 -0.0252
44.8800 -29.8885 -0.0231
44.9000 -29.9019 -0.0277
44.9200 -29.9152 -0.0247
44.9400 -29.9286 -0.0244
44.9600 -29.9419 -0.0250
44.9800 -29.9553 -0.0226
45.0000 -29.9687 -0.0198
45.0200 -29.9820 -0.0230
45.0400 -29.9953 -0.0186
45.0600 -30.0086 -0.0179
45.0800 -30.0220 -0.0160
45.1000 -30.0353 -0.0157
45.1200 -30.0486 -0.0133
45.1400 -30.0619 -0.0154
45.1600 -30.0753 -0.0138
45.1800 -30.0886 -0.0114
45.2000 -30.1019 -0.0120
45.2200 -30.1152 -0.0108
45.2400 -30.1285 -0.0125
45.2600 -30.1419 -0.0091
45.2800 -30.1553 -0.0079
45.3000 -30.1686 -0.0062
45.3200 -30.1819 -0.0071
45.3400 -30.1953 -0.0026
45.3600 -30.2087 -0.0090
45.3800 -30.2220 -0.0035
45.4000 -30.2352 -0.0017
45.4200 -30.2486 0.0013
45.4400 -30.2619 -0.0015
45.4600 -30.2753 0.0007
45.4800 -30.2887 0.0018
45.5000 -30.3020 -0.0007
45.5200 -30.3153 0.0066
45.5400 -30.3287 0.0082
45.5600 -30.3420 0.0093
45.5800 -30.3552 0.0093
45.6000 -30.3686 0.0119
45.6200 -30.3819 0.0087
45.6400 -30.3953 0.0132
45.6600 -30.4086 0.0100
45.6800 -30.4219 0.0128
45.7000 -30.4353 0.0121
45.7200 -30.4487 0.0134
45.7400 -30.4620 0.0130
45.7600 -30.4753 0.0144
45.7800 -30.4886 0.0140
45.8000 -30.5020 0.0150
45.8200 -30.5154 0.0187
45.8400 -30.5287 0.0170
45.8600 -30.5420 0.0164
45.8800 -30.5553 0.0166
45.9000 -30.5686 0.0207
45.9200 -30.5819 0.0155
45.9400 -30.5952 0.0200
45.9600 -30.6085 0.0188
45.9800 -30.6219 0.0185
46.0000 -30.6352 0.0214
46.0200 -30.6486 0.0210
46.0400 -30.6619 0.0227
46.0600 -30.6752 0.0214
46.0800 -30.6886 0.0236
46.1000 -30.7020 0.0245
46.1200 -30.7153 0.0242
46.1400 -30.7286 0.0238
46.1600 -30.7420 0.0311
46.1800 -30.7553 0.0277
46.2000 -30.7686 0.0296
46.2200 -30.7819 0.0283
46.2400 -30.7953 0.0297
46.2600 -30.8086 0.0283
46.2800 -30.8220 0.0320
46.3000 -30.8352 0.0353
46.3200 -30.8485 0.0298
46.3400 -30.8619 0.0319
46.3600 -30.8753 0.0388
46.3800 -30.8886 0.0364
46.4000 -30.9019 0.0350
46.4200 -30.9153 0.0398
46.4400 -30.9286 0.0338
46.4600 -30.9420 0.0418
46.4800 -30.9553 0.0387
46.5000 -30.9686 0.0433
46.5200 -30.9820 0.0355
46.5400 -30.9953 0.0404
46.5600 -31.0087 0.0425
46.5800 -31.0220 0.0410
46.6000 -31.0353 0.0438
46.6200 -31.0487 0.0449
46.6400 -31.0620 0.0426
46.6600 -31.0753 0.0455
46.6800 -31.0886 0.0488
46.7000 -31.1019 0.0488
46.7200 -31.1153 0.0482
46.7400 -31.1286 0.0483
46.7600 -31.1419 0.0489
46.7800 -31.1553 0.0516
46.8000 -31.1687 0.0525
46.8200 -31.1820 0.0530
46.8400 -31.1953 0.0510
46.8600 -31.2086 0.0546
46.8800 -31.2220 0.0537
46.9000 -31.2353 0.0551
46.9200 -31.2486 0.0568
46.9400 -31.2619 0.0552
46.9600 -31.2753 0.0560
46.9800 -31.2886 0.0586
47.0000 -31.3019 0.0608
47.0200 -31.3152 0.0595
47.0400 -31.3285 0.0609
47.0600 -31.3419 0.0606
47.0800 -31.3553 0.0597
47.1000 -31.3686 0.0592
47.1200 -31.3819 0.0643
47.1400 -31.3953 0.0619
47.1600 -31.4087 0.0637
47.1800 -31.4220 0.0644
47.2000 -31.4353 0.0663
47.2200 -31.4486 0.0647
47.2400 -31.4620 0.0678
47.2600 -31.4753 0.0687
47.2800 -31.4886 0.0695
47.3000 -31.5019 0.0691
47.3200 -31.5153 0.0725
47.3400 -31.5286 0.0723
47.3600 -31.5419 0.0721
47.3800 -31.5552 0.0740
47.4000 -31.5685 0.0744
47.4200 -31.5819 0.0729
47.4400 -31.5953 0.0755
47.4600 -31.6086 0.0754
47.4800 -31.6219 0.0772
47.5000 -31.6353 0.0759
47.5200 -31.6486 0.0791
47.5400 -31.6620 0.0777
47.5600 -31.6753 0.0787
47.5800 -31.6886 0.0813
47.6000 -31.7020 0.0798
47.6200 -31.7153 0.0806
47.6400 -31.7287 0.0826
47.6600 -31.7420 0.0822
47.6800 -31.7553 0.0826
47.7000 -31.7687 0.0861
47.7200 -31.7820 0.0847
47.7400 -31.7953 0.0850
47.7600 -31.8086 0.0854
47.7800 -31.8219 0.0873
47.8000 -31.8352 0.0865
47.8200 -31.8485 0.0897
47.8400 -31.8619 0.0876
47.8600 -31.8752 0.0883
47.8800 -31.8886 0.0903
47.9000 -31.9020 0.0896
47.9200 -31.9153 0.0911
47.9400 -31.9286 0.0933
47.9600 -31.9420 0.0927
47.9800 -31.9554 0.0935
48.0000 -31.9687 0.0952
48.0200 -31.9820 0.0940
48.0400 -31.9953 0.0970
48.0600 -32.0086 0.0977
48.0800 -32.0220 0.1002
48.1000 -32.0353 0.0988
48.1200 -32.0486 0.0996
48.1400 -32.0619 0.1007
48.1600 -32.0753 0.1016
48.1800 -32.0886 0.1038
48.2000 -32.1019 0.1038
48.2200 -32.1153 0.1022
48.2400 -32.1286 0.1033
48.2600 -32.1420 0.1049
48.2800 -32.1553 0.1037
48.3000 -32.1686 0.1069
48.3200 -32.1819 0.1047
48.3400 -32.1953 0.1082
48.3600 -32.2086 0.1089
48.3800 -32.2220 0.1077
48.4000 -32.2353 0.1095
48.4200 -32.2486 0.1109
48.4400 -32.2620 0.1113
48.4600 -32.2753 0.1120
48.4800 -32.2886 0.1133
48.5000 -32.3019 0.1129
48.5200 -32.3153 0.1153
48.5400 -32.3286 0.1149
48.5600 -32.3419 0.1181
48.5800 -32.3553 0.1153
48.6000 -32.3686 0.1164
48.6200 -32.3820 0.1176
48.6400 -32.3953 0.1196
48.6600 -32.4086 0.1208
48.6800 -32.4220 0.1201
48.7000 -32.4353 0.1198
48.7200 -32.4487 0.1204
48.7400 -32.4620 0.1216
48.7600 -32.4753 0.1212
48.7800 -32.4886 0.1234
48.8000 -32.5020 0.1226
48.8200 -32.5152 0.1258
48.8400 -32.5285 0.1246
48.8600 -32.5419 0.1274
48.8800 -32.5553 0.1259
48.9000 -32.5686 0.1271
48.9200 -32.5819 0.1261
48.9400 -32.5953 0.1284
48.9600 -32.6086 0.1291
48.9800 -32.6220 0.1335
49.0000 -32.6354 0.1326
49.0200 -32.6487 0.1338
49.0400 -32.6620 0.1327
49.0600 -32.6754 0.1334
49.0800 -32.6887 0.1350
49.1000 -32.7020 0.1364
49.1200 -32.7153 0.1355
49.1400 -32.7286 0.1358
49.1600 -32.7420 0.1381
49.1800 -32.7553 0.1374
49.2000 -32.7686 0.1392
49.2200 -32.7819 0.1400
49.2400 -32.7953 0.1403
49.2600 -32.8086 0.1412
49.2800 -32.8219 0.1400
49.3000 -32.8352 0.1395
49.3200 -32.8486 0.1401
49.3400 -32.8620 0.1413
49.3600 -32.8753 0.1424
49.3800 -32.8886 0.1408
49.4000 -32.9019 0.1426
49.4200 -32.9153 0.1434
49.4400 -32.9287 0.1447
49.4600 -32.9420 0.1443
49.4800 -32.9553 0.1458
49.5000 -32.9687 0.1445
49.5200 -32.9820 0.1458
49.5400 -32.9953 0.1460
49.5600 -33.0086 0.1480
49.5800 -33.0219 0.1498
49.6000 -33.0352 0.1510
49.6200 -33.0486 0.1509
49.6400 -33.0619 0.1511
49.6600 -33.0752 0.1515
49.6800 -33.0886 0.1525
49.7000 -33.1020 0.1522
49.7200 -33.1153 0.1546
49.7400 -33.1286 0.1535
49.7600 -33.1419 0.1564
49.7800 -33.1553 0.1550
49.8000 -33.1687 0.1569
49.8200 -33.1820 0.1562
49.8400 -33.1953 0.1575
49.8600 -33.2086 0.1592
49.8800 -33.2220 0.1616
49.9000 -33.2353 0.1597
49.9200 -33.2486 0.1611
49.9400 -33.2619 0.1604
49.9600 -33.2753 0.1621
49.9800 -33.2886 0.1627
50.0000 -33.3019 0.1633
50.0200 -33.3152 0.1661
50.0400 -33.3286 0.1666
50.0600 -33.3420 0.1656
50.0800 -33.3553 0.1699
50.1000 -33.3686 0.1698
50.1200 -33.3820 0.1703
50.1400 -33.3953 0.1702
50.1600 -33.4087 0.1694
50.1800 -33.4220 0.1714
50.2000 -33.4353 0.1729
50.2200 -33.4486 0.1732
50.2400 -33.4619 0.1739
50.2600 -33.4752 0.1778
50.2800 -33.4885 0.1760
50.3000 -33.5019 0.1804
50.3200 -33.5153 0.1781
50.3400 -33.5286 0.1809
50.3600 -33.5420 0.1820
50.3800 -33.5553 0.1846
50.4000 -33.5686 0.1846
50.4200 -33.5820 0.1858
50.4400 -33.5954 0.1862
50.4600 -33.6087 0.1852
50.4800 -33.6220 0.1892
50.5000 -33.6354 0.1896
50.5200 -33.6487 0.1909
50.5400 -33.6620 0.1894
50.5600 -33.6753 0.1921
50.5800 -33.6886 0.1906
50.6000 -33.7020 0.1931
50.6200 -33.7153 0.1947
50.6400 -33.7286 0.1942
50.6600 -33.7419 0.1961
50.6800 -33.7553 0.1967
50.7000 -33.7686 0.1976
50.7200 -33.7819 0.1991
50.7400 -33.7952 0.1963
50.7600 -33.8086 0.1983
50.7800 -33.8220 0.2004
50.8000 -33.8353 0.1974
50.8200 -33.8486 0.2018
50.8400 -33.8620 0.2050
50.8600 -33.8753 0.2036
50.8800 -33.8887 0.2016
50.9000 -33.9020 0.2065
50.9200 -33.9153 0.2075
50.9400 -33.9286 0.2064
50.9600 -33.9419 0.2089
50.9800 -33.9552 0.2092
51.0000 -33.9685 0.2068
51.0200 -33.9818 0.2091
51.0400 -33.9952 0.2086
51.0600 -34.0085 0.2096
51.0800 -34.0219 0.2125
51.1000 -34.0353 0.2100
51.1200 -34.0486 0.2111
51.1400 -34.0620 0.2144
51.1600 -34.0754 0.2134
51.1800 -34.0887 0.2147
51.2000 -34.1020 0.2153
51.2200 -34.1153 0.2150
51.2400 -34.1286 0.2156
51.2600 -34.1420 0.2166
51.2800 -34.1553 0.2163
51.3000 -34.1686 0.2199
51.3200 -34.1819 0.2180
51.3400 -34.1952 0.2184
51.3600 -34.2085 0.2188
51.3800 -34.2219 0.2229
51.4000 -34.2352 0.2193
51.4200 -34.2486 0.2247
51.4400 -34.2620 0.2210
51.4600 -34.2753 0.2239
51.4800 -34.2886 0.2223
51.5000 -34.3020 0.2246
51.5200 -34.3154 0.2284
51.5400 -34.3287 0.2271
51.5600 -34.3420 0.2257
51.5800 -34.3553 0.2261
51.6000 -34.3687 0.2298
51.6200 -34.3820 0.2315
51.6400 -34.3953 0.2322
51.6600 -34.4086 0.2293
51.6800 -34.4220 0.2322
51.7000 -34.4353 0.2324
51.7200 -34.4485 0.2349
51.7400 -34.4619 0.2344
51.7600 -34.4752 0.2379
51.7800 -34.4886 0.2356
51.8000 -34.5019 0.2354
51.8200 -34.5153 0.2372
51.8400 -34.5286 0.2406
51.8600 -34.5420 0.2385
51.8800 -34.5554 0.2394
51.9000 -34.5687 0.2425
51.9200 -34.5820 0.2407
51.9400 -34.5953 0.2440
51.9600 -34.6087 0.2442
51.9800 -34.6220 0.2433
52.0000 -34.6353 0.2438
52.0200 -34.6486 0.2448
52.0400 -34.6619 0.2449
52.0600 -34.6753 0.2479
52.0800 -34.6885 0.2475
52.1000 -34.7019 0.2471
52.1200 -34.7152 0.2506
52.1400 -34.7286 0.2488
52.1600 -34.7419 0.2516
52.1800 -34.7552 0.2541
52.2000 -34.7686 0.2532
52.2200 -34.7820 0.2530
52.2400 -34.7954 0.2569
52.2600 -34.8087 0.2549
52.2800 -34.8220 0.2547
52.3000 -34.8353 0.2595
52.3200 -34.8487 0.2580
52.3400 -34.8620 0.2599
52.3600 -34.8753 0.2640
52.3800 -34.8886 0.2628
52.4000 -34.9019 0.2638
52.4200 -34.9152 0.2654
52.4400 -34.9285 0.2642
52.4600 -34.9419 0.2707
52.4800 -34.9552 0.2703
52.5000 -34.9686 0.2711
52.5200 -34.9820 0.2729
52.5400 -34.9953 0.2742
52.5600 -35.0086 0.2719
52.5800 -35.0220 0.2777
52.6000 -35.0353 0.2761
52.6200 -35.0486 0.2723
52.6400 -35.0619 0.2783
52.6600 -35.0753 0.2818
52.6800 -35.0886 0.2771
52.7000 -35.1020 0.2790
52.7200 -35.1153 0.2824
52.7400 -35.1286 0.2786
52.7600 -35.1420 0.2818
52.7800 -35.1553 0.2842
52.8000 -35.1686 0.2811
52.8200 -35.1819 0.2836
52.8400 -35.1952 0.2890
52.8600 -35.2086 0.2841
52.8800 -35.2219 0.2873
52.9000 -35.2352 0.2906
52.9200 -35.2486 0.2896
52.9400 -35.2620 0.2924
52.9600 -35.2754 0.2949
52.9800 -35.2887 0.2927
53.0000 -35.3020 0.2944
53.0200 -35.3153 0.2934
53.0400 -35.3287 0.2945
53.0600 -35.3420 0.2956
53.0800 -35.3553 0.2968
53.1000 -35.3686 0.2932
53.1200 -35.3819 0.2988
53.1400 -35.3953 0.3005
53.1600 -35.4086 0.2974
53.1800 -35.4219 0.3005
53.2000 -35.4352 0.3040
53.2200 -35.4486 0.2995
53.2400 -35.4619 0.3017
53.2600 -35.4753 0.3044
53.2800 -35.4886 0.2993
53.3000 -35.5020 0.3037
53.3200 -35.5153 0.3074
53.3400 -35.5286 0.3041
53.3600 -35.5420 0.3038
53.3800 -35.5553 0.3090
53.4000 -35.5687 0.3047
53.4200 -35.5820 0.3087
53.4400 -35.5953 0.3092
53.4600 -35.6086 0.3069
53.4800 -35.6219 0.3078
53.5000 -35.6353 0.3098
53.5200 -35.6486 0.3077
53.5400 -35.6619 0.3087
53.5600 -35.6752 0.3091
53.5800 -35.6886 0.3107
53.6000 -35.7019 0.3118
53.6200 -35.7152 0.3121
53.6400 -35.7286 0.3098
53.6600 -35.7419 0.3120
53.6800 -35.7553 0.3135
53.7000 -35.7686 0.3151
53.7200 -35.7819 0.3147
53.7400 -35.7953 0.3155
53.7600 -35.8086 0.3130
53.7800 -35.8220 0.3166
53.8000 -35.8353 0.3172
53.8200 -35.8486 0.3188
53.8400 -35.8620 0.3190
53.8600 -35.8753 0.3223
53.8800 -35.8886 0.3218
53.9000 -35.9019 0.3234
53.9200 -35.9152 0.3256
53.9400 -35.9286 0.3250
53.9600 -35.9419 0.3282
53.9800 -35.9553 0.3303
54.0000 -35.9686 0.3311
54.0200 -35.9820 0.3296
54.0400 -35.9953 0.3339
54.0600 -36.0087 0.3331
54.0800 -36.0220 0.3368
54.1000 -36.0353 0.3341
54.1200 -36.0486 0.3379
54.1400 -36.0620 0.3372
54.1600 -36.0753 0.3410
54.1800 -36.0886 0.3383
54.2000 -36.1019 0.3408
54.2200 -36.1153 0.3415
54.2400 -36.1286 0.3410
54.2600 -36.1419 0.3427
54.2800 -36.1552 0.3446
54.3000 -36.1686 0.3447
54.3200 -36.1820 0.3455
54.3400 -36.1953 0.3460
54.3600 -36.2086 0.3461
54.3800 -36.2220 0.3476
54.4000 -36.2353 0.3467
54.4200 -36.2487 0.3480
54.4400 -36.2620 0.3469
54.4600 -36.2753 0.3515
54.4800 -36.2886 0.3516
54.5000 -36.3020 0.3568
54.5200 -36.3153 0.3557
54.5400 -36.3286 0.3544
54.5600 -36.3419 0.3558
54.5800 -36.3553 0.3586
54.6000 -36.3686 0.3555
54.6200 -36.3819 0.3577
54.6400 -36.3952 0.3588
54.6600 -36.4086 0.3603
54.6800 -36.4220 0.3610
54.7000 -36.4353 0.3610
54.7200 -36.4486 0.3619
54.7400 -36.4620 0.3622
54.7600 -36.4753 0.3668
54.7800 -36.4887 0.3632
54.8000 -36.5020 0.3665
54.8200 -36.5153 0.3684
54.8400 -36.5286 0.3681
54.8600 -36.5420 0.3673
54.8800 -36.5553 0.3711
54.9000 -36.5686 0.3708
54.9200 -36.5820 0.3732
54.9400 -36.5953 0.3760
54.9600 -36.6086 0.3752
54.9800 -36.6219 0.3745
55.0000 -36.6352 0.3794
55.0200 -36.6486 0.3762
55.0400 -36.6619 0.3749
55.0600 -36.6752 0.3786
55.0800 -36.6885 0.3820
55.1000 -36.7019 0.3815
55.1200 -36.7153 0.3862
55.1400 -36.7287 0.3846
55.1600 -36.7420 0.3847
55.1800 -36.7553 0.3878
55.2000 -36.7687 0.3898
55.2200 -36.7820 0.3874
55.2400 -36.7953 0.3921
55.2600 -36.8086 0.3910
55.2800 -36.8219 0.3931
55.3000 -36.8353 0.3952
55.3200 -36.8486 0.3953
55.3400 -36.8619 0.3963
55.3600 -36.8752 0.3984
55.3800 -36.8886 0.3988
55.4000 -36.9020 0.3992
55.4200 -36.9153 0.4034
55.4400 -36.9286 0.4031
55.4600 -36.9420 0.4024
55.4800 -36.9553 0.4050
55.5000 -36.9687 0.4059
55.5200 -36.9820 0.4034
55.5400 -36.9953 0.4094
55.5600 -37.0086 0.4068
55.5800 -37.0220 0.4094
55.6000 -37.0353 0.4120
55.6200 -37.0486 0.4136
55.6400 -37.0619 0.4109
55.6600 -37.0753 0.4126
55.6800 -37.0886 0.4148
55.7000 -37.1019 0.4174
55.7200 -37.1152 0.4170
55.7400 -37.1286 0.4181
55.7600 -37.1419 0.4180
55.7800 -37.1553 0.4180
55.8000 -37.1686 0.4194
55.8200 -37.1819 0.4199
55.8400 -37.1953 0.4239
55.8600 -37.2087 0.4230
55.8800 -37.2220 0.4215
55.9000 -37.2353 0.4244
55.9200 -37.2487 0.4248
55.9400 -37.2620 0.4258
55.9600 -37.2753 0.4284
55.9800 -37.2886 0.4306
56.0000 -37.3020 0.4290
56.0200 -37.3153 0.4317
56.0400 -37.3286 0.4323
56.0600 -37.3419 0.4326
56.0800 -37.3552 0.4330
56.1000 -37.3685 0.4348
56.1200 -37.3819 0.4349
56.1400 -37.3953 0.4377
56.1600 -37.4086 0.4382
56.1800 -37.4219 0.4377
56.2000 -37.4353 0.4419
56.2200 -37.4487 0.4423
56.2400 -37.4620 0.4440
56.2600 -37.4753 0.4446
56.2800 -37.4887 0.4462
56.3000 -37.5020 0.4441
56.3200 -37.5153 0.4495
56.3400 -37.5286 0.4465
56.3600 -37.5420 0.4467
56.3800 -37.5553 0.4490
56.4000 -37.5686 0.4507
56.4200 -37.5819 0.4513
56.4400 -37.5952 0.4533
56.4600 -37.6086 0.4546
56.4800 -37.6219 0.4543
56.5000 -37.6353 0.4561
56.5200 -37.6486 0.4572
56.5400 -37.6619 0.4576
56.5600 -37.6753 0.4611
56.5800 -37.6886 0.4620
56.6000 -37.7020 0.4624
56.6200 -37.7153 0.4661
56.6400 -37.7286 0.4667
56.6600 -37.7420 0.4670
56.6800 -37.7553 0.4698
56.7000 -37.7687 0.4694
56.7200 -37.7820 0.4706
56.7400 -37.7953 0.4738
56.7600 -37.8086 0.4718
56.7800 -37.8219 0.4726
56.8000 -37.8352 0.4743
56.8200 -37.8486 0.4746
56.8400 -37.8619 0.4733
56.8600 -37.8753 0.4770
56.8800 -37.8886 0.4762
56.9000 -37.9019 0.4773
56.9200 -37.9153 0.4786
56.9400 -37.9287 0.4806
56.9600 -37.9420 0.4782
56.9800 -37.9553 0.4806
57.0000 -37.9686 0.4826
57.0200 -37.9820 0.4840
57.0400 -37.9953 0.4850
57.0600 -38.0087 0.4855
57.0800 -38.0220 0.4869
57.1000 -38.0353 0.4890
57.1200 -38.0486 0.4902
57.1400 -38.0619 0.4890
57.1600 -38.0752 0.4935
57.1800 -38.0886 0.4932
57.2000 -38.1019 0.4959
57.2200 -38.1153 0.4957
57.2400 -38.1286 0.4988
57.2600 -38.1419 0.4979
57.2800 -38.1553 0.5007
57.3000 -38.1687 0.4998
57.3200 -38.1820 0.5015
57.3400 -38.1953 0.5009
57.3600 -38.2086 0.5026
57.3800 -38.2220 0.5016
57.4000 -38.2354 0.5047
57.4200 -38.2486 0.5057
57.4400 -38.2619 0.5065
57.4600 -38.2752 0.5067
57.4800 -38.2886 0.5097
57.5000 -38.3019 0.5083
57.5200 -38.3152 0.5112
57.5400 -38.3285 0.5101
57.5600 -38.3419 0.5107
57.5800 -38.3553 0.5133
57.6000 -38.3686 0.5146
57.6200 -38.3819 0.5138
57.6400 -38.3953 0.5173
57.6600 -38.4087 0.5190
57.6800 -38.4220 0.5181
57.7000 -38.4353 0.5207
57.7200 -38.4486 0.5213
57.7400 -38.4620 0.5219
57.7600 -38.4753 0.5261
57.7800 -38.4886 0.5248
57.8000 -38.5020 0.5244
57.8200 -38.5153 0.5289
57.8400 -38.5287 0.5306
57.8600 -38.5420 0.5297
57.8800 -38.5552 0.5296
57.9000 -38.5686 0.5326
57.9200 -38.5819 0.5322
57.9400 -38.5953 0.5344
57.9600 -38.6086 0.5352
57.9800 -38.6219 0.5350
58.0000 -38.6353 0.5378
58.0200 -38.6487 0.5386
58.0400 -38.6620 0.5373
58.0600 -38.6753 0.5413
58.0800 -38.6886 0.5421
58.1000 -38.7020 0.5435
58.1200 -38.7153 0.5446
58.1400 -38.7286 0.5461
58.1600 -38.7419 0.5450
58.1800 -38.7553 0.5476
58.2000 -38.7686 0.5487
58.2200 -38.7819 0.5467
58.2400 -38.7952 0.5476
58.2600 -38.8086 0.5495
58.2800 -38.8219 0.5507
58.3000 -38.8353 0.5537
58.3200 -38.8486 0.5559
58.3400 -38.8619 0.5538
58.3600 -38.8753 0.5574
58.3800 -38.8887 0.5601
58.4000 -38.9020 0.5608
58.4200 -38.9153 0.5623
58.4400 -38.9286 0.5653
58.4600 -38.9420 0.5655
58.4800 -38.9553 0.5690
58.5000 -38.9686 0.5698
58.5200 -38.9819 0.5702
58.5400 -38.9953 0.5715
58.5600 -39.0086 0.5759
58.5800 -39.0219 0.5734
58.6000 -39.0352 0.5758
58.6200 -39.0486 0.5753
58.6400 -39.0619 0.5768
58.6600 -39.0753 0.5773
58.6800 -39.0886 0.5808
58.7000 -39.1019 0.5820
58.7200 -39.1153 0.5816
58.7400 -39.1287 0.5843
58.7600 -39.1420 0.5822
58.7800 -39.1553 0.5869
58.8000 -39.1686 0.5870
58.8200 -39.1820 0.5868
58.8400 -39.1953 0.5894
58.8600 -39.2086 0.5911
58.8800 -39.2220 0.5922
58.9000 -39.2353 0.5947
58.9200 -39.2486 0.5951
58.9400 -39.2619 0.5971
58.9600 -39.2752 0.5975
58.9800 -39.2885 0.6021
59.0000 -39.3019 0.5986
59.0200 -39.3153 0.6042
59.0400 -39.3286 0.6048
59.0600 -39.3419 0.6065
59.0800 -39.3553 0.6066
59.1000 -39.3687 0.6114
59.1200 -39.3820 0.6095
59.1400 -39.3953 0.6126
59.1600 -39.4086 0.6141
59.1800 -39.4220 0.6140
59.2000 -39.4353 0.6153
59.2200 -39.4486 0.6165
59.2400 -39.4619 0.6178
59.2600 -39.4753 0.6199
59.2800 -39.4886 0.6238
59.3000 -39.5019 0.6214
59.3200 -39.5152 0.6236
59.3400 -39.5285 0.6245
59.3600 -39.5419 0.6242
59.3800 -39.5552 0.6268
59.4000 -39.5686 0.6295
59.4200 -39.5819 0.6261
59.4400 -39.5953 0.6275
59.4600 -39.6087 0.6306
59.4800 -39.6220 0.6332
59.5000 -39.6353 0.6330
59.5200 -39.6486 0.6362
59.5400 -39.6620 0.6360
59.5600 -39.6754 0.6372
59.5800 -39.6887 0.6392
59.6000 -39.7019 0.6393
59.6200 -39.7153 0.6396
59.6400 -39.7286 0.6444
59.6600 -39.7419 0.6430
59.6800 -39.7552 0.6450
59.7000 -39.7685 0.6469
59.7200 -39.7819 0.6471
59.7400 -39.7953 0.6459
59.7600 -39.8086 0.6490
59.7800 -39.8219 0.6484
59.8000 -39.8353 0.6531
59.8200 -39.8487 0.6532
59.8400 -39.8620 0.6552
59.8600 -39.8753 0.6558
59.8800 -39.8886 0.6595
59.9000 -39.9019 0.6598
59.9200 -39.9153 0.6623
59.9400 -39.9286 0.6646
59.9600 -39.9420 0.6655
59.9800 -39.9553 0.6662
60.0000 -39.9686 0.6689
60.0200 -39.9819 0.6697
60.0400 -39.9952 0.6700
60.0480 -40.0004 0.6757
