Raw Data
Time Displacement Force
(s) (mm) (N)
0.0000 -0.0001 -0.1531
0.0200 -0.0001 -0.1580
0.0400 -0.0020 -0.1717
0.0600 -0.0095 -0.1694
0.0800 -0.0215 -0.1584
0.1000 -0.0342 -0.1571
0.1200 -0.0470 -0.1570
0.1400 -0.0603 -0.1607
0.1600 -0.0741 -0.1575
0.1800 -0.0882 -0.1604
0.2000 -0.1020 -0.1569
0.2200 -0.1156 -0.1543
0.2400 -0.1290 -0.1555
0.2600 -0.1423 -0.1589
0.2800 -0.1556 -0.1554
0.3000 -0.1689 -0.1572
0.3200 -0.1822 -0.1560
0.3400 -0.1956 -0.1545
0.3600 -0.2089 -0.1563
0.3800 -0.2222 -0.1546
0.4000 -0.2355 -0.1555
0.4200 -0.2489 -0.1518
0.4400 -0.2623 -0.1541
0.4600 -0.2756 -0.1497
0.4800 -0.2890 -0.1520
0.5000 -0.3023 -0.1486
0.5200 -0.3157 -0.1477
0.5400 -0.3290 -0.1460
0.5600 -0.3423 -0.1499
0.5800 -0.3557 -0.1461
0.6000 -0.3690 -0.1467
0.6200 -0.3824 -0.1440
0.6400 -0.3957 -0.1417
0.6600 -0.4090 -0.1398
0.6800 -0.4223 -0.1416
0.7000 -0.4356 -0.1416
0.7200 -0.4489 -0.1397
0.7400 -0.4622 -0.1409
0.7600 -0.4756 -0.1405
0.7800 -0.4890 -0.1401
0.8000 -0.5023 -0.1415
0.8200 -0.5156 -0.1384
0.8400 -0.5290 -0.1393
0.8600 -0.5423 -0.1387
0.8800 -0.5557 -0.1383
0.9000 -0.5690 -0.1367
0.9200 -0.5823 -0.1382
0.9400 -0.5956 -0.1349
0.9600 -0.6090 -0.1338
0.9800 -0.6224 -0.1339
1.0000 -0.6357 -0.1314
1.0200 -0.6490 -0.1305
1.0400 -0.6623 -0.1319
1.0600 -0.6756 -0.1285
1.0800 -0.6889 -0.1265
1.1000 -0.7022 -0.1268
1.1200 -0.7155 -0.1244
1.1400 -0.7289 -0.1250
1.1600 -0.7423 -0.1228
1.1800 -0.7556 -0.1210
1.2000 -0.7690 -0.1200
1.2200 -0.7823 -0.1216
1.2400 -0.7957 -0.1171
1.2600 -0.8091 -0.1164
1.2800 -0.8224 -0.1175
1.3000 -0.8357 -0.1161
1.3200 -0.8490 -0.1134
1.3400 -0.8624 -0.1124
1.3600 -0.8757 -0.1099
1.3800 -0.8890 -0.1104
1.4000 -0.9023 -0.1104
1.4200 -0.9157 -0.1082
1.4400 -0.9290 -0.1057
1.4600 -0.9422 -0.1076
1.4800 -0.9556 -0.1043
1.5000 -0.9689 -0.1039
1.5200 -0.9823 -0.1032
1.5400 -0.9956 -0.1029
1.5600 -1.0089 -0.0993
1.5800 -1.0223 -0.0996
1.6000 -1.0357 -0.0956
1.6200 -1.0491 -0.0965
1.6400 -1.0624 -0.0938
1.6600 -1.0757 -0.0939
1.6800 -1.0890 -0.0914
1.7000 -1.1024 -0.0936
1.7200 -1.1157 -0.0878
1.7400 -1.1290 -0.0917
1.7600 -1.1423 -0.0919
1.7800 -1.1556 -0.0929
1.8000 -1.1690 -0.0919
1.8200 -1.1822 -0.0932
1.8400 -1.1956 -0.0911
1.8600 -1.2090 -0.0934
1.8800 -1.2223 -0.0925
1.9000 -1.2357 -0.0909
1.9200 -1.2490 -0.0905
1.9400 -1.2623 -0.0897
1.9600 -1.2757 -0.0898
1.9800 -1.2890 -0.0892
2.0000 -1.3023 -0.0904
2.0200 -1.3156 -0.0906
2.0400 -1.3290 -0.0905
2.0600 -1.3424 -0.0897
2.0800 -1.3557 -0.0872
2.1000 -1.3690 -0.0889
2.1200 -1.3823 -0.0885
2.1400 -1.3957 -0.0863
2.1600 -1.4090 -0.0866
2.1800 -1.4223 -0.0863
2.2000 -1.4356 -0.0850
2.2200 -1.4490 -0.0855
2.2400 -1.4623 -0.0858
2.2600 -1.4756 -0.0838
2.2800 -1.4890 -0.0837
2.3000 -1.5023 -0.0837
2.3200 -1.5157 -0.0811
2.3400 -1.5291 -0.0794
2.3600 -1.5424 -0.0816
2.3800 -1.5557 -0.0781
2.4000 -1.5691 -0.0814
2.4200 -1.5824 -0.0809
2.4400 -1.5957 -0.0802
2.4600 -1.6090 -0.0776
2.4800 -1.6223 -0.0785
2.5000 -1.6356 -0.0745
2.5200 -1.6490 -0.0741
2.5400 -1.6622 -0.0742
2.5600 -1.6756 -0.0746
2.5800 -1.6889 -0.0707
2.6000 -1.7023 -0.0713
2.6200 -1.7156 -0.0706
2.6400 -1.7290 -0.0716
2.6600 -1.7423 -0.0711
2.6800 -1.7557 -0.0688
2.7000 -1.7690 -0.0670
2.7200 -1.7823 -0.0691
2.7400 -1.7957 -0.0686
2.7600 -1.8090 -0.0655
2.7800 -1.8224 -0.0650
2.8000 -1.8357 -0.0637
2.8200 -1.8490 -0.0623
2.8400 -1.8623 -0.0624
2.8600 -1.8757 -0.0624
2.8800 -1.8890 -0.0611
2.9000 -1.9023 -0.0629
2.9200 -1.9156 -0.0618
2.9400 -1.9289 -0.0613
2.9600 -1.9423 -0.0590
2.9800 -1.9557 -0.0565
3.0000 -1.9690 -0.0560
3.0200 -1.9823 -0.0577
3.0400 -1.9957 -0.0562
3.0600 -2.0090 -0.0562
3.0800 -2.0223 -0.0568
3.1000 -2.0357 -0.0572
3.1200 -2.0490 -0.0555
3.1400 -2.0624 -0.0552
3.1600 -2.0757 -0.0533
3.1800 -2.0890 -0.0517
3.2000 -2.1023 -0.0502
3.2200 -2.1157 -0.0491
3.2400 -2.1290 -0.0501
3.2600 -2.1423 -0.0501
3.2800 -2.1556 -0.0494
3.3000 -2.1690 -0.0458
3.3200 -2.1823 -0.0461
3.3400 -2.1957 -0.0460
3.3600 -2.2090 -0.0440
3.3800 -2.2223 -0.0436
3.4000 -2.2357 -0.0430
3.4200 -2.2491 -0.0411
3.4400 -2.2624 -0.0423
3.4600 -2.2757 -0.0382
3.4800 -2.2890 -0.0386
3.5000 -2.3023 -0.0377
3.5200 -2.3157 -0.0359
3.5400 -2.3290 -0.0334
3.5600 -2.3423 -0.0344
3.5800 -2.3557 -0.0332
3.6000 -2.3690 -0.0336
3.6200 -2.3823 -0.0343
3.6400 -2.3956 -0.0335
3.6600 -2.4089 -0.0314
3.6800 -2.4223 -0.0320
3.7000 -2.4357 -0.0310
3.7200 -2.4490 -0.0287
3.7400 -2.4623 -0.0286
3.7600 -2.4757 -0.0274
3.7800 -2.4891 -0.0284
3.8000 -2.5024 -0.0292
3.8200 -2.5157 -0.0286
3.8400 -2.5290 -0.0261
3.8600 -2.5424 -0.0261
3.8800 -2.5557 -0.0278
3.9000 -2.5690 -0.0244
3.9200 -2.5823 -0.0261
3.9400 -2.5956 -0.0249
3.9600 -2.6090 -0.0248
3.9800 -2.6223 -0.0254
4.0000 -2.6356 -0.0264
4.0200 -2.6490 -0.0233
4.0400 -2.6623 -0.0250
4.0600 -2.6757 -0.0229
4.0800 -2.6890 -0.0223
4.1000 -2.7023 -0.0229
4.1200 -2.7157 -0.0238
4.1400 -2.7290 -0.0217
4.1600 -2.7424 -0.0210
4.1800 -2.7557 -0.0208
4.2000 -2.7690 -0.0209
4.2200 -2.7823 -0.0203
4.2400 -2.7957 -0.0194
4.2600 -2.8090 -0.0179
4.2800 -2.8223 -0.0197
4.3000 -2.8357 -0.0173
4.3200 -2.8490 -0.0173
4.3400 -2.8623 -0.0177
4.3600 -2.8756 -0.0159
4.3800 -2.8889 -0.0163
4.4000 -2.9023 -0.0168
4.4200 -2.9156 -0.0171
4.4400 -2.9289 -0.0131
4.4600 -2.9422 -0.0153
4.4800 -2.9556 -0.0120
4.5000 -2.9690 -0.0123
4.5200 -2.9824 -0.0125
4.5400 -2.9957 -0.0121
4.5600 -3.0090 -0.0096
4.5800 -3.0224 -0.0085
4.6000 -3.0357 -0.0079
4.6200 -3.0490 -0.0071
4.6400 -3.0623 -0.0083
4.6600 -3.0756 -0.0060
4.6800 -3.0890 -0.0053
4.7000 -3.1023 -0.0044
4.7200 -3.1156 -0.0034
4.7400 -3.1289 -0.0033
4.7600 -3.1423 -0.0038
4.7800 -3.1557 -0.0030
4.8000 -3.1690 -0.0007
4.8200 -3.1823 -0.0005
4.8400 -3.1957 0.0007
4.8600 -3.2091 0.0004
4.8800 -3.2224 0.0014
4.9000 -3.2357 0.0026
4.9200 -3.2490 0.0057
4.9400 -3.2623 0.0042
4.9600 -3.2757 0.0054
4.9800 -3.2890 0.0054
5.0000 -3.3023 0.0087
5.0200 -3.3157 0.0072
5.0400 -3.3290 0.0099
5.0600 -3.3423 0.0089
5.0800 -3.3556 0.0108
5.1000 -3.3689 0.0118
5.1200 -3.3823 0.0114
5.1400 -3.3956 0.0137
5.1600 -3.4090 0.0136
5.1800 -3.4223 0.0150
5.2000 -3.4356 0.0147
5.2200 -3.4490 0.0136
5.2400 -3.4624 0.0141
5.2600 -3.4757 0.0170
5.2800 -3.4890 0.0144
5.3000 -3.5024 0.0149
5.3200 -3.5157 0.0156
5.3400 -3.5290 0.0185
5.3600 -3.5423 0.0170
5.3800 -3.5557 0.0189
5.4000 -3.5690 0.0186
5.4200 -3.5823 0.0212
5.4400 -3.5956 0.0190
5.4600 -3.6089 0.0220
5.4800 -3.6223 0.0226
5.5000 -3.6356 0.0227
5.5200 -3.6489 0.0222
5.5400 -3.6623 0.0247
5.5600 -3.6756 0.0227
5.5800 -3.6890 0.0229
5.6000 -3.7024 0.0236
5.6200 -3.7157 0.0237
5.6400 -3.7290 0.0253
5.6600 -3.7424 0.0257
5.6800 -3.7557 0.0292
5.7000 -3.7690 0.0300
5.7200 -3.7823 0.0270
5.7400 -3.7957 0.0285
5.7600 -3.8090 0.0268
5.7800 -3.8223 0.0282
5.8000 -3.8356 0.0299
5.8200 -3.8489 0.0295
5.8400 -3.8623 0.0309
5.8600 -3.8757 0.0307
5.8800 -3.8890 0.0309
5.9000 -3.9023 0.0312
5.9200 -3.9156 0.0289
5.9400 -3.9290 0.0303
5.9600 -3.9424 0.0308
5.9800 -3.9557 0.0309
6.0000 -3.9690 0.0305
6.0200 -3.9824 0.0332
6.0400 -3.9957 0.0331
6.0600 -4.0091 0.0340
6.0800 -4.0224 0.0316
6.1000 -4.0357 0.0324
6.1200 -4.0490 0.0360
6.1400 -4.0623 0.0343
6.1600 -4.0756 0.0332
6.1800 -4.0889 0.0325
6.2000 -4.1023 0.0328
6.2200 -4.1156 0.0341
6.2400 -4.1290 0.0351
6.2600 -4.1423 0.0349
6.2800 -4.1556 0.0362
6.3000 -4.1690 0.0338
6.3200 -4.1823 0.0337
6.3400 -4.1956 0.0353
6.3600 -4.2090 0.0375
6.3800 -4.2223 0.0368
6.4000 -4.2357 0.0407
6.4200 -4.2490 0.0382
6.4400 -4.2623 0.0420
6.4600 -4.2757 0.0403
6.4800 -4.2890 0.0425
6.5000 -4.3023 0.0418
6.5200 -4.3156 0.0439
6.5400 -4.3289 0.0426
6.5600 -4.3423 0.0459
6.5800 -4.3556 0.0454
6.6000 -4.3690 0.0462
6.6200 -4.3823 0.0463
6.6400 -4.3956 0.0463
6.6600 -4.4090 0.0481
6.6800 -4.4224 0.0475
6.7000 -4.4357 0.0494
6.7200 -4.4490 0.0474
6.7400 -4.4624 0.0499
6.7600 -4.4757 0.0503
6.7800 -4.4890 0.0520
6.8000 -4.5023 0.0524
6.8200 -4.5156 0.0538
6.8400 -4.5289 0.0515
6.8600 -4.5423 0.0529
6.8800 -4.5556 0.0529
6.9000 -4.5689 0.0541
6.9200 -4.5823 0.0556
6.9400 -4.5956 0.0563
6.9600 -4.6090 0.0555
6.9800 -4.6223 0.0561
7.0000 -4.6357 0.0589
7.0200 -4.6490 0.0585
7.0400 -4.6624 0.0603
7.0600 -4.6757 0.0598
7.0800 -4.6890 0.0582
7.1000 -4.7024 0.0593
7.1200 -4.7157 0.0595
7.1400 -4.7290 0.0607
7.1600 -4.7423 0.0608
7.1800 -4.7557 0.0620
7.2000 -4.7690 0.0611
7.2200 -4.7824 0.0607
7.2400 -4.7957 0.0606
7.2600 -4.8089 0.0621
7.2800 -4.8223 0.0623
7.3000 -4.8356 0.0638
7.3200 -4.8490 0.0624
7.3400 -4.8623 0.0645
7.3600 -4.8756 0.0639
7.3800 -4.8890 0.0652
7.4000 -4.9024 0.0667
7.4200 -4.9157 0.0662
7.4400 -4.9290 0.0663
7.4600 -4.9423 0.0670
7.4800 -4.9557 0.0663
7.5000 -4.9690 0.0669
7.5200 -4.9823 0.0683
7.5400 -4.9957 0.0678
7.5600 -5.0090 0.0670
7.5800 -5.0223 0.0689
7.6000 -5.0356 0.0701
7.6200 -5.0489 0.0693
7.6400 -5.0623 0.0698
7.6600 -5.0756 0.0710
7.6800 -5.0890 0.0696
7.7000 -5.1023 0.0717
7.7200 -5.1156 0.0714
7.7400 -5.1290 0.0715
7.7600 -5.1424 0.0722
7.7800 -5.1557 0.0706
7.8000 -5.1690 0.0715
7.8200 -5.1823 0.0741
7.8400 -5.1957 0.0763
7.8600 -5.2090 0.0744
7.8800 -5.2223 0.0759
7.9000 -5.2356 0.0748
7.9200 -5.2490 0.0779
7.9400 -5.2623 0.0792
7.9600 -5.2756 0.0787
7.9800 -5.2889 0.0779
8.0000 -5.3023 0.0790
8.0200 -5.3157 0.0779
8.0400 -5.3290 0.0802
8.0600 -5.3423 0.0782
8.0800 -5.3557 0.0808
8.1000 -5.3690 0.0790
8.1200 -5.3824 0.0819
8.1400 -5.3957 0.0807
8.1600 -5.4090 0.0815
8.1800 -5.4223 0.0826
8.2000 -5.4357 0.0837
8.2200 -5.4490 0.0845
8.2400 -5.4623 0.0851
8.2600 -5.4757 0.0855
8.2800 -5.4890 0.0851
8.3000 -5.5023 0.0848
8.3200 -5.5156 0.0856
8.3400 -5.5289 0.0872
8.3600 -5.5422 0.0865
8.3800 -5.5556 0.0866
8.4000 -5.5690 0.0863
8.4200 -5.5823 0.0873
8.4400 -5.5956 0.0877
8.4600 -5.6090 0.0884
8.4800 -5.6224 0.0901
8.5000 -5.6357 0.0887
8.5200 -5.6490 0.0909
8.5400 -5.6624 0.0931
8.5600 -5.6757 0.0906
8.5800 -5.6891 0.0919
8.6000 -5.7024 0.0928
8.6200 -5.7157 0.0932
8.6400 -5.7290 0.0933
8.6600 -5.7423 0.0943
8.6800 -5.7556 0.0956
8.7000 -5.7689 0.0971
8.7200 -5.7822 0.0967
8.7400 -5.7956 0.0952
8.7600 -5.8089 0.0936
8.7800 -5.8223 0.0954
8.8000 -5.8356 0.0965
8.8200 -5.8490 0.0983
8.8400 -5.8624 0.0991
8.8600 -5.8757 0.1003
8.8800 -5.8890 0.0995
8.9000 -5.9024 0.1025
8.9200 -5.9157 0.1015
8.9400 -5.9291 0.1012
8.9600 -5.9424 0.1023
8.9800 -5.9557 0.1040
9.0000 -5.9690 0.1014
9.0200 -5.9823 0.1019
9.0400 -5.9956 0.1021
9.0600 -6.0089 0.1018
9.0800 -6.0223 0.1039
9.1000 -6.0357 0.1030
9.1200 -6.0490 0.1040
9.1400 -6.0623 0.1055
9.1600 -6.0757 0.1069
9.1800 -6.0890 0.1058
9.2000 -6.1024 0.1055
9.2200 -6.1157 0.1067
9.2400 -6.1289 0.1062
9.2600 -6.1423 0.1064
9.2800 -6.1556 0.1079
9.3000 -6.1690 0.1050
9.3200 -6.1823 0.1081
9.3400 -6.1956 0.1056
9.3600 -6.2090 0.1094
9.3800 -6.2224 0.1074
9.4000 -6.2357 0.1099
9.4200 -6.2489 0.1055
9.4400 -6.2623 0.1087
9.4600 -6.2756 0.1086
9.4800 -6.2890 0.1096
9.5000 -6.3023 0.1096
9.5200 -6.3157 0.1106
9.5400 -6.3290 0.1079
9.5600 -6.3424 0.1104
9.5800 -6.3557 0.1109
9.6000 -6.3690 0.1118
9.6200 -6.3823 0.1115
9.6400 -6.3957 0.1133
9.6600 -6.4091 0.1125
9.6800 -6.4224 0.1134
9.7000 -6.4357 0.1145
9.7200 -6.4490 0.1150
9.7400 -6.4623 0.1162
9.7600 -6.4756 0.1168
9.7800 -6.4889 0.1162
9.8000 -6.5022 0.1169
9.8200 -6.5156 0.1177
9.8400 -6.5290 0.1175
9.8600 -6.5423 0.1160
9.8800 -6.5556 0.1163
9.9000 -6.5690 0.1174
9.9200 -6.5824 0.1195
9.9400 -6.5957 0.1211
9.9600 -6.6090 0.1226
9.9800 -6.6223 0.1261
10.0000 -6.6357 0.1253
10.0200 -6.6490 0.1278
10.0400 -6.6623 0.1268
10.0600 -6.6757 0.1291
10.0800 -6.6890 0.1277
10.1000 -6.7024 0.1306
10.1200 -6.7157 0.1277
10.1400 -6.7289 0.1296
10.1600 -6.7423 0.1284
10.1800 -6.7556 0.1311
10.2000 -6.7690 0.1291
10.2200 -6.7823 0.1300
10.2400 -6.7956 0.1295
10.2600 -6.8090 0.1295
10.2800 -6.8223 0.1265
10.3000 -6.8357 0.1280
10.3200 -6.8490 0.1270
10.3400 -6.8623 0.1278
10.3600 -6.8757 0.1283
10.3800 -6.8890 0.1265
10.4000 -6.9024 0.1263
10.4200 -6.9157 0.1283
10.4400 -6.9290 0.1273
10.4600 -6.9424 0.1278
10.4800 -6.9557 0.1280
10.5000 -6.9689 0.1279
10.5200 -6.9823 0.1263
10.5400 -6.9956 0.1269
10.5600 -7.0090 0.1241
10.5800 -7.0223 0.1270
10.6000 -7.0356 0.1286
10.6200 -7.0490 0.1288
10.6400 -7.0624 0.1286
10.6600 -7.0757 0.1324
10.6800 -7.0890 0.1280
10.7000 -7.1023 0.1317
10.7200 -7.1156 0.1338
10.7400 -7.1290 0.1332
10.7600 -7.1423 0.1326
10.7800 -7.1556 0.1345
10.8000 -7.1689 0.1349
10.8200 -7.1823 0.1352
10.8400 -7.1957 0.1388
10.8600 -7.2090 0.1381
10.8800 -7.2223 0.1381
10.9000 -7.2357 0.1383
10.9200 -7.2490 0.1398
10.9400 -7.2623 0.1387
10.9600 -7.2756 0.1421
10.9800 -7.2890 0.1411
11.0000 -7.3024 0.1407
11.0200 -7.3157 0.1430
11.0400 -7.3290 0.1429
11.0600 -7.3423 0.1431
11.0800 -7.3557 0.1442
11.1000 -7.3690 0.1440
11.1200 -7.3823 0.1453
11.1400 -7.3956 0.1465
11.1600 -7.4089 0.1453
11.1800 -7.4223 0.1454
11.2000 -7.4356 0.1476
11.2200 -7.4489 0.1471
11.2400 -7.4623 0.1489
11.2600 -7.4756 0.1479
11.2800 -7.4890 0.1500
11.3000 -7.5023 0.1470
11.3200 -7.5156 0.1491
11.3400 -7.5290 0.1483
11.3600 -7.5424 0.1484
11.3800 -7.5557 0.1502
11.4000 -7.5690 0.1519
11.4200 -7.5823 0.1502
11.4400 -7.5957 0.1534
11.4600 -7.6090 0.1515
11.4800 -7.6224 0.1527
11.5000 -7.6357 0.1531
11.5200 -7.6490 0.1543
11.5400 -7.6624 0.1538
11.5600 -7.6757 0.1562
11.5800 -7.6890 0.1543
11.6000 -7.7023 0.1562
11.6200 -7.7156 0.1550
11.6400 -7.7289 0.1562
11.6600 -7.7423 0.1567
11.6800 -7.7556 0.1573
11.7000 -7.7690 0.1579
11.7200 -7.7824 0.1584
11.7400 -7.7957 0.1596
11.7600 -7.8090 0.1601
11.7800 -7.8223 0.1598
11.8000 -7.8357 0.1620
11.8200 -7.8491 0.1631
11.8400 -7.8624 0.1613
11.8600 -7.8757 0.1635
11.8800 -7.8890 0.1627
11.9000 -7.9023 0.1634
11.9200 -7.9156 0.1654
11.9400 -7.9289 0.1653
11.9600 -7.9423 0.1637
11.9800 -7.9556 0.1671
12.0000 -7.9690 0.1648
12.0200 -7.9823 0.1674
12.0400 -7.9956 0.1663
12.0600 -8.0090 0.1660
12.0800 -8.0224 0.1643
12.1000 -8.0357 0.1672
12.1200 -8.0490 0.1678
12.1400 -8.0623 0.1650
12.1600 -8.0756 0.1664
12.1800 -8.0890 0.1663
12.2000 -8.1023 0.1678
12.2200 -8.1157 0.1686
12.2400 -8.1290 0.1687
12.2600 -8.1423 0.1683
12.2800 -8.1557 0.1671
12.3000 -8.1690 0.1682
12.3200 -8.1823 0.1653
12.3400 -8.1956 0.1684
12.3600 -8.2090 0.1691
12.3800 -8.2223 0.1708
12.4000 -8.2356 0.1691
12.4200 -8.2490 0.1717
12.4400 -8.2623 0.1691
12.4600 -8.2757 0.1723
12.4800 -8.2890 0.1718
12.5000 -8.3024 0.1715
12.5200 -8.3157 0.1712
12.5400 -8.3291 0.1721
12.5600 -8.3424 0.1696
12.5800 -8.3557 0.1711
12.6000 -8.3690 0.1716
12.6200 -8.3823 0.1697
12.6400 -8.3956 0.1725
12.6600 -8.4089 0.1720
12.6800 -8.4222 0.1690
12.7000 -8.4356 0.1722
12.7200 -8.4489 0.1741
12.7400 -8.4623 0.1716
12.7600 -8.4756 0.1736
12.7800 -8.4889 0.1715
12.8000 -8.5023 0.1713
12.8200 -8.5157 0.1728
12.8400 -8.5290 0.1738
12.8600 -8.5423 0.1731
12.8800 -8.5557 0.1740
12.9000 -8.5690 0.1742
12.9200 -8.5824 0.1715
12.9400 -8.5957 0.1741
12.9600 -8.6090 0.1762
12.9800 -8.6224 0.1736
13.0000 -8.6357 0.1752
13.0200 -8.6490 0.1755
13.0400 -8.6623 0.1754
13.0600 -8.6756 0.1748
13.0800 -8.6890 0.1768
13.1000 -8.7023 0.1756
13.1200 -8.7156 0.1766
13.1400 -8.7289 0.1788
13.1600 -8.7423 0.1784
13.1800 -8.7557 0.1793
13.2000 -8.7690 0.1798
13.2200 -8.7823 0.1781
13.2400 -8.7957 0.1810
13.2600 -8.8090 0.1795
13.2800 -8.8224 0.1796
13.3000 -8.8357 0.1822
13.3200 -8.8490 0.1816
13.3400 -8.8624 0.1822
13.3600 -8.8757 0.1858
13.3800 -8.8890 0.1850
13.4000 -8.9023 0.1840
13.4200 -8.9156 0.1838
13.4400 -8.9290 0.1869
13.4600 -8.9423 0.1838
13.4800 -8.9556 0.1856
13.5000 -8.9689 0.1871
13.5200 -8.9823 0.1852
13.5400 -8.9957 0.1887
13.5600 -9.0090 0.1889
13.5800 -9.0223 0.1888
13.6000 -9.0356 0.1886
13.6200 -9.0490 0.1905
13.6400 -9.0624 0.1881
13.6600 -9.0757 0.1903
13.6800 -9.0890 0.1923
13.7000 -9.1023 0.1916
13.7200 -9.1157 0.1920
13.7400 -9.1290 0.1939
13.7600 -9.1423 0.1908
13.7800 -9.1556 0.1933
13.8000 -9.1690 0.1944
13.8200 -9.1823 0.1933
13.8400 -9.1956 0.1944
13.8600 -9.2089 0.1944
13.8800 -9.2223 0.1956
13.9000 -9.2357 0.1966
13.9200 -9.2490 0.1961
13.9400 -9.2624 0.1946
13.9600 -9.2757 0.1978
13.9800 -9.2891 0.1995
14.0000 -9.3024 0.1979
14.0200 -9.3157 0.1978
14.0400 -9.3290 0.1996
14.0600 -9.3423 0.1964
14.0800 -9.3556 0.2004
14.1000 -9.3689 0.2002
14.1200 -9.3822 0.1984
14.1400 -9.3956 0.1968
14.1600 -9.4089 0.1978
14.1800 -9.4223 0.1981
14.2000 -9.4356 0.2004
14.2200 -9.4490 0.1996
14.2400 -9.4623 0.1989
14.2600 -9.4757 0.1993
14.2800 -9.4891 0.2020
14.3000 -9.5023 0.1982
14.3200 -9.5157 0.1962
14.3400 -9.5290 0.1979
14.3600 -9.5424 0.1966
14.3800 -9.5557 0.1977
14.4000 -9.5690 0.1992
14.4200 -9.5823 0.1981
14.4400 -9.5957 0.1989
14.4600 -9.6090 0.2005
14.4800 -9.6223 0.1998
14.5000 -9.6356 0.1984
14.5200 -9.6490 0.2009
14.5400 -9.6623 0.1984
14.5600 -9.6756 0.1997
14.5800 -9.6889 0.2006
14.6000 -9.7023 0.2006
14.6200 -9.7157 0.1993
14.6400 -9.7290 0.2020
14.6600 -9.7423 0.1995
14.6800 -9.7557 0.2027
14.7000 -9.7690 0.2033
14.7200 -9.7824 0.2052
14.7400 -9.7957 0.2036
14.7600 -9.8090 0.2055
14.7800 -9.8223 0.2025
14.8000 -9.8357 0.2043
14.8200 -9.8490 0.2070
14.8400 -9.8622 0.2067
14.8600 -9.8756 0.2084
14.8800 -9.8889 0.2088
14.9000 -9.9023 0.2087
14.9200 -9.9157 0.2083
14.9400 -9.9290 0.2122
14.9600 -9.9423 0.2091
14.9800 -9.9557 0.2077
15.0000 -9.9690 0.2085
15.0200 -9.9823 0.2100
15.0400 -9.9957 0.2108
15.0600 -10.0090 0.2137
15.0800 -10.0224 0.2101
15.1000 -10.0357 0.2109
15.1200 -10.0490 0.2129
15.1400 -10.0623 0.2118
15.1600 -10.0756 0.2129
15.1800 -10.0889 0.2151
15.2000 -10.1022 0.2143
15.2200 -10.1156 0.2133
15.2400 -10.1290 0.2153
15.2600 -10.1423 0.2165
15.2800 -10.1557 0.2168
15.3000 -10.1690 0.2190
15.3200 -10.1823 0.2168
15.3400 -10.1957 0.2181
15.3600 -10.2091 0.2205
15.3800 -10.2224 0.2193
15.4000 -10.2357 0.2165
15.4200 -10.2490 0.2187
15.4400 -10.2624 0.2180
15.4600 -10.2757 0.2190
15.4800 -10.2890 0.2199
15.5000 -10.3023 0.2205
15.5200 -10.3157 0.2201
15.5400 -10.3290 0.2236
15.5600 -10.3423 0.2207
15.5800 -10.3556 0.2216
15.6000 -10.3689 0.2233
15.6200 -10.3823 0.2231
15.6400 -10.3956 0.2214
15.6600 -10.4089 0.2233
15.6800 -10.4223 0.2234
15.7000 -10.4357 0.2253
15.7200 -10.4491 0.2270
15.7400 -10.4624 0.2244
15.7600 -10.4757 0.2243
15.7800 -10.4890 0.2250
15.8000 -10.5024 0.2264
15.8200 -10.5157 0.2250
15.8400 -10.5290 0.2253
15.8600 -10.5423 0.2250
15.8800 -10.5557 0.2242
15.9000 -10.5690 0.2259
15.9200 -10.5823 0.2245
15.9400 -10.5956 0.2260
15.9600 -10.6089 0.2302
15.9800 -10.6223 0.2285
16.0000 -10.6356 0.2287
16.0200 -10.6489 0.2299
16.0400 -10.6623 0.2304
16.0600 -10.6757 0.2268
16.0800 -10.6891 0.2322
16.1000 -10.7024 0.2273
16.1200 -10.7157 0.2294
16.1400 -10.7290 0.2305
16.1600 -10.7424 0.2320
16.1800 -10.7557 0.2311
16.2000 -10.7690 0.2346
16.2200 -10.7823 0.2295
16.2400 -10.7956 0.2320
16.2600 -10.8090 0.2341
16.2800 -10.8222 0.2348
16.3000 -10.8356 0.2326
16.3200 -10.8489 0.2341
16.3400 -10.8623 0.2350
16.3600 -10.8757 0.2349
16.3800 -10.8890 0.2356
16.4000 -10.9023 0.2344
16.4200 -10.9157 0.2338
16.4400 -10.9290 0.2367
16.4600 -10.9423 0.2367
16.4800 -10.9556 0.2362
16.5000 -10.9690 0.2390
16.5200 -10.9823 0.2396
16.5400 -10.9957 0.2399
16.5600 -11.0090 0.2437
16.5800 -11.0223 0.2391
16.6000 -11.0357 0.2392
16.6200 -11.0490 0.2401
16.6400 -11.0623 0.2406
16.6600 -11.0756 0.2403
16.6800 -11.0890 0.2442
16.7000 -11.1023 0.2407
16.7200 -11.1156 0.2407
16.7400 -11.1290 0.2431
16.7600 -11.1423 0.2421
16.7800 -11.1557 0.2434
16.8000 -11.1691 0.2438
16.8200 -11.1824 0.2432
16.8400 -11.1957 0.2435
16.8600 -11.2090 0.2467
16.8800 -11.2224 0.2443
16.9000 -11.2357 0.2456
16.9200 -11.2490 0.2480
16.9400 -11.2623 0.2487
16.9600 -11.2757 0.2459
16.9800 -11.2890 0.2504
17.0000 -11.3023 0.2485
17.0200 -11.3156 0.2491
17.0400 -11.3289 0.2500
17.0600 -11.3423 0.2508
17.0800 -11.3556 0.2501
17.1000 -11.3690 0.2528
17.1200 -11.3823 0.2523
17.1400 -11.3957 0.2524
17.1600 -11.4090 0.2525
17.1800 -11.4224 0.2539
17.2000 -11.4357 0.2507
17.2200 -11.4490 0.2560
17.2400 -11.4624 0.2527
17.2600 -11.4757 0.2539
17.2800 -11.4890 0.2549
17.3000 -11.5023 0.2558
17.3200 -11.5157 0.2526
17.3400 -11.5290 0.2581
17.3600 -11.5423 0.2571
17.3800 -11.5556 0.2569
17.4000 -11.5689 0.2567
17.4200 -11.5823 0.2558
17.4400 -11.5957 0.2573
17.4600 -11.6090 0.2568
17.4800 -11.6223 0.2583
17.5000 -11.6356 0.2572
17.5200 -11.6490 0.2598
17.5400 -11.6623 0.2588
17.5600 -11.6756 0.2592
17.5800 -11.6890 0.2598
17.6000 -11.7023 0.2583
17.6200 -11.7157 0.2572
17.6400 -11.7290 0.2590
17.6600 -11.7423 0.2585
17.6800 -11.7557 0.2583
17.7000 -11.7690 0.2610
17.7200 -11.7823 0.2598
17.7400 -11.7956 0.2581
17.7600 -11.8089 0.2604
17.7800 -11.8223 0.2584
17.8000 -11.8356 0.2576
17.8200 -11.8490 0.2617
17.8400 -11.8623 0.2600
17.8600 -11.8757 0.2596
17.8800 -11.8891 0.2601
17.9000 -11.9024 0.2588
17.9200 -11.9157 0.2567
17.9400 -11.9290 0.2581
17.9600 -11.9423 0.2590
17.9800 -11.9557 0.2576
18.0000 -11.9690 0.2585
18.0200 -11.9823 0.2587
18.0400 -11.9957 0.2585
18.0600 -12.0090 0.2604
18.0800 -12.0223 0.2597
18.1000 -12.0356 0.2566
18.1200 -12.0489 0.2600
18.1400 -12.0623 0.2591
18.1600 -12.0757 0.2589
18.1800 -12.0890 0.2589
18.2000 -12.1023 0.2591
18.2200 -12.1157 0.2586
18.2400 -12.1290 0.2610
18.2600 -12.1424 0.2606
18.2800 -12.1557 0.2577
18.3000 -12.1690 0.2612
18.3200 -12.1824 0.2603
18.3400 -12.1957 0.2610
18.3600 -12.2090 0.2608
18.3800 -12.2223 0.2605
18.4000 -12.2356 0.2593
18.4200 -12.2490 0.2634
18.4400 -12.2623 0.2620
18.4600 -12.2756 0.2625
18.4800 -12.2889 0.2620
18.5000 -12.3023 0.2646
18.5200 -12.3157 0.2633
18.5400 -12.3290 0.2653
18.5600 -12.3423 0.2649
18.5800 -12.3557 0.2621
18.6000 -12.3690 0.2655
18.6200 -12.3824 0.2656
18.6400 -12.3957 0.2659
18.6600 -12.4090 0.2670
18.6800 -12.4223 0.2669
18.7000 -12.4357 0.2672
18.7200 -12.4490 0.2687
18.7400 -12.4623 0.2690
18.7600 -12.4757 0.2694
18.7800 -12.4890 0.2710
18.8000 -12.5023 0.2716
18.8200 -12.5156 0.2697
18.8400 -12.5289 0.2727
18.8600 -12.5423 0.2716
18.8800 -12.5556 0.2724
18.9000 -12.5689 0.2742
18.9200 -12.5823 0.2750
18.9400 -12.5956 0.2729
18.9600 -12.6090 0.2738
18.9800 -12.6224 0.2751
19.0000 -12.6357 0.2746
19.0200 -12.6490 0.2769
19.0400 -12.6624 0.2799
19.0600 -12.6757 0.2791
19.0800 -12.6891 0.2806
19.1000 -12.7023 0.2799
19.1200 -12.7156 0.2793
19.1400 -12.7290 0.2808
19.1600 -12.7423 0.2825
19.1800 -12.7556 0.2813
19.2000 -12.7689 0.2836
19.2200 -12.7823 0.2837
19.2400 -12.7957 0.2818
19.2600 -12.8090 0.2807
19.2800 -12.8223 0.2825
19.3000 -12.8357 0.2792
19.3200 -12.8490 0.2825
19.3400 -12.8624 0.2834
19.3600 -12.8757 0.2831
19.3800 -12.8890 0.2855
19.4000 -12.9023 0.2876
19.4200 -12.9157 0.2858
19.4400 -12.9290 0.2855
19.4600 -12.9423 0.2884
19.4800 -12.9556 0.2872
19.5000 -12.9690 0.2871
19.5200 -12.9823 0.2896
19.5400 -12.9956 0.2856
19.5600 -13.0089 0.2884
19.5800 -13.0223 0.2911
19.6000 -13.0356 0.2869
19.6200 -13.0490 0.2897
19.6400 -13.0623 0.2899
19.6600 -13.0757 0.2867
19.6800 -13.0890 0.2894
19.7000 -13.1024 0.2899
19.7200 -13.1157 0.2897
19.7400 -13.1290 0.2904
19.7600 -13.1424 0.2884
19.7800 -13.1557 0.2884
19.8000 -13.1690 0.2866
19.8200 -13.1823 0.2887
19.8400 -13.1957 0.2856
19.8600 -13.2090 0.2886
19.8800 -13.2223 0.2872
19.9000 -13.2356 0.2880
19.9200 -13.2489 0.2857
19.9400 -13.2622 0.2882
19.9600 -13.2756 0.2840
19.9800 -13.2890 0.2876
20.0000 -13.3023 0.2874
20.0200 -13.3156 0.2872
20.0400 -13.3290 0.2884
20.0600 -13.3424 0.2882
20.0800 -13.3557 0.2865
20.1000 -13.3690 0.2867
20.1200 -13.3824 0.2868
20.1400 -13.3957 0.2875
20.1600 -13.4090 0.2888
20.1800 -13.4223 0.2900
20.2000 -13.4357 0.2881
20.2200 -13.4490 0.2886
20.2400 -13.4623 0.2894
20.2600 -13.4756 0.2895
20.2800 -13.4889 0.2881
20.3000 -13.5023 0.2915
20.3200 -13.5157 0.2895
20.3400 -13.5290 0.2901
20.3600 -13.5423 0.2895
20.3800 -13.5556 0.2893
20.4000 -13.5690 0.2917
20.4200 -13.5823 0.2933
20.4400 -13.5957 0.2903
20.4600 -13.6090 0.2909
20.4800 -13.6223 0.2945
20.5000 -13.6357 0.2931
20.5200 -13.6490 0.2950
20.5400 -13.6624 0.2944
20.5600 -13.6757 0.2958
20.5800 -13.6890 0.2952
20.6000 -13.7023 0.3001
20.6200 -13.7156 0.2976
20.6400 -13.7289 0.2982
20.6600 -13.7423 0.2987
20.6800 -13.7556 0.2995
20.7000 -13.7690 0.2989
20.7200 -13.7823 0.3018
20.7400 -13.7956 0.2992
20.7600 -13.8090 0.3014
20.7800 -13.8224 0.3033
20.8000 -13.8357 0.3020
20.8200 -13.8490 0.3016
20.8400 -13.8623 0.3048
20.8600 -13.8757 0.3041
20.8800 -13.8891 0.3053
20.9000 -13.9024 0.3077
20.9200 -13.9157 0.3075
20.9400 -13.9290 0.3059
20.9600 -13.9424 0.3109
20.9800 -13.9556 0.3068
21.0000 -13.9689 0.3096
21.0200 -13.9823 0.3096
21.0400 -13.9956 0.3099
21.0600 -14.0090 0.3084
21.0800 -14.0223 0.3125
21.1000 -14.0356 0.3100
21.1200 -14.0490 0.3106
21.1400 -14.0624 0.3124
21.1600 -14.0757 0.3103
21.1800 -14.0890 0.3106
21.2000 -14.1024 0.3150
21.2200 -14.1157 0.3122
21.2400 -14.1291 0.3126
21.2600 -14.1423 0.3157
21.2800 -14.1556 0.3134
21.3000 -14.1690 0.3158
21.3200 -14.1823 0.3173
21.3400 -14.1956 0.3155
21.3600 -14.2089 0.3152
21.3800 -14.2222 0.3170
21.4000 -14.2356 0.3171
21.4200 -14.2490 0.3186
21.4400 -14.2623 0.3194
21.4600 -14.2756 0.3199
21.4800 -14.2890 0.3180
21.5000 -14.3024 0.3213
21.5200 -14.3157 0.3190
21.5400 -14.3290 0.3170
21.5600 -14.3423 0.3177
21.5800 -14.3557 0.3181
21.6000 -14.3690 0.3189
21.6200 -14.3824 0.3208
21.6400 -14.3957 0.3173
21.6600 -14.4090 0.3199
21.6800 -14.4224 0.3210
21.7000 -14.4357 0.3215
21.7200 -14.4489 0.3195
21.7400 -14.4623 0.3211
21.7600 -14.4756 0.3192
21.7800 -14.4890 0.3190
21.8000 -14.5023 0.3207
21.8200 -14.5156 0.3205
21.8400 -14.5290 0.3200
21.8600 -14.5424 0.3196
21.8800 -14.5557 0.3190
21.9000 -14.5690 0.3207
21.9200 -14.5823 0.3217
21.9400 -14.5957 0.3213
21.9600 -14.6090 0.3205
21.9800 -14.6223 0.3244
22.0000 -14.6356 0.3239
22.0200 -14.6490 0.3257
22.0400 -14.6623 0.3276
22.0600 -14.6756 0.3249
22.0800 -14.6889 0.3238
22.1000 -14.7023 0.3287
22.1200 -14.7156 0.3259
22.1400 -14.7290 0.3291
22.1600 -14.7423 0.3267
22.1800 -14.7556 0.3277
22.2000 -14.7690 0.3278
22.2200 -14.7824 0.3302
22.2400 -14.7957 0.3298
22.2600 -14.8090 0.3279
22.2800 -14.8223 0.3270
22.3000 -14.8357 0.3279
22.3200 -14.8490 0.3292
22.3400 -14.8623 0.3304
22.3600 -14.8756 0.3300
22.3800 -14.8890 0.3296
22.4000 -14.9023 0.3315
22.4200 -14.9156 0.3286
22.4400 -14.9289 0.3303
22.4600 -14.9423 0.3307
22.4800 -14.9556 0.3315
22.5000 -14.9690 0.3276
22.5200 -14.9823 0.3324
22.5400 -14.9957 0.3317
22.5600 -15.0090 0.3322
22.5800 -15.0224 0.3326
22.6000 -15.0357 0.3331
22.6200 -15.0490 0.3331
22.6400 -15.0623 0.3334
22.6600 -15.0757 0.3332
22.6800 -15.0890 0.3346
22.7000 -15.1024 0.3339
22.7200 -15.1157 0.3322
22.7400 -15.1290 0.3321
22.7600 -15.1423 0.3346
22.7800 -15.1556 0.3337
22.8000 -15.1689 0.3326
22.8200 -15.1822 0.3351
22.8400 -15.1956 0.3342
22.8600 -15.2090 0.3318
22.8800 -15.2223 0.3360
22.9000 -15.2356 0.3354
22.9200 -15.2490 0.3367
22.9400 -15.2624 0.3389
22.9600 -15.2757 0.3359
22.9800 -15.2890 0.3360
23.0000 -15.3024 0.3373
23.0200 -15.3157 0.3355
23.0400 -15.3291 0.3375
23.0600 -15.3424 0.3383
23.0800 -15.3557 0.3391
23.1000 -15.3690 0.3401
23.1200 -15.3823 0.3402
23.1400 -15.3956 0.3387
23.1600 -15.4089 0.3382
23.1800 -15.4222 0.3414
23.2000 -15.4356 0.3394
23.2200 -15.4489 0.3395
23.2400 -15.4623 0.3397
23.2600 -15.4756 0.3415
23.2800 -15.4890 0.3404
23.3000 -15.5024 0.3423
23.3200 -15.5157 0.3421
23.3400 -15.5290 0.3404
23.3600 -15.5424 0.3425
23.3800 -15.5557 0.3422
23.4000 -15.5691 0.3433
23.4200 -15.5824 0.3441
23.4400 -15.5957 0.3444
23.4600 -15.6090 0.3444
23.4800 -15.6223 0.3473
23.5000 -15.6356 0.3456
23.5200 -15.6489 0.3464
23.5400 -15.6623 0.3459
23.5600 -15.6756 0.3477
23.5800 -15.6890 0.3457
23.6000 -15.7023 0.3475
23.6200 -15.7156 0.3465
23.6400 -15.7290 0.3474
23.6600 -15.7424 0.3477
23.6800 -15.7557 0.3491
23.7000 -15.7690 0.3485
23.7200 -15.7823 0.3515
23.7400 -15.7956 0.3508
23.7600 -15.8090 0.3516
23.7800 -15.8223 0.3500
23.8000 -15.8357 0.3505
23.8200 -15.8490 0.3492
23.8400 -15.8624 0.3521
23.8600 -15.8757 0.3532
23.8800 -15.8890 0.3533
23.9000 -15.9023 0.3521
23.9200 -15.9156 0.3516
23.9400 -15.9290 0.3516
23.9600 -15.9423 0.3555
23.9800 -15.9556 0.3541
24.0000 -15.9690 0.3541
24.0200 -15.9824 0.3536
24.0400 -15.9957 0.3528
24.0600 -16.0090 0.3528
24.0800 -16.0224 0.3554
24.1000 -16.0357 0.3564
24.1200 -16.0491 0.3534
24.1400 -16.0624 0.3542
24.1600 -16.0757 0.3551
24.1800 -16.0890 0.3556
24.2000 -16.1023 0.3561
24.2200 -16.1156 0.3574
24.2400 -16.1289 0.3576
24.2600 -16.1422 0.3581
24.2800 -16.1556 0.3583
24.3000 -16.1690 0.3573
24.3200 -16.1823 0.3585
24.3400 -16.1956 0.3588
24.3600 -16.2090 0.3605
24.3800 -16.2224 0.3611
24.4000 -16.2357 0.3613
24.4200 -16.2490 0.3619
24.4400 -16.2623 0.3605
24.4600 -16.2757 0.3624
24.4800 -16.2890 0.3604
24.5000 -16.3024 0.3648
24.5200 -16.3157 0.3646
24.5400 -16.3290 0.3657
24.5600 -16.3424 0.3644
24.5800 -16.3557 0.3653
24.6000 -16.3689 0.3646
24.6200 -16.3822 0.3675
24.6400 -16.3956 0.3646
24.6600 -16.4089 0.3665
24.6800 -16.4223 0.3650
24.7000 -16.4356 0.3681
24.7200 -16.4490 0.3658
24.7400 -16.4623 0.3681
24.7600 -16.4757 0.3678
24.7800 -16.4890 0.3682
24.8000 -16.5023 0.3689
24.8200 -16.5157 0.3700
24.8400 -16.5290 0.3694
24.8600 -16.5424 0.3713
24.8800 -16.5557 0.3699
24.9000 -16.5690 0.3701
24.9200 -16.5824 0.3703
24.9400 -16.5957 0.3724
24.9600 -16.6090 0.3710
24.9800 -16.6223 0.3713
25.0000 -16.6356 0.3707
25.0200 -16.6490 0.3715
25.0400 -16.6623 0.3743
25.0600 -16.6757 0.3738
25.0800 -16.6890 0.3742
25.1000 -16.7024 0.3745
25.1200 -16.7157 0.3740
25.1400 -16.7290 0.3734
25.1600 -16.7423 0.3754
25.1800 -16.7557 0.3745
25.2000 -16.7690 0.3760
25.2200 -16.7823 0.3772
25.2400 -16.7957 0.3772
25.2600 -16.8090 0.3768
25.2800 -16.8223 0.3771
25.3000 -16.8356 0.3767
25.3200 -16.8489 0.3806
25.3400 -16.8623 0.3795
25.3600 -16.8756 0.3816
25.3800 -16.8890 0.3819
25.4000 -16.9023 0.3826
25.4200 -16.9156 0.3800
25.4400 -16.9289 0.3810
25.4600 -16.9423 0.3786
25.4800 -16.9557 0.3828
25.5000 -16.9690 0.3816
25.5200 -16.9823 0.3838
25.5400 -16.9957 0.3825
25.5600 -17.0090 0.3850
25.5800 -17.0223 0.3860
25.6000 -17.0356 0.3849
25.6200 -17.0489 0.3856
25.6400 -17.0623 0.3867
25.6600 -17.0756 0.3863
25.6800 -17.0890 0.3885
25.7000 -17.1023 0.3863
25.7200 -17.1156 0.3871
25.7400 -17.1290 0.3844
25.7600 -17.1423 0.3869
25.7800 -17.1556 0.3887
25.8000 -17.1690 0.3879
25.8200 -17.1823 0.3872
25.8400 -17.1957 0.3879
25.8600 -17.2090 0.3873
25.8800 -17.2223 0.3887
25.9000 -17.2356 0.3889
25.9200 -17.2490 0.3882
25.9400 -17.2624 0.3885
25.9600 -17.2757 0.3908
25.9800 -17.2890 0.3888
26.0000 -17.3024 0.3899
26.0200 -17.3157 0.3903
26.0400 -17.3290 0.3881
26.0600 -17.3423 0.3893
26.0800 -17.3556 0.3895
26.1000 -17.3689 0.3918
26.1200 -17.3823 0.3911
26.1400 -17.3956 0.3907
26.1600 -17.4089 0.3917
26.1800 -17.4223 0.3930
26.2000 -17.4357 0.3927
26.2200 -17.4490 0.3910
26.2400 -17.4623 0.3926
26.2600 -17.4757 0.3938
26.2800 -17.4891 0.3933
26.3000 -17.5024 0.3936
26.3200 -17.5157 0.3942
26.3400 -17.5290 0.3940
26.3600 -17.5423 0.3951
26.3800 -17.5557 0.3964
26.4000 -17.5690 0.3953
26.4200 -17.5823 0.3962
26.4400 -17.5956 0.3944
26.4600 -17.6090 0.3977
26.4800 -17.6224 0.3978
26.5000 -17.6357 0.3990
26.5200 -17.6490 0.3977
26.5400 -17.6624 0.3971
26.5600 -17.6757 0.3983
26.5800 -17.6890 0.3968
26.6000 -17.7023 0.3973
26.6200 -17.7156 0.4004
26.6400 -17.7290 0.3999
26.6600 -17.7424 0.4002
26.6800 -17.7557 0.3994
26.7000 -17.7690 0.3993
26.7200 -17.7823 0.4015
26.7400 -17.7957 0.4006
26.7600 -17.8090 0.4014
26.7800 -17.8223 0.3999
26.8000 -17.8356 0.4028
26.8200 -17.8490 0.4015
26.8400 -17.8623 0.4029
26.8600 -17.8756 0.4034
26.8800 -17.8890 0.4043
26.9000 -17.9023 0.4033
26.9200 -17.9157 0.4042
26.9400 -17.9290 0.4037
26.9600 -17.9423 0.4049
26.9800 -17.9557 0.4040
27.0000 -17.9690 0.4049
27.0200 -17.9824 0.4058
27.0400 -17.9957 0.4058
27.0600 -18.0090 0.4060
27.0800 -18.0223 0.4093
27.1000 -18.0357 0.4089
27.1200 -18.0490 0.4091
27.1400 -18.0622 0.4064
27.1600 -18.0756 0.4070
27.1800 -18.0889 0.4055
27.2000 -18.1023 0.4078
27.2200 -18.1156 0.4078
27.2400 -18.1289 0.4072
27.2600 -18.1423 0.4087
27.2800 -18.1557 0.4084
27.3000 -18.1691 0.4092
27.3200 -18.1824 0.4088
27.3400 -18.1957 0.4095
27.3600 -18.2091 0.4103
27.3800 -18.2224 0.4109
27.4000 -18.2357 0.4111
27.4200 -18.2490 0.4122
27.4400 -18.2623 0.4119
27.4600 -18.2757 0.4139
27.4800 -18.2890 0.4143
27.5000 -18.3023 0.4136
27.5200 -18.3156 0.4134
27.5400 -18.3290 0.4164
27.5600 -18.3423 0.4146
27.5800 -18.3556 0.4178
27.6000 -18.3689 0.4185
27.6200 -18.3823 0.4181
27.6400 -18.3957 0.4194
27.6600 -18.4090 0.4213
27.6800 -18.4223 0.4188
27.7000 -18.4356 0.4208
27.7200 -18.4490 0.4204
27.7400 -18.4624 0.4200
27.7600 -18.4757 0.4216
27.7800 -18.4890 0.4223
27.8000 -18.5024 0.4215
27.8200 -18.5157 0.4246
27.8400 -18.5290 0.4241
27.8600 -18.5423 0.4242
27.8800 -18.5556 0.4227
27.9000 -18.5689 0.4233
27.9200 -18.5823 0.4232
27.9400 -18.5956 0.4235
27.9600 -18.6089 0.4235
27.9800 -18.6223 0.4256
28.0000 -18.6357 0.4254
28.0200 -18.6490 0.4249
28.0400 -18.6623 0.4268
28.0600 -18.6756 0.4270
28.0800 -18.6890 0.4280
28.1000 -18.7024 0.4293
28.1200 -18.7157 0.4276
28.1400 -18.7290 0.4284
28.1600 -18.7423 0.4289
28.1800 -18.7557 0.4296
28.2000 -18.7690 0.4310
28.2200 -18.7823 0.4300
28.2400 -18.7956 0.4315
28.2600 -18.8090 0.4308
28.2800 -18.8223 0.4309
28.3000 -18.8356 0.4282
28.3200 -18.8489 0.4306
28.3400 -18.8623 0.4309
28.3600 -18.8757 0.4316
28.3800 -18.8891 0.4339
28.4000 -18.9024 0.4342
28.4200 -18.9157 0.4325
28.4400 -18.9290 0.4313
28.4600 -18.9424 0.4320
28.4800 -18.9557 0.4331
28.5000 -18.9690 0.4339
28.5200 -18.9823 0.4341
28.5400 -18.9956 0.4324
28.5600 -19.0089 0.4360
28.5800 -19.0222 0.4364
28.6000 -19.0356 0.4352
28.6200 -19.0489 0.4344
28.6400 -19.0623 0.4362
28.6600 -19.0756 0.4369
28.6800 -19.0890 0.4395
28.7000 -19.1023 0.4385
28.7200 -19.1157 0.4394
28.7400 -19.1291 0.4392
28.7600 -19.1424 0.4409
28.7800 -19.1557 0.4404
28.8000 -19.1690 0.4413
28.8200 -19.1824 0.4418
28.8400 -19.1957 0.4411
28.8600 -19.2090 0.4438
28.8800 -19.2224 0.4442
28.9000 -19.2357 0.4439
28.9200 -19.2490 0.4429
28.9400 -19.2623 0.4408
28.9600 -19.2756 0.4417
28.9800 -19.2889 0.4416
29.0000 -19.3023 0.4426
29.0200 -19.3156 0.4441
29.0400 -19.3289 0.4443
29.0600 -19.3423 0.4435
29.0800 -19.3557 0.4423
29.1000 -19.3690 0.4430
29.1200 -19.3823 0.4432
29.1400 -19.3957 0.4403
29.1600 -19.4090 0.4442
29.1800 -19.4224 0.4447
29.2000 -19.4357 0.4433
29.2200 -19.4490 0.4472
29.2400 -19.4623 0.4468
29.2600 -19.4757 0.4476
29.2800 -19.4890 0.4469
29.3000 -19.5023 0.4493
29.3200 -19.5156 0.4489
29.3400 -19.5289 0.4521
29.3600 -19.5423 0.4501
29.3800 -19.5557 0.4516
29.4000 -19.5690 0.4518
29.4200 -19.5823 0.4546
29.4400 -19.5957 0.4538
29.4600 -19.6090 0.4567
29.4800 -19.6224 0.4561
29.5000 -19.6357 0.4569
29.5200 -19.6490 0.4577
29.5400 -19.6624 0.4594
29.5600 -19.6757 0.4572
29.5800 -19.6890 0.4583
29.6000 -19.7023 0.4593
29.6200 -19.7156 0.4581
29.6400 -19.7290 0.4567
29.6600 -19.7422 0.4592
29.6800 -19.7556 0.4574
29.7000 -19.7689 0.4598
29.7200 -19.7823 0.4588
29.7400 -19.7957 0.4377
29.7600 -19.8090 0.3873
29.7800 -19.8223 0.3262
29.8000 -19.8357 0.2668
29.8200 -19.8491 0.2147
29.8400 -19.8624 0.1601
29.8600 -19.8757 0.1093
29.8800 -19.8890 0.0612
29.9000 -19.9024 0.0176
29.9200 -19.9157 -0.0279
29.9400 -19.9290 -0.0674
29.9600 -19.9423 -0.0980
29.9800 -19.9557 -0.1080
30.0000 -19.9690 -0.1034
30.0200 -19.9823 -0.1071
30.0400 -19.9956 -0.0990
30.0600 -20.0089 -0.0890
30.0800 -20.0223 -0.1012
30.1000 -20.0356 -0.1469
30.1200 -20.0490 -0.1928
30.1400 -20.0623 -0.2395
30.1600 -20.0757 -0.2840
30.1800 -20.0891 -0.3273
30.2000 -20.1024 -0.3621
30.2200 -20.1157 -0.3779
30.2400 -20.1290 -0.3754
30.2600 -20.1424 -0.3732
30.2800 -20.1557 -0.3715
30.3000 -20.1690 -0.3701
30.3200 -20.1823 -0.3710
30.3400 -20.1957 -0.3713
30.3600 -20.2090 -0.3701
30.3800 -20.2223 -0.3707
30.4000 -20.2356 -0.3706
30.4200 -20.2489 -0.3706
30.4400 -20.2623 -0.3689
30.4600 -20.2756 -0.3704
30.4800 -20.2889 -0.3671
30.5000 -20.3023 -0.3673
30.5200 -20.3157 -0.3667
30.5400 -20.3291 -0.3658
30.5600 -20.3424 -0.3644
30.5800 -20.3557 -0.3642
30.6000 -20.3690 -0.3629
30.6200 -20.3824 -0.3641
30.6400 -20.3957 -0.3630
30.6600 -20.4090 -0.3619
30.6800 -20.4223 -0.3615
30.7000 -20.4357 -0.3610
30.7200 -20.4490 -0.3603
30.7400 -20.4623 -0.3582
30.7600 -20.4756 -0.3592
30.7800 -20.4889 -0.3569
30.8000 -20.5023 -0.3571
30.8200 -20.5157 -0.3564
30.8400 -20.5290 -0.3574
30.8600 -20.5423 -0.3539
30.8800 -20.5557 -0.3544
30.9000 -20.5690 -0.3526
30.9200 -20.5823 -0.3535
30.9400 -20.5956 -0.3537
30.9600 -20.6089 -0.3530
30.9800 -20.6223 -0.3504
31.0000 -20.6357 -0.3522
31.0200 -20.6490 -0.3517
31.0400 -20.6623 -0.3487
31.0600 -20.6757 -0.3487
31.0800 -20.6890 -0.3464
31.1000 -20.7023 -0.3444
31.1200 -20.7156 -0.3429
31.1400 -20.7289 -0.3422
31.1600 -20.7423 -0.3411
31.1800 -20.7556 -0.3401
31.2000 -20.7690 -0.3419
31.2200 -20.7823 -0.3399
31.2400 -20.7957 -0.3396
31.2600 -20.8091 -0.3373
31.2800 -20.8224 -0.3378
31.3000 -20.8357 -0.3406
31.3200 -20.8490 -0.3389
31.3400 -20.8624 -0.3359
31.3600 -20.8757 -0.3380
31.3800 -20.8890 -0.3338
31.4000 -20.9023 -0.3338
31.4200 -20.9156 -0.3332
31.4400 -20.9290 -0.3336
31.4600 -20.9423 -0.3313
31.4800 -20.9556 -0.3328
31.5000 -20.9689 -0.3321
31.5200 -20.9823 -0.3297
31.5400 -20.9957 -0.3302
31.5600 -21.0090 -0.3272
31.5800 -21.0223 -0.3283
31.6000 -21.0357 -0.3273
31.6200 -21.0491 -0.3257
31.6400 -21.0624 -0.3245
31.6600 -21.0757 -0.3263
31.6800 -21.0890 -0.3248
31.7000 -21.1024 -0.3230
31.7200 -21.1157 -0.3238
31.7400 -21.1290 -0.3231
31.7600 -21.1423 -0.3196
31.7800 -21.1557 -0.3190
31.8000 -21.1690 -0.3182
31.8200 -21.1823 -0.3182
31.8400 -21.1956 -0.3192
31.8600 -21.2089 -0.3186
31.8800 -21.2223 -0.3154
31.9000 -21.2357 -0.3159
31.9200 -21.2490 -0.3155
31.9400 -21.2623 -0.3136
31.9600 -21.2757 -0.3146
31.9800 -21.2890 -0.3109
32.0000 -21.3024 -0.3111
32.0200 -21.3157 -0.3128
32.0400 -21.3290 -0.3146
32.0600 -21.3423 -0.3117
32.0800 -21.3557 -0.3128
32.1000 -21.3690 -0.3107
32.1200 -21.3823 -0.3086
32.1400 -21.3957 -0.3098
32.1600 -21.4090 -0.3110
32.1800 -21.4223 -0.3059
32.2000 -21.4356 -0.3082
32.2200 -21.4489 -0.3074
32.2400 -21.4623 -0.3057
32.2600 -21.4757 -0.3051
32.2800 -21.4890 -0.3045
32.3000 -21.5023 -0.3020
32.3200 -21.5157 -0.3029
32.3400 -21.5291 -0.3039
32.3600 -21.5424 -0.3012
32.3800 -21.5557 -0.3029
32.4000 -21.5690 -0.3016
32.4200 -21.5823 -0.3003
32.4400 -21.5957 -0.2997
32.4600 -21.6090 -0.2978
32.4800 -21.6223 -0.2976
32.5000 -21.6356 -0.2956
32.5200 -21.6490 -0.2976
32.5400 -21.6623 -0.2954
32.5600 -21.6756 -0.2964
32.5800 -21.6889 -0.2949
32.6000 -21.7023 -0.2917
32.6200 -21.7157 -0.2928
32.6400 -21.7290 -0.2940
32.6600 -21.7423 -0.2923
32.6800 -21.7557 -0.2935
32.7000 -21.7691 -0.2908
32.7200 -21.7824 -0.2888
32.7400 -21.7957 -0.2894
32.7600 -21.8090 -0.2889
32.7800 -21.8223 -0.2876
32.8000 -21.8357 -0.2883
32.8200 -21.8490 -0.2887
32.8400 -21.8623 -0.2861
32.8600 -21.8756 -0.2849
32.8800 -21.8890 -0.2865
32.9000 -21.9023 -0.2825
32.9200 -21.9156 -0.2832
32.9400 -21.9289 -0.2855
32.9600 -21.9423 -0.2824
32.9800 -21.9556 -0.2837
33.0000 -21.9690 -0.2824
33.0200 -21.9823 -0.2819
33.0400 -21.9957 -0.2796
33.0600 -22.0090 -0.2812
33.0800 -22.0224 -0.2779
33.1000 -22.0357 -0.2796
33.1200 -22.0490 -0.2784
33.1400 -22.0623 -0.2772
33.1600 -22.0757 -0.2774
33.1800 -22.0890 -0.2790
33.2000 -22.1023 -0.2766
33.2200 -22.1157 -0.2760
33.2400 -22.1290 -0.2754
33.2600 -22.1423 -0.2737
33.2800 -22.1556 -0.2733
33.3000 -22.1689 -0.2762
33.3200 -22.1822 -0.2725
33.3400 -22.1956 -0.2736
33.3600 -22.2089 -0.2725
33.3800 -22.2222 -0.2708
33.4000 -22.2356 -0.2685
33.4200 -22.2490 -0.2716
33.4400 -22.2624 -0.2664
33.4600 -22.2757 -0.2671
33.4800 -22.2890 -0.2664
33.5000 -22.3024 -0.2644
33.5200 -22.3157 -0.2653
33.5400 -22.3291 -0.2671
33.5600 -22.3423 -0.2651
33.5800 -22.3556 -0.2655
33.6000 -22.3690 -0.2638
33.6200 -22.3823 -0.2611
33.6400 -22.3956 -0.2615
33.6600 -22.4089 -0.2636
33.6800 -22.4223 -0.2591
33.7000 -22.4357 -0.2588
33.7200 -22.4490 -0.2612
33.7400 -22.4623 -0.2585
33.7600 -22.4757 -0.2605
33.7800 -22.4890 -0.2592
33.8000 -22.5024 -0.2577
33.8200 -22.5157 -0.2563
33.8400 -22.5290 -0.2599
33.8600 -22.5423 -0.2549
33.8800 -22.5557 -0.2561
33.9000 -22.5690 -0.2553
33.9200 -22.5823 -0.2546
33.9400 -22.5956 -0.2548
33.9600 -22.6090 -0.2586
33.9800 -22.6223 -0.2526
34.0000 -22.6356 -0.2557
34.0200 -22.6489 -0.2528
34.0400 -22.6623 -0.2519
34.0600 -22.6756 -0.2478
34.0800 -22.6890 -0.2489
34.1000 -22.7023 -0.2450
34.1200 -22.7156 -0.2474
34.1400 -22.7290 -0.2457
34.1600 -22.7424 -0.2414
34.1800 -22.7557 -0.2381
34.2000 -22.7690 -0.2382
34.2200 -22.7824 -0.2343
34.2400 -22.7957 -0.2344
34.2600 -22.8090 -0.2353
34.2800 -22.8223 -0.2314
34.3000 -22.8357 -0.2322
34.3200 -22.8490 -0.2350
34.3400 -22.8623 -0.2318
34.3600 -22.8756 -0.2343
34.3800 -22.8889 -0.2313
34.4000 -22.9023 -0.2282
34.4200 -22.9156 -0.2295
34.4400 -22.9290 -0.2323
34.4600 -22.9423 -0.2297
34.4800 -22.9556 -0.2328
34.5000 -22.9690 -0.2327
34.5200 -22.9824 -0.2303
34.5400 -22.9957 -0.2300
34.5600 -23.0090 -0.2306
34.5800 -23.0224 -0.2284
34.6000 -23.0357 -0.2294
34.6200 -23.0491 -0.2300
34.6400 -23.0623 -0.2285
34.6600 -23.0756 -0.2250
34.6800 -23.0890 -0.2247
34.7000 -23.1023 -0.2239
34.7200 -23.1156 -0.2251
34.7400 -23.1289 -0.2292
34.7600 -23.1423 -0.2274
34.7800 -23.1556 -0.2264
34.8000 -23.1690 -0.2252
34.8200 -23.1823 -0.2229
34.8400 -23.1956 -0.2216
34.8600 -23.2090 -0.2235
34.8800 -23.2223 -0.2194
34.9000 -23.2357 -0.2235
34.9200 -23.2490 -0.2216
34.9400 -23.2623 -0.2233
34.9600 -23.2757 -0.2200
34.9800 -23.2890 -0.2219
35.0000 -23.3024 -0.2171
35.0200 -23.3157 -0.2186
35.0400 -23.3290 -0.2198
35.0600 -23.3424 -0.2179
35.0800 -23.3556 -0.2167
35.1000 -23.3689 -0.2177
35.1200 -23.3823 -0.2165
35.1400 -23.3956 -0.2180
35.1600 -23.4090 -0.2187
35.1800 -23.4223 -0.2159
35.2000 -23.4356 -0.2134
35.2200 -23.4490 -0.2166
35.2400 -23.4624 -0.2128
35.2600 -23.4757 -0.2148
35.2800 -23.4890 -0.2162
35.3000 -23.5023 -0.2142
35.3200 -23.5157 -0.2131
35.3400 -23.5290 -0.2155
35.3600 -23.5424 -0.2117
35.3800 -23.5557 -0.2119
35.4000 -23.5690 -0.2110
35.4200 -23.5824 -0.2085
35.4400 -23.5956 -0.2106
35.4600 -23.6089 -0.2124
35.4800 -23.6222 -0.2105
35.5000 -23.6356 -0.2082
35.5200 -23.6490 -0.2096
35.5400 -23.6623 -0.2087
35.5600 -23.6756 -0.2083
35.5800 -23.6890 -0.2095
35.6000 -23.7024 -0.2066
35.6200 -23.7157 -0.2075
35.6400 -23.7290 -0.2070
35.6600 -23.7424 -0.2043
35.6800 -23.7557 -0.2052
35.7000 -23.7691 -0.2057
35.7200 -23.7824 -0.2054
35.7400 -23.7956 -0.2041
35.7600 -23.8090 -0.2056
35.7800 -23.8223 -0.2008
35.8000 -23.8356 -0.2013
35.8200 -23.8489 -0.2024
35.8400 -23.8622 -0.2021
35.8600 -23.8756 -0.2004
35.8800 -23.8890 -0.2023
35.9000 -23.9023 -0.2005
35.9200 -23.9156 -0.1995
35.9400 -23.9290 -0.1995
35.9600 -23.9424 -0.1979
35.9800 -23.9557 -0.1964
36.0000 -23.9690 -0.1987
36.0200 -23.9823 -0.1975
36.0400 -23.9957 -0.1947
36.0600 -24.0091 -0.1950
36.0800 -24.0224 -0.1945
36.1000 -24.0357 -0.1948
36.1200 -24.0490 -0.1934
36.1400 -24.0624 -0.1930
36.1600 -24.0757 -0.1913
36.1800 -24.0889 -0.1946
36.2000 -24.1023 -0.1920
36.2200 -24.1156 -0.1910
36.2400 -24.1290 -0.1922
36.2600 -24.1423 -0.1944
36.2800 -24.1556 -0.1928
36.3000 -24.1690 -0.1931
36.3200 -24.1824 -0.1906
36.3400 -24.1957 -0.1876
36.3600 -24.2090 -0.1915
36.3800 -24.2223 -0.1904
36.4000 -24.2357 -0.1883
36.4200 -24.2490 -0.1885
36.4400 -24.2623 -0.1870
36.4600 -24.2757 -0.1869
36.4800 -24.2890 -0.1881
36.5000 -24.3023 -0.1864
36.5200 -24.3156 -0.1858
36.5400 -24.3289 -0.1866
36.5600 -24.3423 -0.1861
36.5800 -24.3556 -0.1847
36.6000 -24.3690 -0.1863
36.6200 -24.3823 -0.1839
36.6400 -24.3956 -0.1814
36.6600 -24.4090 -0.1827
36.6800 -24.4224 -0.1821
36.7000 -24.4357 -0.1815
36.7200 -24.4490 -0.1834
36.7400 -24.4623 -0.1802
36.7600 -24.4757 -0.1780
36.7800 -24.4890 -0.1791
36.8000 -24.5023 -0.1774
36.8200 -24.5157 -0.1756
36.8400 -24.5290 -0.1770
36.8600 -24.5423 -0.1778
36.8800 -24.5556 -0.1766
36.9000 -24.5689 -0.1771
36.9200 -24.5823 -0.1763
36.9400 -24.5956 -0.1730
36.9600 -24.6090 -0.1777
36.9800 -24.6223 -0.1750
37.0000 -24.6357 -0.1744
37.0200 -24.6490 -0.1742
37.0400 -24.6624 -0.1732
37.0600 -24.6757 -0.1711
37.0800 -24.6890 -0.1727
37.1000 -24.7023 -0.1710
37.1200 -24.7157 -0.1713
37.1400 -24.7291 -0.1700
37.1600 -24.7424 -0.1693
37.1800 -24.7557 -0.1665
37.2000 -24.7690 -0.1714
37.2200 -24.7823 -0.1696
37.2400 -24.7956 -0.1686
37.2600 -24.8089 -0.1687
37.2800 -24.8222 -0.1679
37.3000 -24.8356 -0.1668
37.3200 -24.8490 -0.1680
37.3400 -24.8623 -0.1697
37.3600 -24.8756 -0.1679
37.3800 -24.8890 -0.1685
37.4000 -24.9024 -0.1679
37.4200 -24.9157 -0.1649
37.4400 -24.9290 -0.1645
37.4600 -24.9424 -0.1648
37.4800 -24.9557 -0.1640
37.5000 -24.9691 -0.1654
37.5200 -24.9824 -0.1628
37.5400 -24.9957 -0.1606
37.5600 -25.0090 -0.1636
37.5800 -25.0223 -0.1623
37.6000 -25.0356 -0.1607
37.6200 -25.0489 -0.1610
37.6400 -25.0622 -0.1623
37.6600 -25.0756 -0.1601
37.6800 -25.0889 -0.1614
37.7000 -25.1023 -0.1602
37.7200 -25.1156 -0.1557
37.7400 -25.1290 -0.1585
37.7600 -25.1424 -0.1567
37.7800 -25.1558 -0.1577
37.8000 -25.1690 -0.1581
37.8200 -25.1823 -0.1600
37.8400 -25.1957 -0.1537
37.8600 -25.2090 -0.1564
37.8800 -25.2224 -0.1544
37.9000 -25.2357 -0.1571
37.9200 -25.2490 -0.1565
37.9400 -25.2623 -0.1563
37.9600 -25.2756 -0.1522
37.9800 -25.2889 -0.1565
38.0000 -25.3022 -0.1559
38.0200 -25.3156 -0.1514
38.0400 -25.3290 -0.1537
38.0600 -25.3423 -0.1533
38.0800 -25.3556 -0.1507
38.1000 -25.3690 -0.1507
38.1200 -25.3824 -0.1508
38.1400 -25.3957 -0.1493
38.1600 -25.4090 -0.1500
38.1800 -25.4223 -0.1502
38.2000 -25.4356 -0.1471
38.2200 -25.4490 -0.1502
38.2400 -25.4623 -0.1492
38.2600 -25.4756 -0.1474
38.2800 -25.4890 -0.1470
38.3000 -25.5023 -0.1461
38.3200 -25.5156 -0.1436
38.3400 -25.5289 -0.1463
38.3600 -25.5423 -0.1459
38.3800 -25.5556 -0.1446
38.4000 -25.5690 -0.1442
38.4200 -25.5823 -0.1449
38.4400 -25.5956 -0.1432
38.4600 -25.6090 -0.1444
38.4800 -25.6224 -0.1456
38.5000 -25.6357 -0.1423
38.5200 -25.6490 -0.1458
38.5400 -25.6624 -0.1428
38.5600 -25.6757 -0.1409
38.5800 -25.6891 -0.1407
38.6000 -25.7024 -0.1410
38.6200 -25.7157 -0.1379
38.6400 -25.7290 -0.1389
38.6600 -25.7423 -0.1399
38.6800 -25.7556 -0.1398
38.7000 -25.7689 -0.1397
38.7200 -25.7822 -0.1394
38.7400 -25.7956 -0.1370
38.7600 -25.8090 -0.1381
38.7800 -25.8223 -0.1362
38.8000 -25.8356 -0.1359
38.8200 -25.8490 -0.1358
38.8400 -25.8624 -0.1378
38.8600 -25.8757 -0.1333
38.8800 -25.8890 -0.1359
38.9000 -25.9023 -0.1350
38.9200 -25.9157 -0.1359
38.9400 -25.9290 -0.1348
38.9600 -25.9424 -0.1362
38.9800 -25.9557 -0.1328
39.0000 -25.9690 -0.1331
39.0200 -25.9823 -0.1328
39.0400 -25.9957 -0.1304
39.0600 -26.0090 -0.1306
39.0800 -26.0223 -0.1302
39.1000 -26.0356 -0.1264
39.1200 -26.0490 -0.1309
39.1400 -26.0623 -0.1305
39.1600 -26.0756 -0.1287
39.1800 -26.0889 -0.1295
39.2000 -26.1023 -0.1281
39.2200 -26.1157 -0.1269
39.2400 -26.1290 -0.1282
39.2600 -26.1423 -0.1286
39.2800 -26.1556 -0.1258
39.3000 -26.1690 -0.1280
39.3200 -26.1824 -0.1284
39.3400 -26.1957 -0.1259
39.3600 -26.2090 -0.1254
39.3800 -26.2224 -0.1264
39.4000 -26.2357 -0.1235
39.4200 -26.2490 -0.1247
39.4400 -26.2623 -0.1244
39.4600 -26.2756 -0.1225
39.4800 -26.2890 -0.1229
39.5000 -26.3023 -0.1242
39.5200 -26.3156 -0.1226
39.5400 -26.3290 -0.1247
39.5600 -26.3424 -0.1251
39.5800 -26.3557 -0.1229
39.6000 -26.3690 -0.1223
39.6200 -26.3823 -0.1224
39.6400 -26.3956 -0.1185
39.6600 -26.4090 -0.1201
39.6800 -26.4223 -0.1182
39.7000 -26.4357 -0.1184
39.7200 -26.4490 -0.1173
39.7400 -26.4623 -0.1195
39.7600 -26.4757 -0.1170
39.7800 -26.4890 -0.1179
39.8000 -26.5023 -0.1180
39.8200 -26.5156 -0.1175
39.8400 -26.5290 -0.1174
39.8600 -26.5423 -0.1172
39.8800 -26.5556 -0.1152
39.9000 -26.5690 -0.1148
39.9200 -26.5823 -0.1164
39.9400 -26.5957 -0.1130
39.9600 -26.6090 -0.1155
39.9800 -26.6223 -0.1140
40.0000 -26.6357 -0.1136
40.0200 -26.6490 -0.1117
40.0400 -26.6624 -0.1124
40.0600 -26.6757 -0.1101
40.0800 -26.6890 -0.1103
40.1000 -26.7023 -0.1122
40.1200 -26.7156 -0.1095
40.1400 -26.7290 -0.1119
40.1600 -26.7423 -0.1102
40.1800 -26.7556 -0.1092
40.2000 -26.7690 -0.1089
40.2200 -26.7823 -0.1087
40.2400 -26.7956 -0.1069
40.2600 -26.8090 -0.1065
40.2800 -26.8223 -0.1081
40.3000 -26.8357 -0.1059
40.3200 -26.8490 -0.1069
40.3400 -26.8623 -0.1050
40.3600 -26.8756 -0.1050
40.3800 -26.8890 -0.1036
40.4000 -26.9023 -0.1063
40.4200 -26.9157 -0.1003
40.4400 -26.9290 -0.1027
40.4600 -26.9423 -0.1016
40.4800 -26.9557 -0.1022
40.5000 -26.9690 -0.1027
40.5200 -26.9823 -0.1024
40.5400 -26.9956 -0.1011
40.5600 -27.0089 -0.1019
40.5800 -27.0223 -0.1012
40.6000 -27.0356 -0.0993
40.6200 -27.0489 -0.0991
40.6400 -27.0623 -0.0997
40.6600 -27.0757 -0.0976
40.6800 -27.0890 -0.0976
40.7000 -27.1024 -0.0981
40.7200 -27.1157 -0.0944
40.7400 -27.1290 -0.0955
40.7600 -27.1424 -0.0948
40.7800 -27.1557 -0.0934
40.8000 -27.1690 -0.0950
40.8200 -27.1823 -0.0958
40.8400 -27.1957 -0.0926
40.8600 -27.2090 -0.0919
40.8800 -27.2223 -0.0939
40.9000 -27.2356 -0.0917
40.9200 -27.2490 -0.0920
40.9400 -27.2624 -0.0929
40.9600 -27.2757 -0.0917
40.9800 -27.2890 -0.0895
41.0000 -27.3024 -0.0909
41.0200 -27.3157 -0.0902
41.0400 -27.3291 -0.0900
41.0600 -27.3423 -0.0919
41.0800 -27.3556 -0.0907
41.1000 -27.3690 -0.0912
41.1200 -27.3824 -0.0930
41.1400 -27.3957 -0.0919
41.1600 -27.4090 -0.0899
41.1800 -27.4223 -0.0908
41.2000 -27.4357 -0.0875
41.2200 -27.4490 -0.0914
41.2400 -27.4623 -0.0904
41.2600 -27.4756 -0.0883
41.2800 -27.4889 -0.0878
41.3000 -27.5023 -0.0877
41.3200 -27.5156 -0.0860
41.3400 -27.5290 -0.0885
41.3600 -27.5423 -0.0886
41.3800 -27.5557 -0.0867
41.4000 -27.5690 -0.0865
41.4200 -27.5823 -0.0864
41.4400 -27.5957 -0.0863
41.4600 -27.6090 -0.0844
41.4800 -27.6224 -0.0868
41.5000 -27.6357 -0.0837
41.5200 -27.6490 -0.0832
41.5400 -27.6623 -0.0836
41.5600 -27.6757 -0.0843
41.5800 -27.6890 -0.0808
41.6000 -27.7022 -0.0834
41.6200 -27.7156 -0.0804
41.6400 -27.7289 -0.0802
41.6600 -27.7423 -0.0798
41.6800 -27.7556 -0.0784
41.7000 -27.7689 -0.0796
41.7200 -27.7823 -0.0807
41.7400 -27.7957 -0.0765
41.7600 -27.8091 -0.0772
41.7800 -27.8224 -0.0785
41.8000 -27.8357 -0.0768
41.8200 -27.8490 -0.0755
41.8400 -27.8624 -0.0738
41.8600 -27.8757 -0.0735
41.8800 -27.8890 -0.0756
41.9000 -27.9023 -0.0756
41.9200 -27.9157 -0.0754
41.9400 -27.9290 -0.0733
41.9600 -27.9423 -0.0734
41.9800 -27.9556 -0.0712
42.0000 -27.9690 -0.0710
42.0200 -27.9823 -0.0722
42.0400 -27.9956 -0.0709
42.0600 -28.0089 -0.0700
42.0800 -28.0223 -0.0716
42.1000 -28.0357 -0.0720
42.1200 -28.0490 -0.0700
42.1400 -28.0623 -0.0710
42.1600 -28.0757 -0.0699
42.1800 -28.0890 -0.0703
42.2000 -28.1024 -0.0699
42.2200 -28.1157 -0.0690
42.2400 -28.1290 -0.0676
42.2600 -28.1424 -0.0677
42.2800 -28.1557 -0.0677
42.3000 -28.1690 -0.0665
42.3200 -28.1823 -0.0678
42.3400 -28.1956 -0.0676
42.3600 -28.2089 -0.0671
42.3800 -28.2223 -0.0646
42.4000 -28.2356 -0.0642
42.4200 -28.2489 -0.0637
42.4400 -28.2623 -0.0647
42.4600 -28.2757 -0.0642
42.4800 -28.2890 -0.0611
42.5000 -28.3023 -0.0648
42.5200 -28.3156 -0.0630
42.5400 -28.3290 -0.0643
42.5600 -28.3424 -0.0623
42.5800 -28.3557 -0.0634
42.6000 -28.3690 -0.0588
42.6200 -28.3824 -0.0596
42.6400 -28.3957 -0.0558
42.6600 -28.4090 -0.0580
42.6800 -28.4223 -0.0574
42.7000 -28.4356 -0.0589
42.7200 -28.4489 -0.0564
42.7400 -28.4623 -0.0575
42.7600 -28.4756 -0.0562
42.7800 -28.4889 -0.0568
42.8000 -28.5023 -0.0569
42.8200 -28.5157 -0.0557
42.8400 -28.5291 -0.0542
42.8600 -28.5424 -0.0561
42.8800 -28.5557 -0.0568
42.9000 -28.5690 -0.0543
42.9200 -28.5824 -0.0535
42.9400 -28.5957 -0.0520
42.9600 -28.6090 -0.0516
42.9800 -28.6223 -0.0505
43.0000 -28.6356 -0.0509
43.0200 -28.6489 -0.0502
43.0400 -28.6622 -0.0515
43.0600 -28.6756 -0.0511
43.0800 -28.6889 -0.0496
43.1000 -28.7023 -0.0501
43.1200 -28.7157 -0.0488
43.1400 -28.7290 -0.0492
43.1600 -28.7423 -0.0512
43.1800 -28.7557 -0.0485
43.2000 -28.7691 -0.0474
43.2200 -28.7824 -0.0475
43.2400 -28.7957 -0.0481
43.2600 -28.8090 -0.0469
43.2800 -28.8224 -0.0469
43.3000 -28.8357 -0.0452
43.3200 -28.8490 -0.0463
43.3400 -28.8624 -0.0465
43.3600 -28.8757 -0.0472
43.3800 -28.8890 -0.0446
43.4000 -28.9023 -0.0471
43.4200 -28.9156 -0.0446
43.4400 -28.9289 -0.0483
43.4600 -28.9423 -0.0428
43.4800 -28.9556 -0.0457
43.5000 -28.9689 -0.0436
43.5200 -28.9823 -0.0451
43.5400 -28.9957 -0.0431
43.5600 -29.0090 -0.0427
43.5800 -29.0223 -0.0435
43.6000 -29.0357 -0.0421
43.6200 -29.0490 -0.0415
43.6400 -29.0624 -0.0435
43.6600 -29.0757 -0.0426
43.6800 -29.0890 -0.0427
43.7000 -29.1023 -0.0416
43.7200 -29.1157 -0.0422
43.7400 -29.1290 -0.0407
43.7600 -29.1423 -0.0418
43.7800 -29.1556 -0.0415
43.8000 -29.1689 -0.0404
43.8200 -29.1823 -0.0407
43.8400 -29.1957 -0.0401
43.8600 -29.2090 -0.0405
43.8800 -29.2223 -0.0390
43.9000 -29.2357 -0.0391
43.9200 -29.2490 -0.0366
43.9400 -29.2624 -0.0390
43.9600 -29.2757 -0.0374
43.9800 -29.2890 -0.0365
44.0000 -29.3024 -0.0354
44.0200 -29.3157 -0.0377
44.0400 -29.3290 -0.0359
44.0600 -29.3423 -0.0353
44.0800 -29.3556 -0.0345
44.1000 -29.3690 -0.0338
44.1200 -29.3823 -0.0345
44.1400 -29.3956 -0.0339
44.1600 -29.4089 -0.0309
44.1800 -29.4223 -0.0335
44.2000 -29.4357 -0.0320
44.2200 -29.4490 -0.0341
44.2400 -29.4623 -0.0337
44.2600 -29.4757 -0.0317
44.2800 -29.4891 -0.0306
44.3000 -29.5024 -0.0307
44.3200 -29.5157 -0.0310
44.3400 -29.5290 -0.0315
44.3600 -29.5424 -0.0299
44.3800 -29.5557 -0.0290
44.4000 -29.5690 -0.0275
44.4200 -29.5823 -0.0293
44.4400 -29.5957 -0.0280
44.4600 -29.6090 -0.0296
44.4800 -29.6223 -0.0277
44.5000 -29.6356 -0.0289
44.5200 -29.6489 -0.0272
44.5400 -29.6623 -0.0284
44.5600 -29.6756 -0.0278
44.5800 -29.6889 -0.0267
44.6000 -29.7023 -0.0252
44.6200 -29.7157 -0.0254
44.6400 -29.7291 -0.0245
44.6600 -29.7424 -0.0263
44.6800 -29.7557 -0.0244
44.7000 -29.7690 -0.0222
44.7200 -29.7824 -0.0232
44.7400 -29.7957 -0.0216
44.7600 -29.8090 -0.0217
44.7800 -29.8223 -0.0208
44.8000 -29.8357 -0.0202
44.8200 -29.8490 -0.0197
44.8400 -29.8623 -0.0186
44.8600 -29.8756 -0.0179
44.8800 -29.8889 -0.0157
44.9000 -29.9023 -0.0153
44.9200 -29.9156 -0.0154
44.9400 -29.9289 -0.0164
44.9600 -29.9423 -0.0171
44.9800 -29.9557 -0.0156
45.0000 -29.9691 -0.0151
45.0200 -29.9824 -0.0139
45.0400 -29.9957 -0.0128
45.0600 -30.0090 -0.0118
45.0800 -30.0224 -0.0115
45.1000 -30.0357 -0.0124
45.1200 -30.0490 -0.0124
45.1400 -30.0623 -0.0118
45.1600 -30.0756 -0.0119
45.1800 -30.0890 -0.0103
45.2000 -30.1023 -0.0112
45.2200 -30.1156 -0.0114
45.2400 -30.1289 -0.0120
45.2600 -30.1423 -0.0103
45.2800 -30.1557 -0.0099
45.3000 -30.1690 -0.0069
45.3200 -30.1823 -0.0082
45.3400 -30.1957 -0.0067
45.3600 -30.2090 -0.0068
45.3800 -30.2223 -0.0070
45.4000 -30.2356 -0.0078
45.4200 -30.2489 -0.0090
45.4400 -30.2623 -0.0078
45.4600 -30.2757 -0.0065
45.4800 -30.2890 -0.0055
45.5000 -30.3023 -0.0040
45.5200 -30.3157 -0.0029
45.5400 -30.3290 -0.0015
45.5600 -30.3423 -0.0011
45.5800 -30.3556 -0.0030
45.6000 -30.3689 -0.0023
45.6200 -30.3823 -0.0007
45.6400 -30.3957 -0.0016
45.6600 -30.4090 -0.0013
45.6800 -30.4223 0.0008
45.7000 -30.4357 0.0012
45.7200 -30.4491 0.0013
45.7400 -30.4624 0.0012
45.7600 -30.4757 0.0008
45.7800 -30.4890 0.0005
45.8000 -30.5024 0.0010
45.8200 -30.5157 0.0018
45.8400 -30.5290 0.0014
45.8600 -30.5423 0.0001
45.8800 -30.5557 0.0014
45.9000 -30.5690 0.0026
45.9200 -30.5823 0.0052
45.9400 -30.5956 0.0040
45.9600 -30.6089 0.0044
45.9800 -30.6223 0.0032
46.0000 -30.6356 0.0054
46.0200 -30.6490 0.0043
46.0400 -30.6623 0.0055
46.0600 -30.6756 0.0051
46.0800 -30.6890 0.0056
46.1000 -30.7024 0.0063
46.1200 -30.7157 0.0080
46.1400 -30.7290 0.0067
46.1600 -30.7423 0.0054
46.1800 -30.7557 0.0065
46.2000 -30.7690 0.0055
46.2200 -30.7823 0.0096
46.2400 -30.7957 0.0077
46.2600 -30.8090 0.0091
46.2800 -30.8223 0.0101
46.3000 -30.8356 0.0105
46.3200 -30.8489 0.0090
46.3400 -30.8623 0.0103
46.3600 -30.8757 0.0121
46.3800 -30.8890 0.0113
46.4000 -30.9023 0.0125
46.4200 -30.9156 0.0122
46.4400 -30.9290 0.0130
46.4600 -30.9424 0.0134
46.4800 -30.9557 0.0120
46.5000 -30.9690 0.0114
46.5200 -30.9823 0.0129
46.5400 -30.9957 0.0141
46.5600 -31.0090 0.0122
46.5800 -31.0223 0.0151
46.6000 -31.0357 0.0151
46.6200 -31.0490 0.0156
46.6400 -31.0624 0.0148
46.6600 -31.0756 0.0176
46.6800 -31.0890 0.0175
46.7000 -31.1023 0.0195
46.7200 -31.1157 0.0174
46.7400 -31.1290 0.0179
46.7600 -31.1423 0.0178
46.7800 -31.1557 0.0195
46.8000 -31.1690 0.0204
46.8200 -31.1824 0.0203
46.8400 -31.1957 0.0196
46.8600 -31.2090 0.0187
46.8800 -31.2223 0.0219
46.9000 -31.2357 0.0222
46.9200 -31.2490 0.0239
46.9400 -31.2623 0.0240
46.9600 -31.2756 0.0242
46.9800 -31.2890 0.0227
47.0000 -31.3023 0.0248
47.0200 -31.3156 0.0234
47.0400 -31.3289 0.0233
47.0600 -31.3423 0.0248
47.0800 -31.3557 0.0264
47.1000 -31.3690 0.0262
47.1200 -31.3823 0.0268
47.1400 -31.3957 0.0244
47.1600 -31.4090 0.0262
47.1800 -31.4224 0.0277
47.2000 -31.4357 0.0269
47.2200 -31.4490 0.0260
47.2400 -31.4623 0.0276
47.2600 -31.4757 0.0274
47.2800 -31.4890 0.0280
47.3000 -31.5023 0.0276
47.3200 -31.5156 0.0297
47.3400 -31.5290 0.0269
47.3600 -31.5423 0.0323
47.3800 -31.5556 0.0290
47.4000 -31.5689 0.0312
47.4200 -31.5823 0.0302
47.4400 -31.5957 0.0333
47.4600 -31.6090 0.0307
47.4800 -31.6223 0.0354
47.5000 -31.6356 0.0314
47.5200 -31.6490 0.0340
47.5400 -31.6624 0.0347
47.5600 -31.6757 0.0348
47.5800 -31.6890 0.0341
47.6000 -31.7023 0.0348
47.6200 -31.7157 0.0376
47.6400 -31.7290 0.0377
47.6600 -31.7423 0.0363
47.6800 -31.7557 0.0353
47.7000 -31.7690 0.0365
47.7200 -31.7824 0.0370
47.7400 -31.7956 0.0396
47.7600 -31.8089 0.0376
47.7800 -31.8223 0.0388
47.8000 -31.8356 0.0391
47.8200 -31.8489 0.0397
47.8400 -31.8622 0.0403
47.8600 -31.8756 0.0396
47.8800 -31.8890 0.0412
47.9000 -31.9024 0.0417
47.9200 -31.9157 0.0419
47.9400 -31.9290 0.0439
47.9600 -31.9424 0.0450
47.9800 -31.9557 0.0451
48.0000 -31.9691 0.0428
48.0200 -31.9824 0.0460
48.0400 -31.9957 0.0445
48.0600 -32.0090 0.0474
48.0800 -32.0223 0.0465
48.1000 -32.0356 0.0465
48.1200 -32.0489 0.0443
48.1400 -32.0623 0.0473
48.1600 -32.0757 0.0449
48.1800 -32.0890 0.0477
48.2000 -32.1023 0.0465
48.2200 -32.1157 0.0479
48.2400 -32.1290 0.0474
48.2600 -32.1424 0.0504
48.2800 -32.1557 0.0482
48.3000 -32.1690 0.0485
48.3200 -32.1823 0.0507
48.3400 -32.1957 0.0505
48.3600 -32.2090 0.0502
48.3800 -32.2223 0.0515
48.4000 -32.2356 0.0507
48.4200 -32.2490 0.0495
48.4400 -32.2623 0.0520
48.4600 -32.2756 0.0524
48.4800 -32.2889 0.0516
48.5000 -32.3023 0.0528
48.5200 -32.3156 0.0520
48.5400 -32.3290 0.0542
48.5600 -32.3423 0.0536
48.5800 -32.3556 0.0558
48.6000 -32.3690 0.0545
48.6200 -32.3824 0.0556
48.6400 -32.3957 0.0550
48.6600 -32.4090 0.0552
48.6800 -32.4223 0.0566
48.7000 -32.4357 0.0555
48.7200 -32.4490 0.0558
48.7400 -32.4623 0.0566
48.7600 -32.4757 0.0602
48.7800 -32.4890 0.0582
48.8000 -32.5023 0.0576
48.8200 -32.5156 0.0574
48.8400 -32.5289 0.0600
48.8600 -32.5422 0.0586
48.8800 -32.5556 0.0616
48.9000 -32.5690 0.0590
48.9200 -32.5823 0.0607
48.9400 -32.5956 0.0592
48.9600 -32.6090 0.0613
48.9800 -32.6224 0.0587
49.0000 -32.6357 0.0617
49.0200 -32.6490 0.0634
49.0400 -32.6624 0.0627
49.0600 -32.6757 0.0657
49.0800 -32.6891 0.0660
49.1000 -32.7024 0.0646
49.1200 -32.7157 0.0664
49.1400 -32.7290 0.0663
49.1600 -32.7424 0.0667
49.1800 -32.7556 0.0673
49.2000 -32.7690 0.0667
49.2200 -32.7823 0.0678
49.2400 -32.7957 0.0685
49.2600 -32.8090 0.0686
49.2800 -32.8223 0.0687
49.3000 -32.8356 0.0703
49.3200 -32.8490 0.0693
49.3400 -32.8624 0.0684
49.3600 -32.8757 0.0700
49.3800 -32.8890 0.0710
49.4000 -32.9023 0.0707
49.4200 -32.9157 0.0721
49.4400 -32.9291 0.0720
49.4600 -32.9424 0.0716
49.4800 -32.9557 0.0729
49.5000 -32.9690 0.0720
49.5200 -32.9824 0.0714
49.5400 -32.9957 0.0725
49.5600 -33.0089 0.0716
49.5800 -33.0223 0.0741
49.6000 -33.0356 0.0758
49.6200 -33.0490 0.0758
49.6400 -33.0623 0.0752
49.6600 -33.0756 0.0762
49.6800 -33.0890 0.0767
49.7000 -33.1023 0.0777
49.7200 -33.1157 0.0767
49.7400 -33.1290 0.0776
49.7600 -33.1423 0.0779
49.7800 -33.1557 0.0792
49.8000 -33.1690 0.0801
49.8200 -33.1824 0.0798
49.8400 -33.1957 0.0804
49.8600 -33.2090 0.0809
49.8800 -33.2224 0.0794
49.9000 -33.2356 0.0817
49.9200 -33.2489 0.0804
49.9400 -33.2622 0.0797
49.9600 -33.2756 0.0819
49.9800 -33.2890 0.0814
50.0000 -33.3023 0.0809
50.0200 -33.3156 0.0832
50.0400 -33.3290 0.0827
50.0600 -33.3424 0.0835
50.0800 -33.3557 0.0837
50.1000 -33.3690 0.0844
50.1200 -33.3824 0.0827
50.1400 -33.3957 0.0832
50.1600 -33.4091 0.0853
50.1800 -33.4224 0.0849
50.2000 -33.4356 0.0857
50.2200 -33.4489 0.0853
50.2400 -33.4623 0.0885
50.2600 -33.4756 0.0889
50.2800 -33.4889 0.0890
50.3000 -33.5022 0.0882
50.3200 -33.5156 0.0899
50.3400 -33.5290 0.0887
50.3600 -33.5423 0.0891
50.3800 -33.5556 0.0908
50.4000 -33.5690 0.0914
50.4200 -33.5824 0.0906
50.4400 -33.5957 0.0917
50.4600 -33.6090 0.0911
50.4800 -33.6224 0.0915
50.5000 -33.6357 0.0932
50.5200 -33.6491 0.0930
50.5400 -33.6624 0.0922
50.5600 -33.6757 0.0950
50.5800 -33.6890 0.0936
50.6000 -33.7024 0.0954
50.6200 -33.7157 0.0946
50.6400 -33.7290 0.0960
50.6600 -33.7423 0.0946
50.6800 -33.7556 0.0959
50.7000 -33.7690 0.0958
50.7200 -33.7823 0.0929
50.7400 -33.7956 0.0961
50.7600 -33.8090 0.0968
50.7800 -33.8224 0.0967
50.8000 -33.8357 0.0982
50.8200 -33.8490 0.0975
50.8400 -33.8623 0.0967
50.8600 -33.8757 0.0995
50.8800 -33.8890 0.1011
50.9000 -33.9023 0.1017
50.9200 -33.9157 0.1021
50.9400 -33.9290 0.1039
50.9600 -33.9423 0.1006
50.9800 -33.9556 0.1029
51.0000 -33.9689 0.1027
51.0200 -33.9822 0.1024
51.0400 -33.9955 0.1041
51.0600 -34.0089 0.1053
51.0800 -34.0223 0.1064
51.1000 -34.0356 0.1072
51.1200 -34.0490 0.1065
51.1400 -34.0624 0.1060
51.1600 -34.0757 0.1074
51.1800 -34.0890 0.1083
51.2000 -34.1023 0.1061
51.2200 -34.1157 0.1083
51.2400 -34.1290 0.1080
51.2600 -34.1423 0.1081
51.2800 -34.1556 0.1098
51.3000 -34.1690 0.1121
51.3200 -34.1823 0.1088
51.3400 -34.1956 0.1121
51.3600 -34.2089 0.1086
51.3800 -34.2223 0.1112
51.4000 -34.2356 0.1091
51.4200 -34.2490 0.1094
51.4400 -34.2623 0.1071
51.4600 -34.2757 0.1104
51.4800 -34.2890 0.1082
51.5000 -34.3024 0.1114
51.5200 -34.3157 0.1123
51.5400 -34.3290 0.1140
51.5600 -34.3423 0.1119
51.5800 -34.3557 0.1134
51.6000 -34.3690 0.1157
51.6200 -34.3824 0.1149
51.6400 -34.3957 0.1163
51.6600 -34.4090 0.1157
51.6800 -34.4224 0.1142
51.7000 -34.4357 0.1154
51.7200 -34.4489 0.1157
51.7400 -34.4622 0.1150
51.7600 -34.4756 0.1186
51.7800 -34.4890 0.1194
51.8000 -34.5023 0.1175
51.8200 -34.5156 0.1199
51.8400 -34.5290 0.1191
51.8600 -34.5424 0.1192
51.8800 -34.5557 0.1194
51.9000 -34.5691 0.1199
51.9200 -34.5824 0.1193
51.9400 -34.5957 0.1216
51.9600 -34.6091 0.1235
51.9800 -34.6224 0.1205
52.0000 -34.6357 0.1220
52.0200 -34.6490 0.1225
52.0400 -34.6623 0.1228
52.0600 -34.6756 0.1228
52.0800 -34.6889 0.1263
52.1000 -34.7022 0.1228
52.1200 -34.7156 0.1265
52.1400 -34.7289 0.1250
52.1600 -34.7423 0.1253
52.1800 -34.7556 0.1257
52.2000 -34.7690 0.1286
52.2200 -34.7824 0.1249
52.2400 -34.7957 0.1293
52.2600 -34.8090 0.1300
52.2800 -34.8223 0.1304
52.3000 -34.8357 0.1320
52.3200 -34.8490 0.1324
52.3400 -34.8624 0.1304
52.3600 -34.8757 0.1321
52.3800 -34.8890 0.1322
52.4000 -34.9023 0.1313
52.4200 -34.9156 0.1334
52.4400 -34.9289 0.1345
52.4600 -34.9422 0.1345
52.4800 -34.9556 0.1340
52.5000 -34.9690 0.1364
52.5200 -34.9823 0.1352
52.5400 -34.9957 0.1373
52.5600 -35.0090 0.1383
52.5800 -35.0224 0.1371
52.6000 -35.0357 0.1381
52.6200 -35.0490 0.1396
52.6400 -35.0623 0.1373
52.6600 -35.0756 0.1397
52.6800 -35.0890 0.1391
52.7000 -35.1023 0.1391
52.7200 -35.1157 0.1415
52.7400 -35.1290 0.1422
52.7600 -35.1423 0.1413
52.7800 -35.1557 0.1433
52.8000 -35.1690 0.1438
52.8200 -35.1823 0.1420
52.8400 -35.1956 0.1423
52.8600 -35.2090 0.1440
52.8800 -35.2223 0.1428
52.9000 -35.2356 0.1466
52.9200 -35.2490 0.1464
52.9400 -35.2624 0.1478
52.9600 -35.2757 0.1473
52.9800 -35.2891 0.1489
53.0000 -35.3024 0.1470
53.0200 -35.3157 0.1483
53.0400 -35.3291 0.1483
53.0600 -35.3424 0.1487
53.0800 -35.3557 0.1480
53.1000 -35.3690 0.1486
53.1200 -35.3823 0.1463
53.1400 -35.3956 0.1521
53.1600 -35.4089 0.1530
53.1800 -35.4222 0.1492
53.2000 -35.4356 0.1505
53.2200 -35.4490 0.1495
53.2400 -35.4623 0.1500
53.2600 -35.4756 0.1515
53.2800 -35.4890 0.1539
53.3000 -35.5023 0.1504
53.3200 -35.5157 0.1516
53.3400 -35.5290 0.1527
53.3600 -35.5423 0.1494
53.3800 -35.5557 0.1519
53.4000 -35.5690 0.1532
53.4200 -35.5824 0.1528
53.4400 -35.5957 0.1555
53.4600 -35.6090 0.1575
53.4800 -35.6223 0.1551
53.5000 -35.6357 0.1565
53.5200 -35.6490 0.1560
53.5400 -35.6623 0.1543
53.5600 -35.6756 0.1547
53.5800 -35.6890 0.1555
53.6000 -35.7023 0.1562
53.6200 -35.7156 0.1551
53.6400 -35.7289 0.1567
53.6600 -35.7423 0.1543
53.6800 -35.7557 0.1560
53.7000 -35.7690 0.1559
53.7200 -35.7823 0.1559
53.7400 -35.7957 0.1555
53.7600 -35.8090 0.1588
53.7800 -35.8224 0.1561
53.8000 -35.8357 0.1581
53.8200 -35.8490 0.1589
53.8400 -35.8624 0.1594
53.8600 -35.8757 0.1605
53.8800 -35.8890 0.1621
53.9000 -35.9023 0.1597
53.9200 -35.9156 0.1629
53.9400 -35.9290 0.1647
53.9600 -35.9423 0.1638
53.9800 -35.9556 0.1654
54.0000 -35.9690 0.1660
54.0200 -35.9823 0.1645
54.0400 -35.9957 0.1653
54.0600 -36.0090 0.1661
54.0800 -36.0223 0.1656
54.1000 -36.0356 0.1659
54.1200 -36.0490 0.1672
54.1400 -36.0623 0.1674
54.1600 -36.0756 0.1688
54.1800 -36.0890 0.1720
54.2000 -36.1023 0.1698
54.2200 -36.1157 0.1715
54.2400 -36.1290 0.1741
54.2600 -36.1423 0.1722
54.2800 -36.1556 0.1739
54.3000 -36.1690 0.1751
54.3200 -36.1823 0.1743
54.3400 -36.1957 0.1751
54.3600 -36.2090 0.1753
54.3800 -36.2223 0.1746
54.4000 -36.2357 0.1751
54.4200 -36.2490 0.1773
54.4400 -36.2623 0.1751
54.4600 -36.2757 0.1771
54.4800 -36.2890 0.1771
54.5000 -36.3024 0.1779
54.5200 -36.3157 0.1782
54.5400 -36.3290 0.1810
54.5600 -36.3423 0.1785
54.5800 -36.3556 0.1797
54.6000 -36.3690 0.1806
54.6200 -36.3823 0.1804
54.6400 -36.3956 0.1820
54.6600 -36.4090 0.1829
54.6800 -36.4223 0.1823
54.7000 -36.4357 0.1806
54.7200 -36.4490 0.1829
54.7400 -36.4623 0.1812
54.7600 -36.4757 0.1829
54.7800 -36.4890 0.1859
54.8000 -36.5023 0.1858
54.8200 -36.5157 0.1873
54.8400 -36.5290 0.1870
54.8600 -36.5424 0.1863
54.8800 -36.5557 0.1870
54.9000 -36.5690 0.1886
54.9200 -36.5824 0.1868
54.9400 -36.5957 0.1871
54.9600 -36.6090 0.1887
54.9800 -36.6223 0.1893
55.0000 -36.6356 0.1892
55.0200 -36.6489 0.1927
55.0400 -36.6623 0.1912
55.0600 -36.6756 0.1910
55.0800 -36.6889 0.1928
55.1000 -36.7023 0.1901
55.1200 -36.7157 0.1912
55.1400 -36.7290 0.1927
55.1600 -36.7423 0.1918
55.1800 -36.7557 0.1928
55.2000 -36.7690 0.1962
55.2200 -36.7824 0.1945
55.2400 -36.7957 0.1944
55.2600 -36.8090 0.1965
55.2800 -36.8223 0.1951
55.3000 -36.8357 0.1952
55.3200 -36.8490 0.1979
55.3400 -36.8623 0.1967
55.3600 -36.8756 0.1967
55.3800 -36.8890 0.1981
55.4000 -36.9023 0.1984
55.4200 -36.9157 0.1958
55.4400 -36.9290 0.1988
55.4600 -36.9423 0.1988
55.4800 -36.9557 0.1980
55.5000 -36.9690 0.2013
55.5200 -36.9823 0.1996
55.5400 -36.9956 0.1998
55.5600 -37.0090 0.2024
55.5800 -37.0224 0.2022
55.6000 -37.0357 0.2015
55.6200 -37.0490 0.2049
55.6400 -37.0623 0.2017
55.6600 -37.0757 0.2042
55.6800 -37.0890 0.2056
55.7000 -37.1023 0.2068
55.7200 -37.1156 0.2040
55.7400 -37.1289 0.2081
55.7600 -37.1423 0.2081
55.7800 -37.1556 0.2091
55.8000 -37.1690 0.2108
55.8200 -37.1823 0.2108
55.8400 -37.1957 0.2107
55.8600 -37.2090 0.2132
55.8800 -37.2223 0.2145
55.9000 -37.2357 0.2132
55.9200 -37.2490 0.2147
55.9400 -37.2624 0.2173
55.9600 -37.2757 0.2145
55.9800 -37.2890 0.2182
56.0000 -37.3023 0.2164
56.0200 -37.3157 0.2156
56.0400 -37.3290 0.2181
56.0600 -37.3423 0.2187
56.0800 -37.3556 0.2169
56.1000 -37.3689 0.2194
56.1200 -37.3823 0.2156
56.1400 -37.3956 0.2178
56.1600 -37.4089 0.2202
56.1800 -37.4223 0.2214
56.2000 -37.4357 0.2209
56.2200 -37.4491 0.2234
56.2400 -37.4624 0.2225
56.2600 -37.4757 0.2199
56.2800 -37.4890 0.2217
56.3000 -37.5024 0.2213
56.3200 -37.5157 0.2228
56.3400 -37.5290 0.2253
56.3600 -37.5423 0.2263
56.3800 -37.5557 0.2239
56.4000 -37.5690 0.2266
56.4200 -37.5823 0.2254
56.4400 -37.5956 0.2270
56.4600 -37.6090 0.2297
56.4800 -37.6223 0.2317
56.5000 -37.6356 0.2281
56.5200 -37.6489 0.2314
56.5400 -37.6623 0.2303
56.5600 -37.6757 0.2299
56.5800 -37.6890 0.2328
56.6000 -37.7023 0.2341
56.6200 -37.7156 0.2324
56.6400 -37.7290 0.2358
56.6600 -37.7424 0.2325
56.6800 -37.7557 0.2338
56.7000 -37.7690 0.2337
56.7200 -37.7823 0.2366
56.7400 -37.7957 0.2346
56.7600 -37.8090 0.2384
56.7800 -37.8223 0.2363
56.8000 -37.8356 0.2362
56.8200 -37.8489 0.2364
56.8400 -37.8623 0.2382
56.8600 -37.8756 0.2359
56.8800 -37.8889 0.2377
56.9000 -37.9023 0.2362
56.9200 -37.9157 0.2364
56.9400 -37.9290 0.2396
56.9600 -37.9423 0.2409
56.9800 -37.9556 0.2409
57.0000 -37.9690 0.2456
57.0200 -37.9824 0.2443
57.0400 -37.9957 0.2412
57.0600 -38.0090 0.2427
57.0800 -38.0224 0.2436
57.1000 -38.0357 0.2435
57.1200 -38.0490 0.2467
57.1400 -38.0623 0.2439
57.1600 -38.0756 0.2446
57.1800 -38.0889 0.2456
57.2000 -38.1023 0.2464
57.2200 -38.1156 0.2451
57.2400 -38.1289 0.2473
57.2600 -38.1423 0.2478
57.2800 -38.1557 0.2452
57.3000 -38.1690 0.2474
57.3200 -38.1824 0.2470
57.3400 -38.1957 0.2466
57.3600 -38.2090 0.2494
57.3800 -38.2224 0.2522
57.4000 -38.2357 0.2488
57.4200 -38.2490 0.2514
57.4400 -38.2623 0.2496
57.4600 -38.2756 0.2496
57.4800 -38.2889 0.2521
57.5000 -38.3022 0.2562
57.5200 -38.3156 0.2541
57.5400 -38.3289 0.2572
57.5600 -38.3423 0.2553
57.5800 -38.3556 0.2546
57.6000 -38.3690 0.2560
57.6200 -38.3823 0.2580
57.6400 -38.3957 0.2548
57.6600 -38.4090 0.2578
57.6800 -38.4224 0.2567
57.7000 -38.4357 0.2587
57.7200 -38.4490 0.2601
57.7400 -38.4624 0.2615
57.7600 -38.4757 0.2596
57.7800 -38.4890 0.2630
57.8000 -38.5023 0.2639
57.8200 -38.5157 0.2667
57.8400 -38.5290 0.2659
57.8600 -38.5423 0.2664
57.8800 -38.5556 0.2632
57.9000 -38.5689 0.2672
57.9200 -38.5823 0.2677
57.9400 -38.5956 0.2676
57.9600 -38.6089 0.2669
57.9800 -38.6223 0.2693
58.0000 -38.6357 0.2681
58.0200 -38.6490 0.2695
58.0400 -38.6623 0.2725
58.0600 -38.6756 0.2707
58.0800 -38.6890 0.2719
58.1000 -38.7024 0.2712
58.1200 -38.7157 0.2703
58.1400 -38.7290 0.2731
58.1600 -38.7423 0.2749
58.1800 -38.7557 0.2723
58.2000 -38.7690 0.2769
58.2200 -38.7823 0.2754
58.2400 -38.7956 0.2735
58.2600 -38.8089 0.2743
58.2800 -38.8223 0.2772
58.3000 -38.8357 0.2776
58.3200 -38.8490 0.2781
58.3400 -38.8623 0.2794
58.3600 -38.8757 0.2770
58.3800 -38.8890 0.2782
58.4000 -38.9024 0.2787
58.4200 -38.9157 0.2775
58.4400 -38.9290 0.2787
58.4600 -38.9423 0.2804
58.4800 -38.9557 0.2790
58.5000 -38.9690 0.2811
58.5200 -38.9823 0.2834
58.5400 -38.9956 0.2815
58.5600 -39.0090 0.2842
58.5800 -39.0223 0.2845
58.6000 -39.0356 0.2833
58.6200 -39.0489 0.2840
58.6400 -39.0623 0.2863
58.6600 -39.0757 0.2844
58.6800 -39.0890 0.2859
58.7000 -39.1023 0.2866
58.7200 -39.1157 0.2860
58.7400 -39.1290 0.2876
58.7600 -39.1424 0.2906
58.7800 -39.1557 0.2880
58.8000 -39.1690 0.2901
58.8200 -39.1824 0.2908
58.8400 -39.1957 0.2907
58.8600 -39.2090 0.2905
58.8800 -39.2223 0.2918
58.9000 -39.2356 0.2909
58.9200 -39.2490 0.2931
58.9400 -39.2623 0.2940
58.9600 -39.2756 0.2932
58.9800 -39.2889 0.2964
59.0000 -39.3023 0.2995
59.0200 -39.3156 0.2965
59.0400 -39.3290 0.2986
59.0600 -39.3423 0.2993
59.0800 -39.3557 0.2982
59.1000 -39.3690 0.3005
59.1200 -39.3824 0.3004
59.1400 -39.3957 0.3012
59.1600 -39.4090 0.3019
59.1800 -39.4224 0.3042
59.2000 -39.4357 0.3023
59.2200 -39.4490 0.3024
59.2400 -39.4623 0.3013
59.2600 -39.4756 0.3014
59.2800 -39.4890 0.3030
59.3000 -39.5023 0.3059
59.3200 -39.5156 0.3037
59.3400 -39.5289 0.3064
59.3600 -39.5423 0.3062
59.3800 -39.5556 0.3067
59.4000 -39.5689 0.3066
59.4200 -39.5823 0.3092
59.4400 -39.5957 0.3103
59.4600 -39.6090 0.3117
59.4800 -39.6224 0.3131
59.5000 -39.6357 0.3119
59.5200 -39.6490 0.3156
59.5400 -39.6624 0.3137
59.5600 -39.6757 0.3148
59.5800 -39.6890 0.3147
59.6000 -39.7023 0.3171
59.6200 -39.7157 0.3158
59.6400 -39.7290 0.3162
59.6600 -39.7423 0.3163
59.6800 -39.7556 0.3165
59.7000 -39.7689 0.3182
59.7200 -39.7823 0.3186
59.7400 -39.7957 0.3184
59.7600 -39.8090 0.3181
59.7800 -39.8223 0.3191
59.8000 -39.8357 0.3198
59.8200 -39.8491 0.3190
59.8400 -39.8624 0.3215
59.8600 -39.8756 0.3210
59.8800 -39.8889 0.3244
59.9000 -39.9023 0.3254
59.9200 -39.9157 0.3268
59.9400 -39.9290 0.3267
59.9600 -39.9423 0.3286
59.9800 -39.9557 0.3274
60.0000 -39.9690 0.3275
60.0200 -39.9824 0.3299
60.0400 -39.9956 0.3310
60.0470 -40.0002 0.3344
