Raw Data
Time Displacement Force
(s) (mm) (N)
0.0000 0.0000 -0.1610
0.0200 -0.0001 -0.1641
0.0400 -0.0019 -0.1777
0.0600 -0.0092 -0.1756
0.0800 -0.0209 -0.1619
0.1000 -0.0333 -0.1662
0.1200 -0.0460 -0.1629
0.1400 -0.0594 -0.1653
0.1600 -0.0735 -0.1593
0.1800 -0.0877 -0.1596
0.2000 -0.1016 -0.1581
0.2200 -0.1152 -0.1589
0.2400 -0.1286 -0.1589
0.2600 -0.1419 -0.1585
0.2800 -0.1552 -0.1545
0.3000 -0.1685 -0.1550
0.3200 -0.1818 -0.1556
0.3400 -0.1952 -0.1530
0.3600 -0.2085 -0.1528
0.3800 -0.2218 -0.1514
0.4000 -0.2352 -0.1523
0.4200 -0.2485 -0.1502
0.4400 -0.2619 -0.1491
0.4600 -0.2752 -0.1478
0.4800 -0.2886 -0.1492
0.5000 -0.3019 -0.1477
0.5200 -0.3153 -0.1481
0.5400 -0.3286 -0.1437
0.5600 -0.3419 -0.1439
0.5800 -0.3553 -0.1416
0.6000 -0.3686 -0.1425
0.6200 -0.3820 -0.1405
0.6400 -0.3953 -0.1401
0.6600 -0.4086 -0.1342
0.6800 -0.4219 -0.1355
0.7000 -0.4352 -0.1324
0.7200 -0.4485 -0.1328
0.7400 -0.4618 -0.1306
0.7600 -0.4752 -0.1316
0.7800 -0.4885 -0.1287
0.8000 -0.5019 -0.1291
0.8200 -0.5152 -0.1281
0.8400 -0.5286 -0.1293
0.8600 -0.5419 -0.1276
0.8800 -0.5553 -0.1265
0.9000 -0.5686 -0.1244
0.9200 -0.5819 -0.1265
0.9400 -0.5952 -0.1250
0.9600 -0.6086 -0.1250
0.9800 -0.6219 -0.1221
1.0000 -0.6352 -0.1226
1.0200 -0.6485 -0.1210
1.0400 -0.6619 -0.1239
1.0600 -0.6752 -0.1206
1.0800 -0.6885 -0.1185
1.1000 -0.7018 -0.1198
1.1200 -0.7151 -0.1168
1.1400 -0.7285 -0.1150
1.1600 -0.7419 -0.1142
1.1800 -0.7552 -0.1143
1.2000 -0.7685 -0.1130
1.2200 -0.7819 -0.1139
1.2400 -0.7953 -0.1101
1.2600 -0.8086 -0.1113
1.2800 -0.8219 -0.1096
1.3000 -0.8352 -0.1093
1.3200 -0.8486 -0.1084
1.3400 -0.8620 -0.1090
1.3600 -0.8753 -0.1058
1.3800 -0.8886 -0.1036
1.4000 -0.9019 -0.1026
1.4200 -0.9152 -0.1026
1.4400 -0.9285 -0.1005
1.4600 -0.9418 -0.1015
1.4800 -0.9551 -0.0985
1.5000 -0.9685 -0.0980
1.5200 -0.9819 -0.0963
1.5400 -0.9952 -0.0966
1.5600 -1.0085 -0.0939
1.5800 -1.0219 -0.0945
1.6000 -1.0353 -0.0926
1.6200 -1.0486 -0.0921
1.6400 -1.0619 -0.0906
1.6600 -1.0753 -0.0895
1.6800 -1.0886 -0.0890
1.7000 -1.1019 -0.0898
1.7200 -1.1152 -0.0880
1.7400 -1.1286 -0.0869
1.7600 -1.1419 -0.0850
1.7800 -1.1553 -0.0853
1.8000 -1.1686 -0.0841
1.8200 -1.1819 -0.0859
1.8400 -1.1952 -0.0852
1.8600 -1.2085 -0.0867
1.8800 -1.2219 -0.0871
1.9000 -1.2352 -0.0862
1.9200 -1.2486 -0.0855
1.9400 -1.2619 -0.0864
1.9600 -1.2753 -0.0857
1.9800 -1.2886 -0.0874
2.0000 -1.3019 -0.0867
2.0200 -1.3152 -0.0862
2.0400 -1.3285 -0.0843
2.0600 -1.3419 -0.0862
2.0800 -1.3553 -0.0851
2.1000 -1.3686 -0.0838
2.1200 -1.3819 -0.0830
2.1400 -1.3952 -0.0811
2.1600 -1.4086 -0.0817
2.1800 -1.4219 -0.0815
2.2000 -1.4352 -0.0815
2.2200 -1.4486 -0.0801
2.2400 -1.4619 -0.0808
2.2600 -1.4752 -0.0795
2.2800 -1.4885 -0.0799
2.3000 -1.5019 -0.0788
2.3200 -1.5153 -0.0796
2.3400 -1.5287 -0.0763
2.3600 -1.5420 -0.0769
2.3800 -1.5553 -0.0765
2.4000 -1.5686 -0.0746
2.4200 -1.5820 -0.0741
2.4400 -1.5953 -0.0727
2.4600 -1.6086 -0.0712
2.4800 -1.6219 -0.0717
2.5000 -1.6352 -0.0709
2.5200 -1.6485 -0.0712
2.5400 -1.6618 -0.0698
2.5600 -1.6751 -0.0692
2.5800 -1.6885 -0.0683
2.6000 -1.7019 -0.0678
2.6200 -1.7152 -0.0685
2.6400 -1.7286 -0.0668
2.6600 -1.7419 -0.0665
2.6800 -1.7553 -0.0668
2.7000 -1.7686 -0.0644
2.7200 -1.7819 -0.0639
2.7400 -1.7952 -0.0643
2.7600 -1.8086 -0.0612
2.7800 -1.8219 -0.0624
2.8000 -1.8353 -0.0617
2.8200 -1.8486 -0.0617
2.8400 -1.8619 -0.0598
2.8600 -1.8752 -0.0610
2.8800 -1.8886 -0.0570
2.9000 -1.9019 -0.0580
2.9200 -1.9152 -0.0587
2.9400 -1.9285 -0.0578
2.9600 -1.9419 -0.0578
2.9800 -1.9552 -0.0567
3.0000 -1.9685 -0.0548
3.0200 -1.9819 -0.0550
3.0400 -1.9952 -0.0552
3.0600 -2.0086 -0.0530
3.0800 -2.0219 -0.0522
3.1000 -2.0352 -0.0500
3.1200 -2.0486 -0.0497
3.1400 -2.0619 -0.0497
3.1600 -2.0753 -0.0520
3.1800 -2.0886 -0.0478
3.2000 -2.1019 -0.0488
3.2200 -2.1153 -0.0491
3.2400 -2.1286 -0.0476
3.2600 -2.1419 -0.0467
3.2800 -2.1552 -0.0446
3.3000 -2.1685 -0.0453
3.3200 -2.1819 -0.0447
3.3400 -2.1952 -0.0439
3.3600 -2.2086 -0.0426
3.3800 -2.2219 -0.0413
3.4000 -2.2353 -0.0411
3.4200 -2.2486 -0.0413
3.4400 -2.2619 -0.0397
3.4600 -2.2752 -0.0375
3.4800 -2.2886 -0.0379
3.5000 -2.3019 -0.0379
3.5200 -2.3152 -0.0404
3.5400 -2.3285 -0.0361
3.5600 -2.3419 -0.0348
3.5800 -2.3552 -0.0337
3.6000 -2.3686 -0.0348
3.6200 -2.3819 -0.0322
3.6400 -2.3952 -0.0354
3.6600 -2.4085 -0.0337
3.6800 -2.4219 -0.0332
3.7000 -2.4353 -0.0318
3.7200 -2.4486 -0.0291
3.7400 -2.4619 -0.0317
3.7600 -2.4753 -0.0323
3.7800 -2.4886 -0.0302
3.8000 -2.5020 -0.0273
3.8200 -2.5152 -0.0288
3.8400 -2.5286 -0.0274
3.8600 -2.5419 -0.0299
3.8800 -2.5553 -0.0279
3.9000 -2.5686 -0.0276
3.9200 -2.5819 -0.0279
3.9400 -2.5952 -0.0286
3.9600 -2.6086 -0.0276
3.9800 -2.6219 -0.0260
4.0000 -2.6352 -0.0295
4.0200 -2.6485 -0.0268
4.0400 -2.6619 -0.0276
4.0600 -2.6753 -0.0255
4.0800 -2.6886 -0.0265
4.1000 -2.7019 -0.0249
4.1200 -2.7152 -0.0258
4.1400 -2.7286 -0.0226
4.1600 -2.7419 -0.0240
4.1800 -2.7553 -0.0238
4.2000 -2.7686 -0.0229
4.2200 -2.7819 -0.0235
4.2400 -2.7953 -0.0228
4.2600 -2.8086 -0.0225
4.2800 -2.8219 -0.0208
4.3000 -2.8353 -0.0224
4.3200 -2.8486 -0.0200
4.3400 -2.8619 -0.0217
4.3600 -2.8752 -0.0219
4.3800 -2.8885 -0.0203
4.4000 -2.9018 -0.0173
4.4200 -2.9152 -0.0187
4.4400 -2.9285 -0.0177
4.4600 -2.9418 -0.0168
4.4800 -2.9552 -0.0157
4.5000 -2.9686 -0.0145
4.5200 -2.9820 -0.0101
4.5400 -2.9953 -0.0140
4.5600 -3.0086 -0.0117
4.5800 -3.0220 -0.0123
4.6000 -3.0353 -0.0103
4.6200 -3.0486 -0.0098
4.6400 -3.0619 -0.0098
4.6600 -3.0752 -0.0103
4.6800 -3.0886 -0.0067
4.7000 -3.1019 -0.0064
4.7200 -3.1152 -0.0079
4.7400 -3.1285 -0.0061
4.7600 -3.1419 -0.0043
4.7800 -3.1553 -0.0041
4.8000 -3.1686 -0.0033
4.8200 -3.1819 -0.0025
4.8400 -3.1953 -0.0032
4.8600 -3.2087 0.0010
4.8800 -3.2220 0.0012
4.9000 -3.2352 -0.0006
4.9200 -3.2485 0.0001
4.9400 -3.2619 0.0025
4.9600 -3.2753 0.0022
4.9800 -3.2886 0.0056
5.0000 -3.3019 0.0053
5.0200 -3.3152 0.0036
5.0400 -3.3286 0.0069
5.0600 -3.3419 0.0071
5.0800 -3.3552 0.0045
5.1000 -3.3685 0.0086
5.1200 -3.3819 0.0079
5.1400 -3.3952 0.0092
5.1600 -3.4085 0.0089
5.1800 -3.4219 0.0096
5.2000 -3.4352 0.0090
5.2200 -3.4486 0.0126
5.2400 -3.4620 0.0111
5.2600 -3.4753 0.0106
5.2800 -3.4886 0.0119
5.3000 -3.5020 0.0144
5.3200 -3.5153 0.0114
5.3400 -3.5286 0.0159
5.3600 -3.5419 0.0146
5.3800 -3.5552 0.0145
5.4000 -3.5686 0.0155
5.4200 -3.5819 0.0178
5.4400 -3.5952 0.0154
5.4600 -3.6085 0.0180
5.4800 -3.6218 0.0188
5.5000 -3.6352 0.0195
5.5200 -3.6485 0.0206
5.5400 -3.6618 0.0224
5.5600 -3.6752 0.0182
5.5800 -3.6886 0.0200
5.6000 -3.7020 0.0216
5.6200 -3.7153 0.0211
5.6400 -3.7286 0.0226
5.6600 -3.7420 0.0218
5.6800 -3.7553 0.0205
5.7000 -3.7686 0.0218
5.7200 -3.7819 0.0239
5.7400 -3.7952 0.0230
5.7600 -3.8086 0.0244
5.7800 -3.8219 0.0247
5.8000 -3.8352 0.0240
5.8200 -3.8485 0.0242
5.8400 -3.8619 0.0279
5.8600 -3.8752 0.0254
5.8800 -3.8885 0.0272
5.9000 -3.9019 0.0279
5.9200 -3.9152 0.0259
5.9400 -3.9286 0.0265
5.9600 -3.9419 0.0275
5.9800 -3.9552 0.0254
6.0000 -3.9686 0.0272
6.0200 -3.9819 0.0278
6.0400 -3.9953 0.0274
6.0600 -4.0086 0.0280
6.0800 -4.0220 0.0300
6.1000 -4.0353 0.0265
6.1200 -4.0486 0.0268
6.1400 -4.0619 0.0291
6.1600 -4.0752 0.0246
6.1800 -4.0885 0.0266
6.2000 -4.1019 0.0286
6.2200 -4.1152 0.0281
6.2400 -4.1285 0.0275
6.2600 -4.1418 0.0294
6.2800 -4.1552 0.0292
6.3000 -4.1686 0.0300
6.3200 -4.1819 0.0333
6.3400 -4.1952 0.0294
6.3600 -4.2085 0.0321
6.3800 -4.2219 0.0308
6.4000 -4.2353 0.0318
6.4200 -4.2486 0.0306
6.4400 -4.2619 0.0360
6.4600 -4.2753 0.0327
6.4800 -4.2886 0.0366
6.5000 -4.3019 0.0349
6.5200 -4.3152 0.0350
6.5400 -4.3285 0.0351
6.5600 -4.3418 0.0381
6.5800 -4.3552 0.0385
6.6000 -4.3685 0.0415
6.6200 -4.3819 0.0431
6.6400 -4.3952 0.0394
6.6600 -4.4086 0.0407
6.6800 -4.4220 0.0404
6.7000 -4.4353 0.0386
6.7200 -4.4486 0.0419
6.7400 -4.4619 0.0447
6.7600 -4.4753 0.0437
6.7800 -4.4886 0.0455
6.8000 -4.5019 0.0464
6.8200 -4.5152 0.0464
6.8400 -4.5285 0.0469
6.8600 -4.5419 0.0476
6.8800 -4.5552 0.0461
6.9000 -4.5685 0.0456
6.9200 -4.5819 0.0492
6.9400 -4.5952 0.0469
6.9600 -4.6086 0.0493
6.9800 -4.6219 0.0510
7.0000 -4.6352 0.0477
7.0200 -4.6486 0.0516
7.0400 -4.6620 0.0530
7.0600 -4.6753 0.0522
7.0800 -4.6886 0.0534
7.1000 -4.7019 0.0573
7.1200 -4.7153 0.0538
7.1400 -4.7286 0.0571
7.1600 -4.7419 0.0540
7.1800 -4.7553 0.0559
7.2000 -4.7686 0.0546
7.2200 -4.7819 0.0589
7.2400 -4.7952 0.0523
7.2600 -4.8085 0.0550
7.2800 -4.8219 0.0570
7.3000 -4.8352 0.0568
7.3200 -4.8485 0.0583
7.3400 -4.8618 0.0591
7.3600 -4.8752 0.0582
7.3800 -4.8886 0.0581
7.4000 -4.9019 0.0606
7.4200 -4.9153 0.0596
7.4400 -4.9286 0.0596
7.4600 -4.9419 0.0604
7.4800 -4.9553 0.0618
7.5000 -4.9686 0.0608
7.5200 -4.9819 0.0626
7.5400 -4.9952 0.0588
7.5600 -5.0086 0.0614
7.5800 -5.0219 0.0642
7.6000 -5.0352 0.0634
7.6200 -5.0485 0.0630
7.6400 -5.0618 0.0656
7.6600 -5.0752 0.0639
7.6800 -5.0886 0.0657
7.7000 -5.1019 0.0674
7.7200 -5.1152 0.0639
7.7400 -5.1286 0.0652
7.7600 -5.1420 0.0674
7.7800 -5.1553 0.0665
7.8000 -5.1686 0.0678
7.8200 -5.1819 0.0692
7.8400 -5.1953 0.0682
7.8600 -5.2086 0.0690
7.8800 -5.2219 0.0702
7.9000 -5.2352 0.0705
7.9200 -5.2485 0.0712
7.9400 -5.2619 0.0715
7.9600 -5.2752 0.0708
7.9800 -5.2885 0.0692
8.0000 -5.3019 0.0748
8.0200 -5.3152 0.0712
8.0400 -5.3286 0.0724
8.0600 -5.3419 0.0720
8.0800 -5.3552 0.0700
8.1000 -5.3686 0.0719
8.1200 -5.3820 0.0747
8.1400 -5.3953 0.0755
8.1600 -5.4086 0.0755
8.1800 -5.4219 0.0778
8.2000 -5.4353 0.0758
8.2200 -5.4486 0.0790
8.2400 -5.4619 0.0772
8.2600 -5.4752 0.0786
8.2800 -5.4886 0.0740
8.3000 -5.5019 0.0782
8.3200 -5.5152 0.0776
8.3400 -5.5285 0.0811
8.3600 -5.5418 0.0827
8.3800 -5.5552 0.0814
8.4000 -5.5686 0.0806
8.4200 -5.5819 0.0820
8.4400 -5.5952 0.0812
8.4600 -5.6086 0.0817
8.4800 -5.6220 0.0843
8.5000 -5.6353 0.0816
8.5200 -5.6486 0.0831
8.5400 -5.6619 0.0870
8.5600 -5.6753 0.0856
8.5800 -5.6886 0.0853
8.6000 -5.7019 0.0876
8.6200 -5.7152 0.0855
8.6400 -5.7286 0.0875
8.6600 -5.7419 0.0897
8.6800 -5.7552 0.0883
8.7000 -5.7685 0.0878
8.7200 -5.7818 0.0886
8.7400 -5.7952 0.0884
8.7600 -5.8085 0.0873
8.7800 -5.8219 0.0907
8.8000 -5.8352 0.0921
8.8200 -5.8486 0.0905
8.8400 -5.8620 0.0947
8.8600 -5.8753 0.0909
8.8800 -5.8886 0.0908
8.9000 -5.9019 0.0932
8.9200 -5.9153 0.0919
8.9400 -5.9286 0.0927
8.9600 -5.9419 0.0950
8.9800 -5.9552 0.0944
9.0000 -5.9686 0.0958
9.0200 -5.9819 0.0967
9.0400 -5.9952 0.0955
9.0600 -6.0085 0.0919
9.0800 -6.0219 0.0964
9.1000 -6.0352 0.0950
9.1200 -6.0486 0.0964
9.1400 -6.0619 0.0960
9.1600 -6.0752 0.0948
9.1800 -6.0886 0.0947
9.2000 -6.1020 0.0973
9.2200 -6.1153 0.0951
9.2400 -6.1285 0.0973
9.2600 -6.1419 0.1008
9.2800 -6.1552 0.1025
9.3000 -6.1686 0.1006
9.3200 -6.1819 0.1027
9.3400 -6.1952 0.1024
9.3600 -6.2086 0.1023
9.3800 -6.2219 0.1053
9.4000 -6.2352 0.1050
9.4200 -6.2485 0.1061
9.4400 -6.2619 0.1083
9.4600 -6.2752 0.1090
9.4800 -6.2885 0.1083
9.5000 -6.3019 0.1106
9.5200 -6.3152 0.1099
9.5400 -6.3286 0.1093
9.5600 -6.3420 0.1110
9.5800 -6.3553 0.1112
9.6000 -6.3686 0.1098
9.6200 -6.3819 0.1116
9.6400 -6.3953 0.1115
9.6600 -6.4086 0.1101
9.6800 -6.4219 0.1120
9.7000 -6.4352 0.1115
9.7200 -6.4486 0.1116
9.7400 -6.4619 0.1135
9.7600 -6.4752 0.1131
9.7800 -6.4885 0.1112
9.8000 -6.5018 0.1125
9.8200 -6.5152 0.1138
9.8400 -6.5286 0.1115
9.8600 -6.5419 0.1152
9.8800 -6.5552 0.1143
9.9000 -6.5686 0.1154
9.9200 -6.5820 0.1174
9.9400 -6.5953 0.1161
9.9600 -6.6086 0.1139
9.9800 -6.6219 0.1178
10.0000 -6.6353 0.1149
10.0200 -6.6486 0.1157
10.0400 -6.6619 0.1157
10.0600 -6.6752 0.1189
10.0800 -6.6886 0.1180
10.1000 -6.7019 0.1212
10.1200 -6.7153 0.1198
10.1400 -6.7285 0.1183
10.1600 -6.7418 0.1191
10.1800 -6.7552 0.1199
10.2000 -6.7686 0.1183
10.2200 -6.7819 0.1198
10.2400 -6.7952 0.1205
10.2600 -6.8085 0.1205
10.2800 -6.8219 0.1201
10.3000 -6.8353 0.1197
10.3200 -6.8486 0.1190
10.3400 -6.8619 0.1209
10.3600 -6.8753 0.1219
10.3800 -6.8886 0.1199
10.4000 -6.9019 0.1216
10.4200 -6.9153 0.1206
10.4400 -6.9286 0.1197
10.4600 -6.9420 0.1220
10.4800 -6.9553 0.1225
10.5000 -6.9685 0.1198
10.5200 -6.9819 0.1216
10.5400 -6.9952 0.1205
10.5600 -7.0086 0.1202
10.5800 -7.0219 0.1214
10.6000 -7.0352 0.1220
10.6200 -7.0486 0.1198
10.6400 -7.0620 0.1237
10.6600 -7.0753 0.1255
10.6800 -7.0886 0.1232
10.7000 -7.1019 0.1242
10.7200 -7.1152 0.1249
10.7400 -7.1286 0.1234
10.7600 -7.1419 0.1254
10.7800 -7.1552 0.1239
10.8000 -7.1686 0.1262
10.8200 -7.1819 0.1259
10.8400 -7.1952 0.1279
10.8600 -7.2085 0.1270
10.8800 -7.2219 0.1282
10.9000 -7.2352 0.1294
10.9200 -7.2486 0.1283
10.9400 -7.2619 0.1292
10.9600 -7.2752 0.1309
10.9800 -7.2886 0.1286
11.0000 -7.3019 0.1310
11.0200 -7.3153 0.1330
11.0400 -7.3286 0.1321
11.0600 -7.3419 0.1336
11.0800 -7.3552 0.1330
11.1000 -7.3686 0.1327
11.1200 -7.3819 0.1334
11.1400 -7.3952 0.1348
11.1600 -7.4085 0.1357
11.1800 -7.4219 0.1356
11.2000 -7.4352 0.1394
11.2200 -7.4485 0.1383
11.2400 -7.4618 0.1404
11.2600 -7.4752 0.1419
11.2800 -7.4886 0.1399
11.3000 -7.5019 0.1402
11.3200 -7.5152 0.1401
11.3400 -7.5286 0.1400
11.3600 -7.5420 0.1414
11.3800 -7.5553 0.1444
11.4000 -7.5686 0.1397
11.4200 -7.5819 0.1418
11.4400 -7.5952 0.1419
11.4600 -7.6086 0.1443
11.4800 -7.6219 0.1445
11.5000 -7.6353 0.1456
11.5200 -7.6486 0.1406
11.5400 -7.6620 0.1439
11.5600 -7.6753 0.1478
11.5800 -7.6886 0.1462
11.6000 -7.7019 0.1463
11.6200 -7.7152 0.1466
11.6400 -7.7285 0.1458
11.6600 -7.7418 0.1451
11.6800 -7.7552 0.1469
11.7000 -7.7685 0.1471
11.7200 -7.7819 0.1512
11.7400 -7.7953 0.1508
11.7600 -7.8086 0.1475
11.7800 -7.8219 0.1503
11.8000 -7.8353 0.1520
11.8200 -7.8487 0.1507
11.8400 -7.8620 0.1533
11.8600 -7.8753 0.1524
11.8800 -7.8886 0.1534
11.9000 -7.9019 0.1544
11.9200 -7.9152 0.1567
11.9400 -7.9285 0.1530
11.9600 -7.9419 0.1557
11.9800 -7.9552 0.1532
12.0000 -7.9686 0.1547
12.0200 -7.9819 0.1557
12.0400 -7.9952 0.1591
12.0600 -8.0086 0.1560
12.0800 -8.0219 0.1590
12.1000 -8.0353 0.1586
12.1200 -8.0486 0.1576
12.1400 -8.0619 0.1561
12.1600 -8.0752 0.1580
12.1800 -8.0886 0.1578
12.2000 -8.1019 0.1578
12.2200 -8.1152 0.1608
12.2400 -8.1286 0.1587
12.2600 -8.1419 0.1600
12.2800 -8.1553 0.1610
12.3000 -8.1686 0.1594
12.3200 -8.1819 0.1598
12.3400 -8.1952 0.1615
12.3600 -8.2086 0.1577
12.3800 -8.2219 0.1600
12.4000 -8.2352 0.1613
12.4200 -8.2485 0.1602
12.4400 -8.2619 0.1613
12.4600 -8.2753 0.1619
12.4800 -8.2886 0.1613
12.5000 -8.3019 0.1596
12.5200 -8.3153 0.1637
12.5400 -8.3286 0.1616
12.5600 -8.3420 0.1628
12.5800 -8.3552 0.1627
12.6000 -8.3686 0.1601
12.6200 -8.3819 0.1622
12.6400 -8.3952 0.1620
12.6600 -8.4085 0.1635
12.6800 -8.4218 0.1623
12.7000 -8.4352 0.1639
12.7200 -8.4485 0.1603
12.7400 -8.4619 0.1606
12.7600 -8.4752 0.1637
12.7800 -8.4885 0.1646
12.8000 -8.5019 0.1629
12.8200 -8.5153 0.1657
12.8400 -8.5286 0.1607
12.8600 -8.5419 0.1631
12.8800 -8.5552 0.1642
12.9000 -8.5686 0.1643
12.9200 -8.5820 0.1639
12.9400 -8.5953 0.1652
12.9600 -8.6086 0.1657
12.9800 -8.6219 0.1668
13.0000 -8.6353 0.1686
13.0200 -8.6486 0.1689
13.0400 -8.6619 0.1691
13.0600 -8.6752 0.1691
13.0800 -8.6885 0.1654
13.1000 -8.7019 0.1664
13.1200 -8.7152 0.1681
13.1400 -8.7285 0.1685
13.1600 -8.7419 0.1678
13.1800 -8.7553 0.1711
13.2000 -8.7686 0.1684
13.2200 -8.7819 0.1721
13.2400 -8.7952 0.1712
13.2600 -8.8086 0.1709
13.2800 -8.8220 0.1706
13.3000 -8.8353 0.1726
13.3200 -8.8486 0.1708
13.3400 -8.8620 0.1731
13.3600 -8.8753 0.1733
13.3800 -8.8886 0.1720
13.4000 -8.9019 0.1724
13.4200 -8.9152 0.1738
13.4400 -8.9286 0.1745
13.4600 -8.9419 0.1741
13.4800 -8.9552 0.1777
13.5000 -8.9685 0.1760
13.5200 -8.9819 0.1752
13.5400 -8.9953 0.1775
13.5600 -9.0086 0.1785
13.5800 -9.0219 0.1783
13.6000 -9.0352 0.1815
13.6200 -9.0486 0.1782
13.6400 -9.0620 0.1805
13.6600 -9.0753 0.1796
13.6800 -9.0886 0.1806
13.7000 -9.1019 0.1826
13.7200 -9.1153 0.1855
13.7400 -9.1286 0.1824
13.7600 -9.1419 0.1834
13.7800 -9.1552 0.1825
13.8000 -9.1685 0.1862
13.8200 -9.1819 0.1860
13.8400 -9.1952 0.1873
13.8600 -9.2085 0.1851
13.8800 -9.2219 0.1868
13.9000 -9.2353 0.1877
13.9200 -9.2486 0.1868
13.9400 -9.2620 0.1852
13.9600 -9.2753 0.1874
13.9800 -9.2886 0.1855
14.0000 -9.3020 0.1889
14.0200 -9.3153 0.1888
14.0400 -9.3285 0.1900
14.0600 -9.3419 0.1877
14.0800 -9.3552 0.1904
14.1000 -9.3685 0.1880
14.1200 -9.3818 0.1909
14.1400 -9.3952 0.1901
14.1600 -9.4085 0.1905
14.1800 -9.4219 0.1910
14.2000 -9.4352 0.1901
14.2200 -9.4486 0.1902
14.2400 -9.4619 0.1887
14.2600 -9.4753 0.1911
14.2800 -9.4886 0.1895
14.3000 -9.5019 0.1881
14.3200 -9.5152 0.1884
14.3400 -9.5286 0.1874
14.3600 -9.5420 0.1874
14.3800 -9.5553 0.1900
14.4000 -9.5686 0.1884
14.4200 -9.5819 0.1895
14.4400 -9.5953 0.1908
14.4600 -9.6086 0.1890
14.4800 -9.6219 0.1885
14.5000 -9.6352 0.1895
14.5200 -9.6485 0.1895
14.5400 -9.6619 0.1906
14.5600 -9.6752 0.1903
14.5800 -9.6885 0.1902
14.6000 -9.7019 0.1915
14.6200 -9.7153 0.1920
14.6400 -9.7286 0.1925
14.6600 -9.7419 0.1926
14.6800 -9.7552 0.1938
14.7000 -9.7686 0.1938
14.7200 -9.7820 0.1933
14.7400 -9.7953 0.1939
14.7600 -9.8086 0.1941
14.7800 -9.8219 0.1960
14.8000 -9.8352 0.1966
14.8200 -9.8486 0.1969
14.8400 -9.8618 0.1957
14.8600 -9.8752 0.1991
14.8800 -9.8885 0.1983
14.9000 -9.9019 0.1992
14.9200 -9.9152 0.1999
14.9400 -9.9286 0.1987
14.9600 -9.9419 0.1997
14.9800 -9.9553 0.2014
15.0000 -9.9686 0.2010
15.0200 -9.9819 0.2005
15.0400 -9.9952 0.2023
15.0600 -10.0086 0.2016
15.0800 -10.0219 0.2026
15.1000 -10.0352 0.2039
15.1200 -10.0485 0.2041
15.1400 -10.0619 0.2038
15.1600 -10.0752 0.2046
15.1800 -10.0885 0.2063
15.2000 -10.1018 0.2042
15.2200 -10.1152 0.2059
15.2400 -10.1285 0.2062
15.2600 -10.1419 0.2058
15.2800 -10.1552 0.2091
15.3000 -10.1686 0.2081
15.3200 -10.1819 0.2078
15.3400 -10.1953 0.2090
15.3600 -10.2087 0.2076
15.3800 -10.2220 0.2078
15.4000 -10.2353 0.2089
15.4200 -10.2486 0.2096
15.4400 -10.2620 0.2107
15.4600 -10.2753 0.2119
15.4800 -10.2886 0.2112
15.5000 -10.3019 0.2114
15.5200 -10.3152 0.2125
15.5400 -10.3286 0.2139
15.5600 -10.3418 0.2127
15.5800 -10.3551 0.2145
15.6000 -10.3685 0.2128
15.6200 -10.3819 0.2163
15.6400 -10.3952 0.2146
15.6600 -10.4085 0.2160
15.6800 -10.4219 0.2139
15.7000 -10.4353 0.2173
15.7200 -10.4486 0.2154
15.7400 -10.4620 0.2165
15.7600 -10.4753 0.2152
15.7800 -10.4886 0.2168
15.8000 -10.5020 0.2162
15.8200 -10.5153 0.2198
15.8400 -10.5286 0.2171
15.8600 -10.5419 0.2165
15.8800 -10.5552 0.2165
15.9000 -10.5686 0.2173
15.9200 -10.5818 0.2179
15.9400 -10.5951 0.2199
15.9600 -10.6085 0.2201
15.9800 -10.6218 0.2173
16.0000 -10.6352 0.2152
16.0200 -10.6485 0.2162
16.0400 -10.6619 0.2185
16.0600 -10.6753 0.2200
16.0800 -10.6886 0.2199
16.1000 -10.7020 0.2196
16.1200 -10.7153 0.2197
16.1400 -10.7286 0.2199
16.1600 -10.7420 0.2224
16.1800 -10.7553 0.2227
16.2000 -10.7686 0.2216
16.2200 -10.7819 0.2205
16.2400 -10.7952 0.2215
16.2600 -10.8085 0.2228
16.2800 -10.8218 0.2196
16.3000 -10.8351 0.2215
16.3200 -10.8485 0.2223
16.3400 -10.8619 0.2213
16.3600 -10.8752 0.2229
16.3800 -10.8885 0.2230
16.4000 -10.9019 0.2231
16.4200 -10.9153 0.2211
16.4400 -10.9286 0.2232
16.4600 -10.9419 0.2202
16.4800 -10.9552 0.2230
16.5000 -10.9685 0.2235
16.5200 -10.9819 0.2239
16.5400 -10.9953 0.2247
16.5600 -11.0086 0.2288
16.5800 -11.0219 0.2258
16.6000 -11.0352 0.2291
16.6200 -11.0486 0.2295
16.6400 -11.0619 0.2307
16.6600 -11.0752 0.2296
16.6800 -11.0885 0.2305
16.7000 -11.1019 0.2293
16.7200 -11.1152 0.2310
16.7400 -11.1285 0.2327
16.7600 -11.1419 0.2323
16.7800 -11.1553 0.2340
16.8000 -11.1687 0.2357
16.8200 -11.1820 0.2337
16.8400 -11.1953 0.2344
16.8600 -11.2086 0.2358
16.8800 -11.2220 0.2344
16.9000 -11.2353 0.2366
16.9200 -11.2486 0.2365
16.9400 -11.2619 0.2374
16.9600 -11.2752 0.2379
16.9800 -11.2885 0.2390
17.0000 -11.3018 0.2383
17.0200 -11.3151 0.2395
17.0400 -11.3285 0.2413
17.0600 -11.3419 0.2418
17.0800 -11.3552 0.2405
17.1000 -11.3685 0.2416
17.1200 -11.3819 0.2400
17.1400 -11.3953 0.2431
17.1600 -11.4086 0.2435
17.1800 -11.4219 0.2434
17.2000 -11.4352 0.2442
17.2200 -11.4486 0.2449
17.2400 -11.4620 0.2440
17.2600 -11.4753 0.2451
17.2800 -11.4886 0.2447
17.3000 -11.5019 0.2462
17.3200 -11.5152 0.2475
17.3400 -11.5286 0.2488
17.3600 -11.5419 0.2480
17.3800 -11.5552 0.2480
17.4000 -11.5685 0.2471
17.4200 -11.5819 0.2456
17.4400 -11.5952 0.2477
17.4600 -11.6085 0.2486
17.4800 -11.6218 0.2463
17.5000 -11.6352 0.2497
17.5200 -11.6486 0.2492
17.5400 -11.6619 0.2511
17.5600 -11.6752 0.2502
17.5800 -11.6886 0.2500
17.6000 -11.7019 0.2497
17.6200 -11.7153 0.2523
17.6400 -11.7286 0.2511
17.6600 -11.7419 0.2529
17.6800 -11.7553 0.2524
17.7000 -11.7686 0.2518
17.7200 -11.7819 0.2503
17.7400 -11.7952 0.2517
17.7600 -11.8085 0.2514
17.7800 -11.8219 0.2507
17.8000 -11.8352 0.2509
17.8200 -11.8486 0.2506
17.8400 -11.8619 0.2497
17.8600 -11.8753 0.2521
17.8800 -11.8886 0.2525
17.9000 -11.9019 0.2507
17.9200 -11.9152 0.2499
17.9400 -11.9286 0.2488
17.9600 -11.9419 0.2515
17.9800 -11.9552 0.2521
18.0000 -11.9686 0.2508
18.0200 -11.9819 0.2517
18.0400 -11.9952 0.2516
18.0600 -12.0086 0.2525
18.0800 -12.0219 0.2529
18.1000 -12.0352 0.2517
18.1200 -12.0485 0.2544
18.1400 -12.0619 0.2515
18.1600 -12.0753 0.2527
18.1800 -12.0886 0.2509
18.2000 -12.1019 0.2522
18.2200 -12.1153 0.2517
18.2400 -12.1286 0.2516
18.2600 -12.1419 0.2521
18.2800 -12.1552 0.2534
18.3000 -12.1686 0.2530
18.3200 -12.1819 0.2513
18.3400 -12.1953 0.2519
18.3600 -12.2086 0.2527
18.3800 -12.2219 0.2520
18.4000 -12.2352 0.2528
18.4200 -12.2486 0.2546
18.4400 -12.2619 0.2546
18.4600 -12.2752 0.2544
18.4800 -12.2885 0.2550
18.5000 -12.3019 0.2538
18.5200 -12.3153 0.2551
18.5400 -12.3286 0.2555
18.5600 -12.3419 0.2562
18.5800 -12.3552 0.2562
18.6000 -12.3686 0.2583
18.6200 -12.3820 0.2577
18.6400 -12.3953 0.2559
18.6600 -12.4086 0.2555
18.6800 -12.4219 0.2574
18.7000 -12.4353 0.2588
18.7200 -12.4486 0.2603
18.7400 -12.4619 0.2598
18.7600 -12.4753 0.2600
18.7800 -12.4886 0.2607
18.8000 -12.5019 0.2611
18.8200 -12.5152 0.2615
18.8400 -12.5285 0.2612
18.8600 -12.5419 0.2645
18.8800 -12.5552 0.2636
18.9000 -12.5685 0.2627
18.9200 -12.5818 0.2641
18.9400 -12.5952 0.2659
18.9600 -12.6086 0.2666
18.9800 -12.6220 0.2677
19.0000 -12.6353 0.2680
19.0200 -12.6486 0.2701
19.0400 -12.6620 0.2681
19.0600 -12.6753 0.2691
19.0800 -12.6886 0.2690
19.1000 -12.7019 0.2712
19.1200 -12.7152 0.2716
19.1400 -12.7286 0.2728
19.1600 -12.7419 0.2739
19.1800 -12.7552 0.2738
19.2000 -12.7685 0.2744
19.2200 -12.7819 0.2744
19.2400 -12.7953 0.2738
19.2600 -12.8086 0.2735
19.2800 -12.8219 0.2758
19.3000 -12.8353 0.2751
19.3200 -12.8486 0.2760
19.3400 -12.8620 0.2751
19.3600 -12.8752 0.2766
19.3800 -12.8885 0.2753
19.4000 -12.9019 0.2777
19.4200 -12.9153 0.2760
19.4400 -12.9286 0.2770
19.4600 -12.9419 0.2775
19.4800 -12.9552 0.2795
19.5000 -12.9686 0.2789
19.5200 -12.9819 0.2796
19.5400 -12.9952 0.2770
19.5600 -13.0085 0.2785
19.5800 -13.0219 0.2802
19.6000 -13.0352 0.2810
19.6200 -13.0486 0.2796
19.6400 -13.0619 0.2832
19.6600 -13.0752 0.2820
19.6800 -13.0886 0.2830
19.7000 -13.1019 0.2835
19.7200 -13.1153 0.2804
19.7400 -13.1286 0.2822
19.7600 -13.1420 0.2818
19.7800 -13.1553 0.2831
19.8000 -13.1686 0.2794
19.8200 -13.1819 0.2813
19.8400 -13.1952 0.2815
19.8600 -13.2086 0.2806
19.8800 -13.2219 0.2812
19.9000 -13.2352 0.2815
19.9200 -13.2485 0.2796
19.9400 -13.2618 0.2810
19.9600 -13.2752 0.2799
19.9800 -13.2885 0.2789
20.0000 -13.3019 0.2823
20.0200 -13.3152 0.2786
20.0400 -13.3286 0.2787
20.0600 -13.3420 0.2800
20.0800 -13.3553 0.2793
20.1000 -13.3686 0.2803
20.1200 -13.3820 0.2792
20.1400 -13.3953 0.2804
20.1600 -13.4086 0.2787
20.1800 -13.4219 0.2803
20.2000 -13.4352 0.2790
20.2200 -13.4486 0.2788
20.2400 -13.4619 0.2797
20.2600 -13.4752 0.2793
20.2800 -13.4885 0.2808
20.3000 -13.5019 0.2825
20.3200 -13.5152 0.2795
20.3400 -13.5285 0.2836
20.3600 -13.5419 0.2838
20.3800 -13.5552 0.2848
20.4000 -13.5686 0.2823
20.4200 -13.5819 0.2854
20.4400 -13.5952 0.2860
20.4600 -13.6086 0.2877
20.4800 -13.6219 0.2860
20.5000 -13.6353 0.2866
20.5200 -13.6486 0.2863
20.5400 -13.6619 0.2889
20.5600 -13.6753 0.2896
20.5800 -13.6886 0.2913
20.6000 -13.7019 0.2920
20.6200 -13.7152 0.2918
20.6400 -13.7285 0.2914
20.6600 -13.7419 0.2919
20.6800 -13.7552 0.2925
20.7000 -13.7686 0.2956
20.7200 -13.7819 0.2945
20.7400 -13.7952 0.2958
20.7600 -13.8086 0.2963
20.7800 -13.8219 0.2974
20.8000 -13.8352 0.2971
20.8200 -13.8485 0.3006
20.8400 -13.8619 0.2990
20.8600 -13.8753 0.3004
20.8800 -13.8886 0.3010
20.9000 -13.9019 0.3016
20.9200 -13.9153 0.3027
20.9400 -13.9286 0.3025
20.9600 -13.9419 0.3034
20.9800 -13.9552 0.3033
21.0000 -13.9685 0.3036
21.0200 -13.9819 0.3046
21.0400 -13.9952 0.3056
21.0600 -14.0085 0.3029
21.0800 -14.0218 0.3051
21.1000 -14.0352 0.3020
21.1200 -14.0486 0.3049
21.1400 -14.0620 0.3042
21.1600 -14.0753 0.3061
21.1800 -14.0886 0.3053
21.2000 -14.1020 0.3059
21.2200 -14.1153 0.3048
21.2400 -14.1286 0.3055
21.2600 -14.1419 0.3027
21.2800 -14.1552 0.3039
21.3000 -14.1685 0.3044
21.3200 -14.1819 0.3084
21.3400 -14.1952 0.3100
21.3600 -14.2085 0.3081
21.3800 -14.2218 0.3080
21.4000 -14.2352 0.3110
21.4200 -14.2486 0.3083
21.4400 -14.2619 0.3099
21.4600 -14.2752 0.3125
21.4800 -14.2886 0.3115
21.5000 -14.3020 0.3128
21.5200 -14.3153 0.3121
21.5400 -14.3286 0.3114
21.5600 -14.3419 0.3111
21.5800 -14.3553 0.3145
21.6000 -14.3686 0.3142
21.6200 -14.3819 0.3161
21.6400 -14.3953 0.3158
21.6600 -14.4086 0.3151
21.6800 -14.4219 0.3152
21.7000 -14.4352 0.3158
21.7200 -14.4485 0.3158
21.7400 -14.4619 0.3147
21.7600 -14.4752 0.3173
21.7800 -14.4885 0.3126
21.8000 -14.5018 0.3168
21.8200 -14.5152 0.3148
21.8400 -14.5286 0.3139
21.8600 -14.5419 0.3140
21.8800 -14.5553 0.3157
21.9000 -14.5686 0.3154
21.9200 -14.5819 0.3145
21.9400 -14.5953 0.3169
21.9600 -14.6086 0.3144
21.9800 -14.6219 0.3164
22.0000 -14.6352 0.3147
22.0200 -14.6486 0.3176
22.0400 -14.6619 0.3171
22.0600 -14.6752 0.3207
22.0800 -14.6885 0.3165
22.1000 -14.7018 0.3203
22.1200 -14.7152 0.3185
22.1400 -14.7286 0.3200
22.1600 -14.7419 0.3199
22.1800 -14.7552 0.3214
22.2000 -14.7686 0.3196
22.2200 -14.7819 0.3203
22.2400 -14.7953 0.3221
22.2600 -14.8086 0.3212
22.2800 -14.8219 0.3226
22.3000 -14.8353 0.3225
22.3200 -14.8486 0.3229
22.3400 -14.8619 0.3217
22.3600 -14.8752 0.3232
22.3800 -14.8885 0.3223
22.4000 -14.9019 0.3247
22.4200 -14.9152 0.3221
22.4400 -14.9285 0.3222
22.4600 -14.9419 0.3231
22.4800 -14.9552 0.3236
22.5000 -14.9686 0.3231
22.5200 -14.9819 0.3239
22.5400 -14.9952 0.3258
22.5600 -15.0086 0.3243
22.5800 -15.0220 0.3238
22.6000 -15.0353 0.3255
22.6200 -15.0486 0.3227
22.6400 -15.0619 0.3258
22.6600 -15.0753 0.3258
22.6800 -15.0886 0.3269
22.7000 -15.1019 0.3272
22.7200 -15.1152 0.3290
22.7400 -15.1286 0.3274
22.7600 -15.1419 0.3284
22.7800 -15.1552 0.3296
22.8000 -15.1685 0.3279
22.8200 -15.1818 0.3273
22.8400 -15.1952 0.3303
22.8600 -15.2085 0.3274
22.8800 -15.2219 0.3294
22.9000 -15.2352 0.3287
22.9200 -15.2486 0.3281
22.9400 -15.2620 0.3292
22.9600 -15.2753 0.3298
22.9800 -15.2886 0.3284
23.0000 -15.3019 0.3312
23.0200 -15.3153 0.3332
23.0400 -15.3286 0.3314
23.0600 -15.3419 0.3326
23.0800 -15.3552 0.3335
23.1000 -15.3686 0.3334
23.1200 -15.3819 0.3333
23.1400 -15.3952 0.3347
23.1600 -15.4085 0.3329
23.1800 -15.4218 0.3367
23.2000 -15.4352 0.3354
23.2200 -15.4485 0.3342
23.2400 -15.4618 0.3348
23.2600 -15.4752 0.3355
23.2800 -15.4886 0.3342
23.3000 -15.5020 0.3359
23.3200 -15.5153 0.3349
23.3400 -15.5286 0.3345
23.3600 -15.5419 0.3349
23.3800 -15.5553 0.3362
23.4000 -15.5686 0.3373
23.4200 -15.5819 0.3376
23.4400 -15.5952 0.3382
23.4600 -15.6086 0.3376
23.4800 -15.6219 0.3366
23.5000 -15.6352 0.3386
23.5200 -15.6485 0.3384
23.5400 -15.6618 0.3419
23.5600 -15.6752 0.3424
23.5800 -15.6886 0.3417
23.6000 -15.7019 0.3401
23.6200 -15.7152 0.3431
23.6400 -15.7286 0.3421
23.6600 -15.7420 0.3433
23.6800 -15.7553 0.3445
23.7000 -15.7685 0.3432
23.7200 -15.7819 0.3473
23.7400 -15.7952 0.3449
23.7600 -15.8086 0.3450
23.7800 -15.8219 0.3434
23.8000 -15.8353 0.3461
23.8200 -15.8486 0.3438
23.8400 -15.8619 0.3478
23.8600 -15.8753 0.3482
23.8800 -15.8886 0.3487
23.9000 -15.9019 0.3470
23.9200 -15.9152 0.3485
23.9400 -15.9286 0.3484
23.9600 -15.9419 0.3468
23.9800 -15.9552 0.3514
24.0000 -15.9686 0.3475
24.0200 -15.9820 0.3509
24.0400 -15.9953 0.3496
24.0600 -16.0086 0.3510
24.0800 -16.0219 0.3490
24.1000 -16.0353 0.3500
24.1200 -16.0486 0.3486
24.1400 -16.0619 0.3507
24.1600 -16.0752 0.3531
24.1800 -16.0886 0.3520
24.2000 -16.1019 0.3509
24.2200 -16.1152 0.3538
24.2400 -16.1285 0.3538
24.2600 -16.1418 0.3540
24.2800 -16.1552 0.3553
24.3000 -16.1686 0.3523
24.3200 -16.1819 0.3555
24.3400 -16.1952 0.3548
24.3600 -16.2086 0.3559
24.3800 -16.2219 0.3542
24.4000 -16.2353 0.3565
24.4200 -16.2486 0.3540
24.4400 -16.2619 0.3559
24.4600 -16.2753 0.3573
24.4800 -16.2886 0.3590
24.5000 -16.3019 0.3559
24.5200 -16.3152 0.3604
24.5400 -16.3286 0.3585
24.5600 -16.3419 0.3585
24.5800 -16.3552 0.3596
24.6000 -16.3685 0.3583
24.6200 -16.3818 0.3603
24.6400 -16.3952 0.3614
24.6600 -16.4086 0.3637
24.6800 -16.4219 0.3615
24.7000 -16.4352 0.3633
24.7200 -16.4485 0.3602
24.7400 -16.4619 0.3636
24.7600 -16.4753 0.3644
24.7800 -16.4886 0.3636
24.8000 -16.5019 0.3628
24.8200 -16.5152 0.3641
24.8400 -16.5286 0.3636
24.8600 -16.5420 0.3658
24.8800 -16.5553 0.3648
24.9000 -16.5686 0.3666
24.9200 -16.5820 0.3649
24.9400 -16.5953 0.3686
24.9600 -16.6086 0.3662
24.9800 -16.6219 0.3686
25.0000 -16.6352 0.3672
25.0200 -16.6486 0.3676
25.0400 -16.6619 0.3674
25.0600 -16.6752 0.3685
25.0800 -16.6886 0.3678
25.1000 -16.7020 0.3694
25.1200 -16.7153 0.3699
25.1400 -16.7286 0.3695
25.1600 -16.7419 0.3696
25.1800 -16.7553 0.3715
25.2000 -16.7686 0.3735
25.2200 -16.7819 0.3701
25.2400 -16.7952 0.3706
25.2600 -16.8086 0.3699
25.2800 -16.8219 0.3708
25.3000 -16.8352 0.3731
25.3200 -16.8485 0.3712
25.3400 -16.8618 0.3712
25.3600 -16.8752 0.3711
25.3800 -16.8886 0.3723
25.4000 -16.9019 0.3719
25.4200 -16.9152 0.3753
25.4400 -16.9285 0.3743
25.4600 -16.9419 0.3754
25.4800 -16.9553 0.3759
25.5000 -16.9686 0.3774
25.5200 -16.9819 0.3766
25.5400 -16.9952 0.3800
25.5600 -17.0086 0.3791
25.5800 -17.0219 0.3769
25.6000 -17.0351 0.3799
25.6200 -17.0485 0.3772
25.6400 -17.0618 0.3805
25.6600 -17.0752 0.3811
25.6800 -17.0885 0.3834
25.7000 -17.1019 0.3819
25.7200 -17.1152 0.3852
25.7400 -17.1286 0.3824
25.7600 -17.1419 0.3828
25.7800 -17.1552 0.3828
25.8000 -17.1685 0.3827
25.8200 -17.1819 0.3811
25.8400 -17.1953 0.3844
25.8600 -17.2086 0.3837
25.8800 -17.2219 0.3846
25.9000 -17.2352 0.3853
25.9200 -17.2486 0.3851
25.9400 -17.2619 0.3835
25.9600 -17.2753 0.3862
25.9800 -17.2886 0.3848
26.0000 -17.3019 0.3843
26.0200 -17.3153 0.3850
26.0400 -17.3286 0.3873
26.0600 -17.3419 0.3862
26.0800 -17.3552 0.3873
26.1000 -17.3685 0.3853
26.1200 -17.3819 0.3859
26.1400 -17.3952 0.3884
26.1600 -17.4085 0.3860
26.1800 -17.4219 0.3865
26.2000 -17.4353 0.3882
26.2200 -17.4486 0.3893
26.2400 -17.4619 0.3872
26.2600 -17.4753 0.3915
26.2800 -17.4887 0.3877
26.3000 -17.5020 0.3891
26.3200 -17.5153 0.3886
26.3400 -17.5286 0.3918
26.3600 -17.5419 0.3891
26.3800 -17.5553 0.3928
26.4000 -17.5686 0.3930
26.4200 -17.5819 0.3922
26.4400 -17.5952 0.3937
26.4600 -17.6086 0.3929
26.4800 -17.6219 0.3942
26.5000 -17.6352 0.3935
26.5200 -17.6486 0.3980
26.5400 -17.6619 0.3958
26.5600 -17.6753 0.3978
26.5800 -17.6886 0.3952
26.6000 -17.7019 0.3943
26.6200 -17.7152 0.3971
26.6400 -17.7286 0.3976
26.6600 -17.7419 0.3982
26.6800 -17.7552 0.3974
26.7000 -17.7686 0.3978
26.7200 -17.7819 0.3974
26.7400 -17.7953 0.3992
26.7600 -17.8085 0.3993
26.7800 -17.8218 0.3981
26.8000 -17.8352 0.3995
26.8200 -17.8485 0.4024
26.8400 -17.8619 0.4021
26.8600 -17.8752 0.4037
26.8800 -17.8885 0.4051
26.9000 -17.9019 0.4023
26.9200 -17.9153 0.4034
26.9400 -17.9286 0.4041
26.9600 -17.9419 0.4047
26.9800 -17.9552 0.4061
27.0000 -17.9686 0.4097
27.0200 -17.9820 0.4067
27.0400 -17.9953 0.4098
27.0600 -18.0086 0.4099
27.0800 -18.0219 0.4082
27.1000 -18.0352 0.4074
27.1200 -18.0485 0.4084
27.1400 -18.0618 0.4053
27.1600 -18.0751 0.4088
27.1800 -18.0885 0.4084
27.2000 -18.1019 0.4085
27.2200 -18.1152 0.4109
27.2400 -18.1285 0.4107
27.2600 -18.1419 0.4100
27.2800 -18.1553 0.4102
27.3000 -18.1686 0.4114
27.3200 -18.1819 0.4094
27.3400 -18.1953 0.4110
27.3600 -18.2086 0.4136
27.3800 -18.2220 0.4108
27.4000 -18.2353 0.4126
27.4200 -18.2486 0.4112
27.4400 -18.2619 0.4101
27.4600 -18.2752 0.4136
27.4800 -18.2886 0.4134
27.5000 -18.3019 0.4123
27.5200 -18.3152 0.4140
27.5400 -18.3286 0.4143
27.5600 -18.3419 0.4152
27.5800 -18.3552 0.4136
27.6000 -18.3685 0.4164
27.6200 -18.3819 0.4155
27.6400 -18.3953 0.4194
27.6600 -18.4086 0.4216
27.6800 -18.4219 0.4172
27.7000 -18.4352 0.4199
27.7200 -18.4486 0.4180
27.7400 -18.4620 0.4191
27.7600 -18.4753 0.4207
27.7800 -18.4886 0.4234
27.8000 -18.5019 0.4198
27.8200 -18.5153 0.4238
27.8400 -18.5286 0.4230
27.8600 -18.5419 0.4236
27.8800 -18.5552 0.4252
27.9000 -18.5685 0.4242
27.9200 -18.5819 0.4235
27.9400 -18.5952 0.4255
27.9600 -18.6085 0.4243
27.9800 -18.6219 0.4247
28.0000 -18.6353 0.4282
28.0200 -18.6486 0.4280
28.0400 -18.6619 0.4243
28.0600 -18.6752 0.4268
28.0800 -18.6886 0.4262
28.1000 -18.7020 0.4267
28.1200 -18.7153 0.4259
28.1400 -18.7286 0.4278
28.1600 -18.7419 0.4278
28.1800 -18.7553 0.4289
28.2000 -18.7686 0.4297
28.2200 -18.7819 0.4281
28.2400 -18.7952 0.4290
28.2600 -18.8085 0.4301
28.2800 -18.8219 0.4285
28.3000 -18.8352 0.4296
28.3200 -18.8485 0.4308
28.3400 -18.8619 0.4309
28.3600 -18.8753 0.4332
28.3800 -18.8886 0.4355
28.4000 -18.9019 0.4362
28.4200 -18.9153 0.4358
28.4400 -18.9286 0.4381
28.4600 -18.9420 0.4366
28.4800 -18.9553 0.4383
28.5000 -18.9686 0.4384
28.5200 -18.9819 0.4379
28.5400 -18.9952 0.4377
28.5600 -19.0085 0.4430
28.5800 -19.0218 0.4384
28.6000 -19.0352 0.4412
28.6200 -19.0485 0.4408
28.6400 -19.0619 0.4435
28.6600 -19.0752 0.4412
28.6800 -19.0885 0.4449
28.7000 -19.1019 0.4411
28.7200 -19.1153 0.4443
28.7400 -19.1287 0.4447
28.7600 -19.1419 0.4444
28.7800 -19.1552 0.4438
28.8000 -19.1686 0.4463
28.8200 -19.1820 0.4439
28.8400 -19.1953 0.4456
28.8600 -19.2086 0.4462
28.8800 -19.2219 0.4468
28.9000 -19.2353 0.4466
28.9200 -19.2486 0.4479
28.9400 -19.2619 0.4442
28.9600 -19.2752 0.4471
28.9800 -19.2885 0.4465
29.0000 -19.3019 0.4464
29.0200 -19.3152 0.4445
29.0400 -19.3285 0.4474
29.0600 -19.3419 0.4443
29.0800 -19.3553 0.4455
29.1000 -19.3686 0.4470
29.1200 -19.3819 0.4468
29.1400 -19.3952 0.4478
29.1600 -19.4086 0.4503
29.1800 -19.4220 0.4498
29.2000 -19.4353 0.4490
29.2200 -19.4486 0.4540
29.2400 -19.4619 0.4506
29.2600 -19.4753 0.4525
29.2800 -19.4886 0.4533
29.3000 -19.5019 0.4539
29.3200 -19.5152 0.4525
29.3400 -19.5285 0.4575
29.3600 -19.5419 0.4535
29.3800 -19.5552 0.4568
29.4000 -19.5686 0.4566
29.4200 -19.5819 0.4573
29.4400 -19.5953 0.4581
29.4600 -19.6086 0.4615
29.4800 -19.6219 0.4598
29.5000 -19.6353 0.4609
29.5200 -19.6486 0.4633
29.5400 -19.6619 0.4610
29.5600 -19.6753 0.4638
29.5800 -19.6885 0.4664
29.6000 -19.7019 0.4630
29.6200 -19.7152 0.4656
29.6400 -19.7285 0.4648
29.6600 -19.7418 0.4646
29.6800 -19.7552 0.4657
29.7000 -19.7685 0.4680
29.7200 -19.7819 0.4663
29.7400 -19.7953 0.4499
29.7600 -19.8086 0.4051
29.7800 -19.8219 0.3466
29.8000 -19.8353 0.2895
29.8200 -19.8486 0.2339
29.8400 -19.8619 0.1790
29.8600 -19.8752 0.1295
29.8800 -19.8886 0.0837
29.9000 -19.9020 0.0366
29.9200 -19.9153 -0.0047
29.9400 -19.9286 -0.0435
29.9600 -19.9419 -0.0817
29.9800 -19.9552 -0.0987
30.0000 -19.9686 -0.0946
30.0200 -19.9818 -0.0949
30.0400 -19.9951 -0.0830
30.0600 -20.0085 -0.0757
30.0800 -20.0219 -0.0909
30.1000 -20.0352 -0.1283
30.1200 -20.0485 -0.1739
30.1400 -20.0619 -0.2220
30.1600 -20.0753 -0.2656
30.1800 -20.0887 -0.3084
30.2000 -20.1020 -0.3539
30.2200 -20.1153 -0.3855
30.2400 -20.1286 -0.3921
30.2600 -20.1420 -0.3920
30.2800 -20.1553 -0.3895
30.3000 -20.1686 -0.3872
30.3200 -20.1819 -0.3869
30.3400 -20.1953 -0.3883
30.3600 -20.2086 -0.3853
30.3800 -20.2219 -0.3855
30.4000 -20.2352 -0.3847
30.4200 -20.2485 -0.3811
30.4400 -20.2619 -0.3833
30.4600 -20.2752 -0.3825
30.4800 -20.2885 -0.3812
30.5000 -20.3019 -0.3816
30.5200 -20.3153 -0.3823
30.5400 -20.3286 -0.3797
30.5600 -20.3420 -0.3804
30.5800 -20.3553 -0.3785
30.6000 -20.3686 -0.3767
30.6200 -20.3820 -0.3758
30.6400 -20.3953 -0.3752
30.6600 -20.4086 -0.3707
30.6800 -20.4219 -0.3728
30.7000 -20.4352 -0.3729
30.7200 -20.4486 -0.3708
30.7400 -20.4619 -0.3707
30.7600 -20.4752 -0.3687
30.7800 -20.4885 -0.3684
30.8000 -20.5019 -0.3676
30.8200 -20.5152 -0.3689
30.8400 -20.5286 -0.3646
30.8600 -20.5419 -0.3652
30.8800 -20.5553 -0.3654
30.9000 -20.5686 -0.3613
30.9200 -20.5819 -0.3647
30.9400 -20.5952 -0.3640
30.9600 -20.6085 -0.3607
30.9800 -20.6219 -0.3599
31.0000 -20.6352 -0.3612
31.0200 -20.6486 -0.3576
31.0400 -20.6619 -0.3598
31.0600 -20.6752 -0.3577
31.0800 -20.6886 -0.3566
31.1000 -20.7019 -0.3553
31.1200 -20.7152 -0.3564
31.1400 -20.7285 -0.3538
31.1600 -20.7419 -0.3526
31.1800 -20.7552 -0.3527
31.2000 -20.7685 -0.3524
31.2200 -20.7819 -0.3540
31.2400 -20.7953 -0.3522
31.2600 -20.8086 -0.3483
31.2800 -20.8220 -0.3485
31.3000 -20.8353 -0.3485
31.3200 -20.8486 -0.3449
31.3400 -20.8620 -0.3462
31.3600 -20.8753 -0.3461
31.3800 -20.8886 -0.3447
31.4000 -20.9019 -0.3431
31.4200 -20.9152 -0.3437
31.4400 -20.9285 -0.3403
31.4600 -20.9418 -0.3416
31.4800 -20.9551 -0.3409
31.5000 -20.9685 -0.3397
31.5200 -20.9819 -0.3404
31.5400 -20.9952 -0.3399
31.5600 -21.0086 -0.3361
31.5800 -21.0219 -0.3370
31.6000 -21.0353 -0.3365
31.6200 -21.0486 -0.3333
31.6400 -21.0619 -0.3328
31.6600 -21.0752 -0.3345
31.6800 -21.0886 -0.3299
31.7000 -21.1019 -0.3318
31.7200 -21.1153 -0.3301
31.7400 -21.1286 -0.3304
31.7600 -21.1419 -0.3284
31.7800 -21.1552 -0.3280
31.8000 -21.1686 -0.3241
31.8200 -21.1819 -0.3273
31.8400 -21.1952 -0.3273
31.8600 -21.2085 -0.3270
31.8800 -21.2219 -0.3251
31.9000 -21.2352 -0.3244
31.9200 -21.2485 -0.3211
31.9400 -21.2619 -0.3224
31.9600 -21.2752 -0.3251
31.9800 -21.2886 -0.3211
32.0000 -21.3019 -0.3220
32.0200 -21.3152 -0.3206
32.0400 -21.3286 -0.3201
32.0600 -21.3419 -0.3195
32.0800 -21.3553 -0.3192
32.1000 -21.3686 -0.3169
32.1200 -21.3819 -0.3159
32.1400 -21.3953 -0.3170
32.1600 -21.4086 -0.3151
32.1800 -21.4219 -0.3151
32.2000 -21.4352 -0.3177
32.2200 -21.4485 -0.3139
32.2400 -21.4619 -0.3134
32.2600 -21.4752 -0.3129
32.2800 -21.4886 -0.3103
32.3000 -21.5019 -0.3104
32.3200 -21.5152 -0.3122
32.3400 -21.5286 -0.3067
32.3600 -21.5420 -0.3111
32.3800 -21.5552 -0.3088
32.4000 -21.5686 -0.3076
32.4200 -21.5819 -0.3038
32.4400 -21.5953 -0.3068
32.4600 -21.6086 -0.3020
32.4800 -21.6219 -0.3038
32.5000 -21.6352 -0.3051
32.5200 -21.6486 -0.3046
32.5400 -21.6619 -0.3045
32.5600 -21.6752 -0.3042
32.5800 -21.6885 -0.3000
32.6000 -21.7019 -0.3004
32.6200 -21.7152 -0.3003
32.6400 -21.7286 -0.2990
32.6600 -21.7419 -0.2994
32.6800 -21.7552 -0.2995
32.7000 -21.7686 -0.2958
32.7200 -21.7820 -0.2958
32.7400 -21.7952 -0.2980
32.7600 -21.8086 -0.2952
32.7800 -21.8219 -0.2954
32.8000 -21.8353 -0.2955
32.8200 -21.8486 -0.2934
32.8400 -21.8619 -0.2928
32.8600 -21.8752 -0.2921
32.8800 -21.8885 -0.2916
32.9000 -21.9019 -0.2922
32.9200 -21.9152 -0.2923
32.9400 -21.9285 -0.2939
32.9600 -21.9419 -0.2894
32.9800 -21.9552 -0.2903
33.0000 -21.9685 -0.2875
33.0200 -21.9819 -0.2891
33.0400 -21.9952 -0.2896
33.0600 -22.0086 -0.2866
33.0800 -22.0220 -0.2849
33.1000 -22.0353 -0.2848
33.1200 -22.0486 -0.2830
33.1400 -22.0619 -0.2846
33.1600 -22.0753 -0.2849
33.1800 -22.0886 -0.2835
33.2000 -22.1019 -0.2813
33.2200 -22.1153 -0.2818
33.2400 -22.1286 -0.2803
33.2600 -22.1419 -0.2814
33.2800 -22.1552 -0.2808
33.3000 -22.1685 -0.2809
33.3200 -22.1818 -0.2769
33.3400 -22.1952 -0.2788
33.3600 -22.2085 -0.2751
33.3800 -22.2218 -0.2792
33.4000 -22.2352 -0.2773
33.4200 -22.2486 -0.2763
33.4400 -22.2620 -0.2721
33.4600 -22.2753 -0.2751
33.4800 -22.2886 -0.2729
33.5000 -22.3019 -0.2733
33.5200 -22.3153 -0.2742
33.5400 -22.3286 -0.2718
33.5600 -22.3419 -0.2704
33.5800 -22.3552 -0.2703
33.6000 -22.3686 -0.2701
33.6200 -22.3819 -0.2692
33.6400 -22.3952 -0.2701
33.6600 -22.4085 -0.2675
33.6800 -22.4219 -0.2668
33.7000 -22.4353 -0.2681
33.7200 -22.4486 -0.2667
33.7400 -22.4619 -0.2631
33.7600 -22.4753 -0.2638
33.7800 -22.4886 -0.2634
33.8000 -22.5020 -0.2632
33.8200 -22.5153 -0.2645
33.8400 -22.5286 -0.2639
33.8600 -22.5419 -0.2622
33.8800 -22.5553 -0.2637
33.9000 -22.5686 -0.2600
33.9200 -22.5819 -0.2605
33.9400 -22.5952 -0.2618
33.9600 -22.6086 -0.2597
33.9800 -22.6219 -0.2577
34.0000 -22.6352 -0.2590
34.0200 -22.6485 -0.2584
34.0400 -22.6619 -0.2582
34.0600 -22.6752 -0.2571
34.0800 -22.6886 -0.2531
34.1000 -22.7019 -0.2504
34.1200 -22.7152 -0.2518
34.1400 -22.7286 -0.2480
34.1600 -22.7419 -0.2470
34.1800 -22.7553 -0.2471
34.2000 -22.7686 -0.2444
34.2200 -22.7820 -0.2443
34.2400 -22.7953 -0.2440
34.2600 -22.8086 -0.2419
34.2800 -22.8219 -0.2422
34.3000 -22.8352 -0.2421
34.3200 -22.8486 -0.2432
34.3400 -22.8619 -0.2376
34.3600 -22.8752 -0.2414
34.3800 -22.8885 -0.2385
34.4000 -22.9018 -0.2401
34.4200 -22.9152 -0.2401
34.4400 -22.9286 -0.2375
34.4600 -22.9419 -0.2367
34.4800 -22.9552 -0.2373
34.5000 -22.9686 -0.2349
34.5200 -22.9820 -0.2337
34.5400 -22.9953 -0.2348
34.5600 -23.0086 -0.2317
34.5800 -23.0220 -0.2326
34.6000 -23.0353 -0.2315
34.6200 -23.0486 -0.2320
34.6400 -23.0619 -0.2312
34.6600 -23.0752 -0.2328
34.6800 -23.0886 -0.2305
34.7000 -23.1019 -0.2304
34.7200 -23.1152 -0.2310
34.7400 -23.1285 -0.2298
34.7600 -23.1419 -0.2269
34.7800 -23.1552 -0.2310
34.8000 -23.1686 -0.2271
34.8200 -23.1819 -0.2271
34.8400 -23.1952 -0.2257
34.8600 -23.2086 -0.2255
34.8800 -23.2219 -0.2250
34.9000 -23.2352 -0.2264
34.9200 -23.2486 -0.2242
34.9400 -23.2619 -0.2220
34.9600 -23.2753 -0.2226
34.9800 -23.2886 -0.2212
35.0000 -23.3019 -0.2206
35.0200 -23.3153 -0.2226
35.0400 -23.3286 -0.2230
35.0600 -23.3419 -0.2206
35.0800 -23.3552 -0.2225
35.1000 -23.3685 -0.2217
35.1200 -23.3818 -0.2198
35.1400 -23.3952 -0.2220
35.1600 -23.4085 -0.2195
35.1800 -23.4219 -0.2170
35.2000 -23.4352 -0.2195
35.2200 -23.4486 -0.2192
35.2400 -23.4620 -0.2172
35.2600 -23.4753 -0.2184
35.2800 -23.4886 -0.2165
35.3000 -23.5019 -0.2157
35.3200 -23.5153 -0.2153
35.3400 -23.5286 -0.2165
35.3600 -23.5419 -0.2148
35.3800 -23.5553 -0.2156
35.4000 -23.5686 -0.2154
35.4200 -23.5819 -0.2111
35.4400 -23.5952 -0.2133
35.4600 -23.6085 -0.2133
35.4800 -23.6218 -0.2116
35.5000 -23.6352 -0.2110
35.5200 -23.6486 -0.2093
35.5400 -23.6619 -0.2084
35.5600 -23.6752 -0.2088
35.5800 -23.6886 -0.2091
35.6000 -23.7020 -0.2065
35.6200 -23.7153 -0.2093
35.6400 -23.7286 -0.2078
35.6600 -23.7419 -0.2053
35.6800 -23.7553 -0.2051
35.7000 -23.7687 -0.2046
35.7200 -23.7819 -0.2050
35.7400 -23.7952 -0.2057
35.7600 -23.8085 -0.2050
35.7800 -23.8219 -0.2054
35.8000 -23.8352 -0.2053
35.8200 -23.8485 -0.2037
35.8400 -23.8618 -0.2022
35.8600 -23.8752 -0.2007
35.8800 -23.8886 -0.2039
35.9000 -23.9019 -0.2041
35.9200 -23.9152 -0.2019
35.9400 -23.9286 -0.2037
35.9600 -23.9420 -0.2011
35.9800 -23.9553 -0.2024
36.0000 -23.9686 -0.2011
36.0200 -23.9819 -0.2003
36.0400 -23.9953 -0.1994
36.0600 -24.0086 -0.1996
36.0800 -24.0220 -0.1995
36.1000 -24.0353 -0.1984
36.1200 -24.0486 -0.1963
36.1400 -24.0619 -0.1953
36.1600 -24.0752 -0.1959
36.1800 -24.0885 -0.1968
36.2000 -24.1019 -0.1931
36.2200 -24.1152 -0.1950
36.2400 -24.1285 -0.1919
36.2600 -24.1418 -0.1931
36.2800 -24.1552 -0.1929
36.3000 -24.1685 -0.1924
36.3200 -24.1819 -0.1901
36.3400 -24.1953 -0.1915
36.3600 -24.2086 -0.1932
36.3800 -24.2219 -0.1933
36.4000 -24.2353 -0.1914
36.4200 -24.2486 -0.1917
36.4400 -24.2619 -0.1893
36.4600 -24.2752 -0.1895
36.4800 -24.2886 -0.1887
36.5000 -24.3019 -0.1856
36.5200 -24.3152 -0.1895
36.5400 -24.3285 -0.1874
36.5600 -24.3418 -0.1867
36.5800 -24.3552 -0.1863
36.6000 -24.3686 -0.1866
36.6200 -24.3819 -0.1867
36.6400 -24.3952 -0.1879
36.6600 -24.4086 -0.1868
36.6800 -24.4220 -0.1872
36.7000 -24.4353 -0.1847
36.7200 -24.4486 -0.1859
36.7400 -24.4619 -0.1843
36.7600 -24.4752 -0.1834
36.7800 -24.4886 -0.1810
36.8000 -24.5019 -0.1812
36.8200 -24.5152 -0.1809
36.8400 -24.5286 -0.1819
36.8600 -24.5419 -0.1808
36.8800 -24.5552 -0.1792
36.9000 -24.5685 -0.1793
36.9200 -24.5819 -0.1794
36.9400 -24.5952 -0.1764
36.9600 -24.6086 -0.1789
36.9800 -24.6219 -0.1764
37.0000 -24.6352 -0.1753
37.0200 -24.6486 -0.1764
37.0400 -24.6620 -0.1748
37.0600 -24.6753 -0.1741
37.0800 -24.6886 -0.1758
37.1000 -24.7019 -0.1732
37.1200 -24.7153 -0.1743
37.1400 -24.7286 -0.1741
37.1600 -24.7419 -0.1733
37.1800 -24.7552 -0.1715
37.2000 -24.7686 -0.1715
37.2200 -24.7819 -0.1721
37.2400 -24.7952 -0.1711
37.2600 -24.8085 -0.1712
37.2800 -24.8218 -0.1707
37.3000 -24.8352 -0.1702
37.3200 -24.8485 -0.1705
37.3400 -24.8619 -0.1683
37.3600 -24.8752 -0.1708
37.3800 -24.8886 -0.1687
37.4000 -24.9020 -0.1681
37.4200 -24.9153 -0.1664
37.4400 -24.9286 -0.1674
37.4600 -24.9419 -0.1671
37.4800 -24.9553 -0.1663
37.5000 -24.9686 -0.1674
37.5200 -24.9819 -0.1649
37.5400 -24.9952 -0.1642
37.5600 -25.0086 -0.1644
37.5800 -25.0219 -0.1655
37.6000 -25.0352 -0.1653
37.6200 -25.0485 -0.1663
37.6400 -25.0618 -0.1635
37.6600 -25.0752 -0.1633
37.6800 -25.0885 -0.1622
37.7000 -25.1019 -0.1657
37.7200 -25.1152 -0.1643
37.7400 -25.1286 -0.1642
37.7600 -25.1420 -0.1625
37.7800 -25.1553 -0.1613
37.8000 -25.1686 -0.1587
37.8200 -25.1819 -0.1595
37.8400 -25.1953 -0.1575
37.8600 -25.2086 -0.1589
37.8800 -25.2219 -0.1576
37.9000 -25.2352 -0.1591
37.9200 -25.2486 -0.1562
37.9400 -25.2619 -0.1578
37.9600 -25.2752 -0.1551
37.9800 -25.2885 -0.1561
38.0000 -25.3018 -0.1556
38.0200 -25.3152 -0.1554
38.0400 -25.3286 -0.1572
38.0600 -25.3419 -0.1569
38.0800 -25.3552 -0.1554
38.1000 -25.3686 -0.1565
38.1200 -25.3820 -0.1557
38.1400 -25.3953 -0.1546
38.1600 -25.4086 -0.1545
38.1800 -25.4219 -0.1536
38.2000 -25.4352 -0.1529
38.2200 -25.4486 -0.1528
38.2400 -25.4619 -0.1513
38.2600 -25.4752 -0.1514
38.2800 -25.4885 -0.1497
38.3000 -25.5019 -0.1499
38.3200 -25.5152 -0.1483
38.3400 -25.5285 -0.1494
38.3600 -25.5418 -0.1485
38.3800 -25.5552 -0.1478
38.4000 -25.5686 -0.1485
38.4200 -25.5819 -0.1487
38.4400 -25.5952 -0.1476
38.4600 -25.6086 -0.1462
38.4800 -25.6220 -0.1439
38.5000 -25.6353 -0.1431
38.5200 -25.6486 -0.1455
38.5400 -25.6619 -0.1440
38.5600 -25.6753 -0.1452
38.5800 -25.6887 -0.1437
38.6000 -25.7020 -0.1443
38.6200 -25.7153 -0.1433
38.6400 -25.7286 -0.1441
38.6600 -25.7419 -0.1415
38.6800 -25.7552 -0.1418
38.7000 -25.7685 -0.1405
38.7200 -25.7818 -0.1409
38.7400 -25.7952 -0.1384
38.7600 -25.8086 -0.1385
38.7800 -25.8219 -0.1384
38.8000 -25.8352 -0.1374
38.8200 -25.8486 -0.1372
38.8400 -25.8619 -0.1384
38.8600 -25.8753 -0.1368
38.8800 -25.8886 -0.1380
38.9000 -25.9019 -0.1375
38.9200 -25.9153 -0.1371
38.9400 -25.9286 -0.1375
38.9600 -25.9419 -0.1343
38.9800 -25.9552 -0.1327
39.0000 -25.9686 -0.1337
39.0200 -25.9819 -0.1332
39.0400 -25.9953 -0.1325
39.0600 -26.0085 -0.1327
39.0800 -26.0218 -0.1328
39.1000 -26.0352 -0.1333
39.1200 -26.0486 -0.1327
39.1400 -26.0619 -0.1318
39.1600 -26.0752 -0.1313
39.1800 -26.0885 -0.1327
39.2000 -26.1019 -0.1309
39.2200 -26.1152 -0.1303
39.2400 -26.1286 -0.1295
39.2600 -26.1419 -0.1303
39.2800 -26.1552 -0.1297
39.3000 -26.1686 -0.1292
39.3200 -26.1820 -0.1282
39.3400 -26.1953 -0.1278
39.3600 -26.2086 -0.1274
39.3800 -26.2220 -0.1272
39.4000 -26.2353 -0.1263
39.4200 -26.2486 -0.1250
39.4400 -26.2619 -0.1254
39.4600 -26.2752 -0.1255
39.4800 -26.2886 -0.1252
39.5000 -26.3019 -0.1249
39.5200 -26.3152 -0.1250
39.5400 -26.3286 -0.1238
39.5600 -26.3420 -0.1226
39.5800 -26.3553 -0.1221
39.6000 -26.3686 -0.1231
39.6200 -26.3819 -0.1232
39.6400 -26.3952 -0.1218
39.6600 -26.4086 -0.1224
39.6800 -26.4219 -0.1202
39.7000 -26.4352 -0.1203
39.7200 -26.4486 -0.1200
39.7400 -26.4619 -0.1196
39.7600 -26.4752 -0.1178
39.7800 -26.4886 -0.1191
39.8000 -26.5019 -0.1175
39.8200 -26.5152 -0.1187
39.8400 -26.5286 -0.1190
39.8600 -26.5419 -0.1190
39.8800 -26.5552 -0.1164
39.9000 -26.5686 -0.1165
39.9200 -26.5819 -0.1174
39.9400 -26.5953 -0.1137
39.9600 -26.6086 -0.1149
39.9800 -26.6219 -0.1141
40.0000 -26.6352 -0.1163
40.0200 -26.6486 -0.1152
40.0400 -26.6619 -0.1152
40.0600 -26.6752 -0.1118
40.0800 -26.6885 -0.1124
40.1000 -26.7019 -0.1114
40.1200 -26.7152 -0.1117
40.1400 -26.7285 -0.1096
40.1600 -26.7418 -0.1101
40.1800 -26.7552 -0.1099
40.2000 -26.7686 -0.1115
40.2200 -26.7819 -0.1096
40.2400 -26.7952 -0.1089
40.2600 -26.8085 -0.1081
40.2800 -26.8219 -0.1104
40.3000 -26.8353 -0.1077
40.3200 -26.8486 -0.1068
40.3400 -26.8619 -0.1057
40.3600 -26.8752 -0.1057
40.3800 -26.8886 -0.1063
40.4000 -26.9019 -0.1039
40.4200 -26.9152 -0.1038
40.4400 -26.9286 -0.1034
40.4600 -26.9419 -0.1043
40.4800 -26.9552 -0.1025
40.5000 -26.9686 -0.1029
40.5200 -26.9819 -0.1007
40.5400 -26.9952 -0.0998
40.5600 -27.0085 -0.0985
40.5800 -27.0219 -0.0995
40.6000 -27.0352 -0.1001
40.6200 -27.0485 -0.0983
40.6400 -27.0619 -0.0997
40.6600 -27.0753 -0.0970
40.6800 -27.0886 -0.0965
40.7000 -27.1019 -0.0980
40.7200 -27.1153 -0.0959
40.7400 -27.1286 -0.0977
40.7600 -27.1420 -0.0985
40.7800 -27.1553 -0.0969
40.8000 -27.1686 -0.0968
40.8200 -27.1819 -0.0960
40.8400 -27.1952 -0.0936
40.8600 -27.2086 -0.0932
40.8800 -27.2219 -0.0943
40.9000 -27.2352 -0.0961
40.9200 -27.2486 -0.0939
40.9400 -27.2619 -0.0954
40.9600 -27.2753 -0.0920
40.9800 -27.2886 -0.0935
41.0000 -27.3019 -0.0919
41.0200 -27.3153 -0.0944
41.0400 -27.3286 -0.0908
41.0600 -27.3419 -0.0948
41.0800 -27.3552 -0.0913
41.1000 -27.3686 -0.0935
41.1200 -27.3819 -0.0914
41.1400 -27.3953 -0.0922
41.1600 -27.4086 -0.0900
41.1800 -27.4219 -0.0914
41.2000 -27.4353 -0.0909
41.2200 -27.4486 -0.0904
41.2400 -27.4618 -0.0914
41.2600 -27.4752 -0.0907
41.2800 -27.4885 -0.0886
41.3000 -27.5019 -0.0890
41.3200 -27.5152 -0.0897
41.3400 -27.5286 -0.0876
41.3600 -27.5419 -0.0893
41.3800 -27.5553 -0.0880
41.4000 -27.5686 -0.0855
41.4200 -27.5819 -0.0852
41.4400 -27.5953 -0.0867
41.4600 -27.6086 -0.0840
41.4800 -27.6220 -0.0863
41.5000 -27.6353 -0.0850
41.5200 -27.6486 -0.0834
41.5400 -27.6619 -0.0852
41.5600 -27.6752 -0.0838
41.5800 -27.6885 -0.0805
41.6000 -27.7018 -0.0815
41.6200 -27.7151 -0.0801
41.6400 -27.7285 -0.0805
41.6600 -27.7419 -0.0814
41.6800 -27.7552 -0.0814
41.7000 -27.7685 -0.0785
41.7200 -27.7819 -0.0790
41.7400 -27.7953 -0.0786
41.7600 -27.8086 -0.0776
41.7800 -27.8219 -0.0767
41.8000 -27.8353 -0.0784
41.8200 -27.8486 -0.0757
41.8400 -27.8620 -0.0774
41.8600 -27.8753 -0.0745
41.8800 -27.8886 -0.0745
41.9000 -27.9019 -0.0735
41.9200 -27.9153 -0.0745
41.9400 -27.9286 -0.0716
41.9600 -27.9419 -0.0742
41.9800 -27.9552 -0.0721
42.0000 -27.9685 -0.0699
42.0200 -27.9819 -0.0719
42.0400 -27.9952 -0.0723
42.0600 -28.0085 -0.0715
42.0800 -28.0219 -0.0698
42.1000 -28.0352 -0.0707
42.1200 -28.0486 -0.0690
42.1400 -28.0619 -0.0700
42.1600 -28.0753 -0.0700
42.1800 -28.0886 -0.0684
42.2000 -28.1020 -0.0658
42.2200 -28.1153 -0.0683
42.2400 -28.1286 -0.0665
42.2600 -28.1419 -0.0686
42.2800 -28.1553 -0.0679
42.3000 -28.1686 -0.0666
42.3200 -28.1819 -0.0662
42.3400 -28.1952 -0.0645
42.3600 -28.2085 -0.0632
42.3800 -28.2219 -0.0642
42.4000 -28.2352 -0.0619
42.4200 -28.2485 -0.0641
42.4400 -28.2618 -0.0630
42.4600 -28.2752 -0.0633
42.4800 -28.2886 -0.0607
42.5000 -28.3019 -0.0597
42.5200 -28.3152 -0.0612
42.5400 -28.3286 -0.0592
42.5600 -28.3420 -0.0607
42.5800 -28.3553 -0.0602
42.6000 -28.3686 -0.0589
42.6200 -28.3819 -0.0584
42.6400 -28.3953 -0.0611
42.6600 -28.4086 -0.0574
42.6800 -28.4219 -0.0597
42.7000 -28.4352 -0.0586
42.7200 -28.4485 -0.0575
42.7400 -28.4619 -0.0569
42.7600 -28.4752 -0.0578
42.7800 -28.4885 -0.0557
42.8000 -28.5018 -0.0553
42.8200 -28.5152 -0.0560
42.8400 -28.5286 -0.0528
42.8600 -28.5419 -0.0544
42.8800 -28.5553 -0.0541
42.9000 -28.5686 -0.0537
42.9200 -28.5820 -0.0525
42.9400 -28.5953 -0.0532
42.9600 -28.6086 -0.0507
42.9800 -28.6219 -0.0513
43.0000 -28.6352 -0.0525
43.0200 -28.6485 -0.0498
43.0400 -28.6618 -0.0505
43.0600 -28.6751 -0.0511
43.0800 -28.6885 -0.0493
43.1000 -28.7019 -0.0490
43.1200 -28.7152 -0.0507
43.1400 -28.7285 -0.0506
43.1600 -28.7419 -0.0508
43.1800 -28.7553 -0.0478
43.2000 -28.7686 -0.0485
43.2200 -28.7819 -0.0484
43.2400 -28.7952 -0.0488
43.2600 -28.8086 -0.0465
43.2800 -28.8220 -0.0458
43.3000 -28.8353 -0.0457
43.3200 -28.8486 -0.0452
43.3400 -28.8619 -0.0440
43.3600 -28.8753 -0.0451
43.3800 -28.8886 -0.0427
43.4000 -28.9019 -0.0431
43.4200 -28.9152 -0.0429
43.4400 -28.9285 -0.0424
43.4600 -28.9419 -0.0423
43.4800 -28.9552 -0.0399
43.5000 -28.9685 -0.0374
43.5200 -28.9819 -0.0380
43.5400 -28.9953 -0.0387
43.5600 -29.0086 -0.0393
43.5800 -29.0219 -0.0377
43.6000 -29.0352 -0.0394
43.6200 -29.0486 -0.0375
43.6400 -29.0619 -0.0367
43.6600 -29.0753 -0.0381
43.6800 -29.0886 -0.0373
43.7000 -29.1019 -0.0361
43.7200 -29.1153 -0.0355
43.7400 -29.1286 -0.0362
43.7600 -29.1419 -0.0357
43.7800 -29.1552 -0.0374
43.8000 -29.1685 -0.0355
43.8200 -29.1819 -0.0335
43.8400 -29.1953 -0.0346
43.8600 -29.2086 -0.0357
43.8800 -29.2219 -0.0360
43.9000 -29.2353 -0.0373
43.9200 -29.2486 -0.0333
43.9400 -29.2619 -0.0348
43.9600 -29.2752 -0.0330
43.9800 -29.2886 -0.0327
44.0000 -29.3019 -0.0332
44.0200 -29.3153 -0.0348
44.0400 -29.3285 -0.0334
44.0600 -29.3419 -0.0316
44.0800 -29.3552 -0.0340
44.1000 -29.3686 -0.0319
44.1200 -29.3819 -0.0336
44.1400 -29.3952 -0.0335
44.1600 -29.4085 -0.0315
44.1800 -29.4219 -0.0306
44.2000 -29.4353 -0.0317
44.2200 -29.4486 -0.0337
44.2400 -29.4619 -0.0323
44.2600 -29.4753 -0.0321
44.2800 -29.4886 -0.0293
44.3000 -29.5020 -0.0311
44.3200 -29.5152 -0.0311
44.3400 -29.5286 -0.0318
44.3600 -29.5420 -0.0301
44.3800 -29.5553 -0.0314
44.4000 -29.5686 -0.0307
44.4200 -29.5819 -0.0303
44.4400 -29.5952 -0.0312
44.4600 -29.6085 -0.0292
44.4800 -29.6218 -0.0281
44.5000 -29.6351 -0.0282
44.5200 -29.6485 -0.0267
44.5400 -29.6619 -0.0253
44.5600 -29.6752 -0.0269
44.5800 -29.6885 -0.0233
44.6000 -29.7019 -0.0247
44.6200 -29.7153 -0.0220
44.6400 -29.7286 -0.0246
44.6600 -29.7420 -0.0209
44.6800 -29.7553 -0.0238
44.7000 -29.7686 -0.0190
44.7200 -29.7820 -0.0199
44.7400 -29.7953 -0.0199
44.7600 -29.8086 -0.0207
44.7800 -29.8219 -0.0190
44.8000 -29.8352 -0.0190
44.8200 -29.8486 -0.0164
44.8400 -29.8619 -0.0173
44.8600 -29.8751 -0.0176
44.8800 -29.8885 -0.0158
44.9000 -29.9018 -0.0132
44.9200 -29.9152 -0.0147
44.9400 -29.9285 -0.0136
44.9600 -29.9419 -0.0141
44.9800 -29.9553 -0.0154
45.0000 -29.9686 -0.0146
45.0200 -29.9820 -0.0128
45.0400 -29.9953 -0.0135
45.0600 -30.0086 -0.0123
45.0800 -30.0220 -0.0116
45.1000 -30.0353 -0.0117
45.1200 -30.0486 -0.0113
45.1400 -30.0619 -0.0093
45.1600 -30.0752 -0.0110
45.1800 -30.0886 -0.0106
45.2000 -30.1019 -0.0071
45.2200 -30.1152 -0.0098
45.2400 -30.1285 -0.0067
45.2600 -30.1419 -0.0070
45.2800 -30.1552 -0.0078
45.3000 -30.1686 -0.0089
45.3200 -30.1819 -0.0065
45.3400 -30.1953 -0.0095
45.3600 -30.2086 -0.0048
45.3800 -30.2219 -0.0051
45.4000 -30.2352 -0.0044
45.4200 -30.2485 -0.0055
45.4400 -30.2619 -0.0040
45.4600 -30.2753 -0.0049
45.4800 -30.2886 -0.0042
45.5000 -30.3019 -0.0021
45.5200 -30.3153 -0.0032
45.5400 -30.3286 -0.0030
45.5600 -30.3419 -0.0009
45.5800 -30.3552 -0.0037
45.6000 -30.3685 -0.0025
45.6200 -30.3819 -0.0004
45.6400 -30.3952 0.0003
45.6600 -30.4085 0.0004
45.6800 -30.4219 0.0021
45.7000 -30.4353 -0.0007
45.7200 -30.4486 0.0005
45.7400 -30.4620 0.0014
45.7600 -30.4753 0.0014
45.7800 -30.4886 0.0025
45.8000 -30.5020 0.0032
45.8200 -30.5153 -0.0001
45.8400 -30.5286 0.0025
45.8600 -30.5419 0.0030
45.8800 -30.5552 0.0024
45.9000 -30.5686 0.0025
45.9200 -30.5819 0.0031
45.9400 -30.5952 0.0033
45.9600 -30.6085 0.0039
45.9800 -30.6218 0.0054
46.0000 -30.6352 0.0032
46.0200 -30.6485 0.0053
46.0400 -30.6619 0.0055
46.0600 -30.6752 0.0035
46.0800 -30.6886 0.0034
46.1000 -30.7019 0.0082
46.1200 -30.7152 0.0072
46.1400 -30.7286 0.0087
46.1600 -30.7419 0.0092
46.1800 -30.7553 0.0085
46.2000 -30.7686 0.0084
46.2200 -30.7819 0.0104
46.2400 -30.7952 0.0083
46.2600 -30.8086 0.0088
46.2800 -30.8219 0.0113
46.3000 -30.8352 0.0091
46.3200 -30.8485 0.0129
46.3400 -30.8619 0.0120
46.3600 -30.8752 0.0094
46.3800 -30.8886 0.0115
46.4000 -30.9019 0.0129
46.4200 -30.9152 0.0124
46.4400 -30.9286 0.0125
46.4600 -30.9419 0.0161
46.4800 -30.9552 0.0136
46.5000 -30.9686 0.0137
46.5200 -30.9819 0.0146
46.5400 -30.9953 0.0146
46.5600 -31.0086 0.0165
46.5800 -31.0219 0.0173
46.6000 -31.0353 0.0156
46.6200 -31.0486 0.0151
46.6400 -31.0619 0.0189
46.6600 -31.0752 0.0157
46.6800 -31.0885 0.0195
46.7000 -31.1019 0.0196
46.7200 -31.1152 0.0200
46.7400 -31.1286 0.0177
46.7600 -31.1419 0.0206
46.7800 -31.1553 0.0186
46.8000 -31.1686 0.0195
46.8200 -31.1820 0.0215
46.8400 -31.1953 0.0207
46.8600 -31.2086 0.0240
46.8800 -31.2219 0.0242
46.9000 -31.2353 0.0217
46.9200 -31.2486 0.0218
46.9400 -31.2619 0.0251
46.9600 -31.2752 0.0241
46.9800 -31.2886 0.0253
47.0000 -31.3019 0.0260
47.0200 -31.3152 0.0239
47.0400 -31.3285 0.0220
47.0600 -31.3419 0.0266
47.0800 -31.3553 0.0265
47.1000 -31.3686 0.0265
47.1200 -31.3819 0.0291
47.1400 -31.3952 0.0261
47.1600 -31.4086 0.0287
47.1800 -31.4220 0.0288
47.2000 -31.4353 0.0284
47.2200 -31.4486 0.0282
47.2400 -31.4619 0.0289
47.2600 -31.4753 0.0287
47.2800 -31.4886 0.0300
47.3000 -31.5019 0.0305
47.3200 -31.5152 0.0308
47.3400 -31.5286 0.0298
47.3600 -31.5419 0.0304
47.3800 -31.5552 0.0287
47.4000 -31.5685 0.0290
47.4200 -31.5819 0.0338
47.4400 -31.5952 0.0318
47.4600 -31.6086 0.0328
47.4800 -31.6219 0.0350
47.5000 -31.6352 0.0344
47.5200 -31.6486 0.0308
47.5400 -31.6620 0.0348
47.5600 -31.6753 0.0328
47.5800 -31.6886 0.0346
47.6000 -31.7019 0.0353
47.6200 -31.7153 0.0367
47.6400 -31.7286 0.0345
47.6600 -31.7419 0.0374
47.6800 -31.7552 0.0350
47.7000 -31.7686 0.0366
47.7200 -31.7819 0.0385
47.7400 -31.7952 0.0351
47.7600 -31.8085 0.0363
47.7800 -31.8218 0.0370
47.8000 -31.8352 0.0365
47.8200 -31.8485 0.0374
47.8400 -31.8618 0.0423
47.8600 -31.8752 0.0411
47.8800 -31.8886 0.0404
47.9000 -31.9020 0.0428
47.9200 -31.9153 0.0402
47.9400 -31.9286 0.0400
47.9600 -31.9420 0.0446
47.9800 -31.9553 0.0421
48.0000 -31.9687 0.0430
48.0200 -31.9819 0.0444
48.0400 -31.9952 0.0425
48.0600 -32.0086 0.0417
48.0800 -32.0219 0.0446
48.1000 -32.0352 0.0455
48.1200 -32.0485 0.0457
48.1400 -32.0619 0.0458
48.1600 -32.0753 0.0453
48.1800 -32.0886 0.0449
48.2000 -32.1019 0.0476
48.2200 -32.1152 0.0466
48.2400 -32.1286 0.0480
48.2600 -32.1420 0.0474
48.2800 -32.1553 0.0482
48.3000 -32.1686 0.0470
48.3200 -32.1819 0.0501
48.3400 -32.1952 0.0475
48.3600 -32.2086 0.0483
48.3800 -32.2219 0.0499
48.4000 -32.2352 0.0495
48.4200 -32.2486 0.0508
48.4400 -32.2619 0.0535
48.4600 -32.2752 0.0521
48.4800 -32.2885 0.0501
48.5000 -32.3018 0.0549
48.5200 -32.3152 0.0537
48.5400 -32.3286 0.0530
48.5600 -32.3419 0.0569
48.5800 -32.3552 0.0556
48.6000 -32.3686 0.0545
48.6200 -32.3820 0.0553
48.6400 -32.3953 0.0563
48.6600 -32.4086 0.0539
48.6800 -32.4219 0.0596
48.7000 -32.4353 0.0577
48.7200 -32.4486 0.0578
48.7400 -32.4619 0.0585
48.7600 -32.4752 0.0574
48.7800 -32.4886 0.0578
48.8000 -32.5019 0.0599
48.8200 -32.5152 0.0599
48.8400 -32.5285 0.0579
48.8600 -32.5418 0.0602
48.8800 -32.5552 0.0603
48.9000 -32.5686 0.0602
48.9200 -32.5819 0.0607
48.9400 -32.5952 0.0627
48.9600 -32.6086 0.0606
48.9800 -32.6220 0.0661
49.0000 -32.6353 0.0628
49.0200 -32.6486 0.0640
49.0400 -32.6620 0.0647
49.0600 -32.6753 0.0661
49.0800 -32.6887 0.0642
49.1000 -32.7020 0.0665
49.1200 -32.7153 0.0660
49.1400 -32.7286 0.0667
49.1600 -32.7419 0.0671
49.1800 -32.7552 0.0679
49.2000 -32.7685 0.0675
49.2200 -32.7819 0.0710
49.2400 -32.7952 0.0709
49.2600 -32.8086 0.0698
49.2800 -32.8219 0.0698
49.3000 -32.8352 0.0704
49.3200 -32.8486 0.0709
49.3400 -32.8619 0.0740
49.3600 -32.8753 0.0727
49.3800 -32.8886 0.0712
49.4000 -32.9019 0.0737
49.4200 -32.9153 0.0744
49.4400 -32.9286 0.0747
49.4600 -32.9420 0.0749
49.4800 -32.9553 0.0759
49.5000 -32.9686 0.0738
49.5200 -32.9820 0.0766
49.5400 -32.9952 0.0769
49.5600 -33.0085 0.0769
49.5800 -33.0218 0.0798
49.6000 -33.0352 0.0778
49.6200 -33.0485 0.0776
49.6400 -33.0619 0.0781
49.6600 -33.0752 0.0787
49.6800 -33.0885 0.0780
49.7000 -33.1019 0.0799
49.7200 -33.1153 0.0810
49.7400 -33.1285 0.0804
49.7600 -33.1419 0.0831
49.7800 -33.1553 0.0827
49.8000 -33.1686 0.0824
49.8200 -33.1819 0.0815
49.8400 -33.1953 0.0817
49.8600 -33.2086 0.0799
49.8800 -33.2219 0.0842
49.9000 -33.2352 0.0852
49.9200 -33.2485 0.0855
49.9400 -33.2618 0.0869
49.9600 -33.2752 0.0870
49.9800 -33.2886 0.0829
50.0000 -33.3019 0.0845
50.0200 -33.3152 0.0851
50.0400 -33.3285 0.0847
50.0600 -33.3419 0.0878
50.0800 -33.3553 0.0894
50.1000 -33.3686 0.0856
50.1200 -33.3819 0.0879
50.1400 -33.3953 0.0871
50.1600 -33.4086 0.0869
50.1800 -33.4219 0.0882
50.2000 -33.4352 0.0888
50.2200 -33.4485 0.0874
50.2400 -33.4619 0.0908
50.2600 -33.4752 0.0923
50.2800 -33.4885 0.0899
50.3000 -33.5018 0.0914
50.3200 -33.5152 0.0927
50.3400 -33.5286 0.0902
50.3600 -33.5419 0.0933
50.3800 -33.5552 0.0926
50.4000 -33.5686 0.0926
50.4200 -33.5820 0.0928
50.4400 -33.5953 0.0944
50.4600 -33.6086 0.0925
50.4800 -33.6219 0.0935
50.5000 -33.6353 0.0945
50.5200 -33.6487 0.0942
50.5400 -33.6620 0.0949
50.5600 -33.6753 0.0954
50.5800 -33.6886 0.0942
50.6000 -33.7020 0.0968
50.6200 -33.7153 0.0978
50.6400 -33.7286 0.0957
50.6600 -33.7419 0.0971
50.6800 -33.7552 0.0987
50.7000 -33.7686 0.0983
50.7200 -33.7819 0.0985
50.7400 -33.7952 0.0975
50.7600 -33.8085 0.0969
50.7800 -33.8219 0.0992
50.8000 -33.8353 0.1026
50.8200 -33.8486 0.0990
50.8400 -33.8619 0.0992
50.8600 -33.8753 0.1019
50.8800 -33.8886 0.1023
50.9000 -33.9019 0.1038
50.9200 -33.9152 0.1015
50.9400 -33.9286 0.1026
50.9600 -33.9419 0.1024
50.9800 -33.9552 0.1064
51.0000 -33.9685 0.1043
51.0200 -33.9818 0.1065
51.0400 -33.9951 0.1053
51.0600 -34.0085 0.1058
51.0800 -34.0219 0.1064
51.1000 -34.0352 0.1077
51.1200 -34.0486 0.1048
51.1400 -34.0619 0.1080
51.1600 -34.0753 0.1091
51.1800 -34.0886 0.1082
51.2000 -34.1019 0.1091
51.2200 -34.1152 0.1104
51.2400 -34.1286 0.1079
51.2600 -34.1419 0.1102
51.2800 -34.1552 0.1105
51.3000 -34.1686 0.1099
51.3200 -34.1819 0.1098
51.3400 -34.1952 0.1118
51.3600 -34.2085 0.1092
51.3800 -34.2218 0.1128
51.4000 -34.2352 0.1154
51.4200 -34.2486 0.1121
51.4400 -34.2619 0.1139
51.4600 -34.2752 0.1121
51.4800 -34.2886 0.1124
51.5000 -34.3020 0.1145
51.5200 -34.3153 0.1154
51.5400 -34.3286 0.1116
51.5600 -34.3419 0.1152
51.5800 -34.3553 0.1145
51.6000 -34.3687 0.1156
51.6200 -34.3820 0.1153
51.6400 -34.3953 0.1192
51.6600 -34.4086 0.1164
51.6800 -34.4219 0.1168
51.7000 -34.4352 0.1177
51.7200 -34.4485 0.1151
51.7400 -34.4618 0.1186
51.7600 -34.4752 0.1190
51.7800 -34.4885 0.1193
51.8000 -34.5019 0.1198
51.8200 -34.5152 0.1201
51.8400 -34.5286 0.1172
51.8600 -34.5420 0.1216
51.8800 -34.5553 0.1234
51.9000 -34.5686 0.1217
51.9200 -34.5820 0.1211
51.9400 -34.5953 0.1222
51.9600 -34.6086 0.1211
51.9800 -34.6220 0.1227
52.0000 -34.6352 0.1243
52.0200 -34.6486 0.1248
52.0400 -34.6619 0.1260
52.0600 -34.6752 0.1273
52.0800 -34.6885 0.1246
52.1000 -34.7018 0.1264
52.1200 -34.7152 0.1286
52.1400 -34.7285 0.1268
52.1600 -34.7419 0.1278
52.1800 -34.7552 0.1279
52.2000 -34.7686 0.1273
52.2200 -34.7819 0.1292
52.2400 -34.7953 0.1303
52.2600 -34.8086 0.1286
52.2800 -34.8219 0.1297
52.3000 -34.8353 0.1325
52.3200 -34.8486 0.1319
52.3400 -34.8619 0.1337
52.3600 -34.8752 0.1353
52.3800 -34.8886 0.1360
52.4000 -34.9019 0.1363
52.4200 -34.9152 0.1383
52.4400 -34.9285 0.1364
52.4600 -34.9418 0.1390
52.4800 -34.9552 0.1383
52.5000 -34.9686 0.1362
52.5200 -34.9819 0.1380
52.5400 -34.9952 0.1394
52.5600 -35.0086 0.1395
52.5800 -35.0219 0.1411
52.6000 -35.0353 0.1442
52.6200 -35.0486 0.1411
52.6400 -35.0619 0.1418
52.6600 -35.0752 0.1435
52.6800 -35.0886 0.1430
52.7000 -35.1019 0.1416
52.7200 -35.1152 0.1445
52.7400 -35.1286 0.1427
52.7600 -35.1419 0.1448
52.7800 -35.1553 0.1445
52.8000 -35.1686 0.1461
52.8200 -35.1819 0.1465
52.8400 -35.1952 0.1464
52.8600 -35.2086 0.1439
52.8800 -35.2219 0.1454
52.9000 -35.2352 0.1458
52.9200 -35.2485 0.1455
52.9400 -35.2619 0.1470
52.9600 -35.2753 0.1498
52.9800 -35.2886 0.1469
53.0000 -35.3019 0.1486
53.0200 -35.3153 0.1492
53.0400 -35.3286 0.1504
53.0600 -35.3420 0.1490
53.0800 -35.3553 0.1520
53.1000 -35.3686 0.1486
53.1200 -35.3819 0.1512
53.1400 -35.3952 0.1490
53.1600 -35.4085 0.1519
53.1800 -35.4218 0.1503
53.2000 -35.4352 0.1538
53.2200 -35.4485 0.1515
53.2400 -35.4619 0.1537
53.2600 -35.4752 0.1529
53.2800 -35.4886 0.1530
53.3000 -35.5019 0.1534
53.3200 -35.5153 0.1530
53.3400 -35.5286 0.1535
53.3600 -35.5419 0.1531
53.3800 -35.5553 0.1562
53.4000 -35.5686 0.1554
53.4200 -35.5819 0.1564
53.4400 -35.5952 0.1553
53.4600 -35.6086 0.1568
53.4800 -35.6219 0.1559
53.5000 -35.6353 0.1589
53.5200 -35.6485 0.1576
53.5400 -35.6618 0.1580
53.5600 -35.6752 0.1591
53.5800 -35.6886 0.1599
53.6000 -35.7019 0.1603
53.6200 -35.7152 0.1578
53.6400 -35.7285 0.1577
53.6600 -35.7419 0.1576
53.6800 -35.7553 0.1608
53.7000 -35.7686 0.1601
53.7200 -35.7819 0.1610
53.7400 -35.7952 0.1604
53.7600 -35.8086 0.1608
53.7800 -35.8219 0.1600
53.8000 -35.8353 0.1624
53.8200 -35.8486 0.1624
53.8400 -35.8619 0.1628
53.8600 -35.8753 0.1657
53.8800 -35.8886 0.1640
53.9000 -35.9019 0.1652
53.9200 -35.9152 0.1658
53.9400 -35.9286 0.1668
53.9600 -35.9419 0.1655
53.9800 -35.9552 0.1682
54.0000 -35.9685 0.1666
54.0200 -35.9819 0.1704
54.0400 -35.9953 0.1704
54.0600 -36.0086 0.1701
54.0800 -36.0219 0.1689
54.1000 -36.0352 0.1718
54.1200 -36.0486 0.1688
54.1400 -36.0619 0.1711
54.1600 -36.0752 0.1729
54.1800 -36.0886 0.1739
54.2000 -36.1019 0.1719
54.2200 -36.1152 0.1750
54.2400 -36.1286 0.1740
54.2600 -36.1419 0.1749
54.2800 -36.1552 0.1767
54.3000 -36.1686 0.1782
54.3200 -36.1819 0.1778
54.3400 -36.1952 0.1801
54.3600 -36.2086 0.1784
54.3800 -36.2219 0.1788
54.4000 -36.2353 0.1807
54.4200 -36.2486 0.1787
54.4400 -36.2619 0.1806
54.4600 -36.2752 0.1837
54.4800 -36.2886 0.1822
54.5000 -36.3019 0.1818
54.5200 -36.3153 0.1840
54.5400 -36.3286 0.1844
54.5600 -36.3419 0.1838
54.5800 -36.3552 0.1841
54.6000 -36.3685 0.1831
54.6200 -36.3819 0.1817
54.6400 -36.3952 0.1841
54.6600 -36.4086 0.1833
54.6800 -36.4219 0.1851
54.7000 -36.4352 0.1862
54.7200 -36.4486 0.1876
54.7400 -36.4619 0.1871
54.7600 -36.4753 0.1905
54.7800 -36.4886 0.1893
54.8000 -36.5019 0.1858
54.8200 -36.5152 0.1881
54.8400 -36.5286 0.1887
54.8600 -36.5420 0.1900
54.8800 -36.5553 0.1911
54.9000 -36.5686 0.1906
54.9200 -36.5819 0.1910
54.9400 -36.5953 0.1928
54.9600 -36.6086 0.1915
54.9800 -36.6219 0.1918
55.0000 -36.6352 0.1948
55.0200 -36.6485 0.1959
55.0400 -36.6618 0.1951
55.0600 -36.6752 0.1953
55.0800 -36.6885 0.1944
55.1000 -36.7019 0.1952
55.1200 -36.7153 0.1976
55.1400 -36.7286 0.1969
55.1600 -36.7419 0.1978
55.1800 -36.7552 0.1965
55.2000 -36.7686 0.1959
55.2200 -36.7820 0.1977
55.2400 -36.7953 0.1979
55.2600 -36.8086 0.1984
55.2800 -36.8219 0.1981
55.3000 -36.8352 0.1990
55.3200 -36.8486 0.1989
55.3400 -36.8619 0.2006
55.3600 -36.8752 0.2003
55.3800 -36.8885 0.2042
55.4000 -36.9019 0.2017
55.4200 -36.9152 0.2033
55.4400 -36.9286 0.2036
55.4600 -36.9419 0.2033
55.4800 -36.9553 0.2041
55.5000 -36.9686 0.2046
55.5200 -36.9819 0.2051
55.5400 -36.9952 0.2074
55.5600 -37.0085 0.2064
55.5800 -37.0219 0.2057
55.6000 -37.0353 0.2080
55.6200 -37.0486 0.2085
55.6400 -37.0619 0.2085
55.6600 -37.0753 0.2106
55.6800 -37.0886 0.2112
55.7000 -37.1019 0.2097
55.7200 -37.1152 0.2091
55.7400 -37.1285 0.2097
55.7600 -37.1419 0.2110
55.7800 -37.1552 0.2118
55.8000 -37.1686 0.2144
55.8200 -37.1819 0.2143
55.8400 -37.1953 0.2145
55.8600 -37.2086 0.2159
55.8800 -37.2219 0.2147
55.9000 -37.2352 0.2173
55.9200 -37.2486 0.2172
55.9400 -37.2620 0.2190
55.9600 -37.2753 0.2198
55.9800 -37.2886 0.2206
56.0000 -37.3019 0.2189
56.0200 -37.3153 0.2207
56.0400 -37.3286 0.2197
56.0600 -37.3419 0.2189
56.0800 -37.3552 0.2208
56.1000 -37.3685 0.2221
56.1200 -37.3819 0.2216
56.1400 -37.3952 0.2219
56.1600 -37.4085 0.2249
56.1800 -37.4219 0.2227
56.2000 -37.4353 0.2245
56.2200 -37.4487 0.2249
56.2400 -37.4620 0.2233
56.2600 -37.4753 0.2253
56.2800 -37.4886 0.2263
56.3000 -37.5020 0.2237
56.3200 -37.5153 0.2283
56.3400 -37.5286 0.2281
56.3600 -37.5419 0.2303
56.3800 -37.5552 0.2303
56.4000 -37.5686 0.2331
56.4200 -37.5819 0.2307
56.4400 -37.5952 0.2324
56.4600 -37.6085 0.2291
56.4800 -37.6219 0.2307
56.5000 -37.6352 0.2327
56.5200 -37.6485 0.2344
56.5400 -37.6619 0.2334
56.5600 -37.6752 0.2350
56.5800 -37.6886 0.2345
56.6000 -37.7019 0.2352
56.6200 -37.7152 0.2357
56.6400 -37.7286 0.2359
56.6600 -37.7420 0.2362
56.6800 -37.7553 0.2380
56.7000 -37.7686 0.2402
56.7200 -37.7819 0.2387
56.7400 -37.7953 0.2408
56.7600 -37.8086 0.2410
56.7800 -37.8219 0.2397
56.8000 -37.8352 0.2404
56.8200 -37.8485 0.2421
56.8400 -37.8619 0.2401
56.8600 -37.8752 0.2416
56.8800 -37.8885 0.2407
56.9000 -37.9019 0.2429
56.9200 -37.9153 0.2439
56.9400 -37.9286 0.2445
56.9600 -37.9419 0.2439
56.9800 -37.9552 0.2441
57.0000 -37.9686 0.2449
57.0200 -37.9820 0.2443
57.0400 -37.9953 0.2446
57.0600 -38.0086 0.2465
57.0800 -38.0219 0.2442
57.1000 -38.0353 0.2468
57.1200 -38.0486 0.2462
57.1400 -38.0619 0.2494
57.1600 -38.0752 0.2492
57.1800 -38.0885 0.2520
57.2000 -38.1019 0.2481
57.2200 -38.1152 0.2515
57.2400 -38.1285 0.2499
57.2600 -38.1419 0.2515
57.2800 -38.1552 0.2505
57.3000 -38.1686 0.2535
57.3200 -38.1820 0.2504
57.3400 -38.1953 0.2516
57.3600 -38.2086 0.2511
57.3800 -38.2220 0.2539
57.4000 -38.2353 0.2545
57.4200 -38.2486 0.2572
57.4400 -38.2619 0.2578
57.4600 -38.2752 0.2569
57.4800 -38.2885 0.2582
57.5000 -38.3018 0.2581
57.5200 -38.3151 0.2576
57.5400 -38.3285 0.2589
57.5600 -38.3419 0.2602
57.5800 -38.3552 0.2618
57.6000 -38.3685 0.2624
57.6200 -38.3819 0.2607
57.6400 -38.3953 0.2637
57.6600 -38.4086 0.2628
57.6800 -38.4219 0.2624
57.7000 -38.4352 0.2616
57.7200 -38.4486 0.2648
57.7400 -38.4619 0.2647
57.7600 -38.4753 0.2664
57.7800 -38.4886 0.2664
57.8000 -38.5019 0.2663
57.8200 -38.5153 0.2673
57.8400 -38.5286 0.2696
57.8600 -38.5419 0.2674
57.8800 -38.5552 0.2698
57.9000 -38.5685 0.2687
57.9200 -38.5819 0.2707
57.9400 -38.5952 0.2708
57.9600 -38.6085 0.2715
57.9800 -38.6218 0.2714
58.0000 -38.6352 0.2719
58.0200 -38.6486 0.2734
58.0400 -38.6619 0.2738
58.0600 -38.6752 0.2749
58.0800 -38.6886 0.2774
58.1000 -38.7019 0.2750
58.1200 -38.7153 0.2755
58.1400 -38.7286 0.2767
58.1600 -38.7419 0.2773
58.1800 -38.7552 0.2763
58.2000 -38.7686 0.2782
58.2200 -38.7819 0.2772
58.2400 -38.7952 0.2807
58.2600 -38.8085 0.2787
58.2800 -38.8219 0.2792
58.3000 -38.8352 0.2776
58.3200 -38.8485 0.2825
58.3400 -38.8619 0.2816
58.3600 -38.8753 0.2850
58.3800 -38.8886 0.2843
58.4000 -38.9020 0.2849
58.4200 -38.9153 0.2857
58.4400 -38.9286 0.2866
58.4600 -38.9419 0.2854
58.4800 -38.9553 0.2852
58.5000 -38.9686 0.2880
58.5200 -38.9819 0.2887
58.5400 -38.9952 0.2902
58.5600 -39.0086 0.2886
58.5800 -39.0219 0.2895
58.6000 -39.0352 0.2891
58.6200 -39.0485 0.2913
58.6400 -39.0619 0.2880
58.6600 -39.0753 0.2899
58.6800 -39.0886 0.2886
58.7000 -39.1019 0.2907
58.7200 -39.1153 0.2920
58.7400 -39.1286 0.2939
58.7600 -39.1419 0.2927
58.7800 -39.1552 0.2945
58.8000 -39.1686 0.2943
58.8200 -39.1819 0.2960
58.8400 -39.1953 0.2947
58.8600 -39.2086 0.2962
58.8800 -39.2219 0.2947
58.9000 -39.2352 0.2989
58.9200 -39.2486 0.2996
58.9400 -39.2619 0.2984
58.9600 -39.2751 0.2967
58.9800 -39.2885 0.2998
59.0000 -39.3018 0.2984
59.0200 -39.3152 0.3025
59.0400 -39.3285 0.3019
59.0600 -39.3419 0.3032
59.0800 -39.3552 0.3015
59.1000 -39.3686 0.3027
59.1200 -39.3820 0.3020
59.1400 -39.3953 0.3053
59.1600 -39.4086 0.3041
59.1800 -39.4220 0.3054
59.2000 -39.4353 0.3051
59.2200 -39.4486 0.3065
59.2400 -39.4619 0.3062
59.2600 -39.4752 0.3081
59.2800 -39.4886 0.3065
59.3000 -39.5019 0.3097
59.3200 -39.5151 0.3102
59.3400 -39.5285 0.3107
59.3600 -39.5418 0.3137
59.3800 -39.5552 0.3118
59.4000 -39.5685 0.3140
59.4200 -39.5819 0.3114
59.4400 -39.5952 0.3149
59.4600 -39.6086 0.3128
59.4800 -39.6220 0.3164
59.5000 -39.6353 0.3166
59.5200 -39.6486 0.3152
59.5400 -39.6620 0.3184
59.5600 -39.6753 0.3169
59.5800 -39.6886 0.3186
59.6000 -39.7019 0.3204
59.6200 -39.7152 0.3207
59.6400 -39.7286 0.3213
59.6600 -39.7419 0.3235
59.6800 -39.7552 0.3209
59.7000 -39.7685 0.3234
59.7200 -39.7819 0.3235
59.7400 -39.7952 0.3242
59.7600 -39.8086 0.3245
59.7800 -39.8219 0.3248
59.8000 -39.8353 0.3261
59.8200 -39.8486 0.3273
59.8400 -39.8620 0.3295
59.8600 -39.8753 0.3283
59.8800 -39.8885 0.3292
59.9000 -39.9019 0.3291
59.9200 -39.9153 0.3314
59.9400 -39.9286 0.3295
59.9600 -39.9419 0.3330
59.9800 -39.9552 0.3303
60.0000 -39.9686 0.3341
60.0200 -39.9819 0.3330
60.0400 -39.9952 0.3365
60.0480 -40.0004 0.3403
