Raw Data
Time Displacement Force
(s) (mm) (N)
0.0000 0.0000 -0.0034
0.0200 -0.0001 -0.0075
0.0400 -0.0019 -0.0224
0.0600 -0.0093 -0.0199
0.0800 -0.0210 -0.0064
0.1000 -0.0336 -0.0092
0.1200 -0.0463 -0.0081
0.1400 -0.0597 -0.0118
0.1600 -0.0736 -0.0095
0.1800 -0.0878 -0.0116
0.2000 -0.1016 -0.0083
0.2200 -0.1152 -0.0114
0.2400 -0.1286 -0.0115
0.2600 -0.1419 -0.0108
0.2800 -0.1553 -0.0124
0.3000 -0.1687 -0.0139
0.3200 -0.1820 -0.0133
0.3400 -0.1954 -0.0127
0.3600 -0.2087 -0.0134
0.3800 -0.2221 -0.0113
0.4000 -0.2354 -0.0174
0.4200 -0.2487 -0.0141
0.4400 -0.2620 -0.0125
0.4600 -0.2753 -0.0117
0.4800 -0.2886 -0.0155
0.5000 -0.3019 -0.0145
0.5200 -0.3153 -0.0168
0.5400 -0.3286 -0.0163
0.5600 -0.3420 -0.0165
0.5800 -0.3553 -0.0171
0.6000 -0.3687 -0.0181
0.6200 -0.3821 -0.0158
0.6400 -0.3954 -0.0169
0.6600 -0.4088 -0.0171
0.6800 -0.4220 -0.0177
0.7000 -0.4353 -0.0177
0.7200 -0.4487 -0.0189
0.7400 -0.4621 -0.0165
0.7600 -0.4754 -0.0182
0.7800 -0.4887 -0.0178
0.8000 -0.5020 -0.0163
0.8200 -0.5154 -0.0178
0.8400 -0.5287 -0.0185
0.8600 -0.5420 -0.0163
0.8800 -0.5553 -0.0188
0.9000 -0.5686 -0.0168
0.9200 -0.5820 -0.0154
0.9400 -0.5953 -0.0185
0.9600 -0.6086 -0.0190
0.9800 -0.6219 -0.0177
1.0000 -0.6353 -0.0183
1.0200 -0.6486 -0.0194
1.0400 -0.6620 -0.0161
1.0600 -0.6753 -0.0188
1.0800 -0.6887 -0.0204
1.1000 -0.7020 -0.0201
1.1200 -0.7153 -0.0188
1.1400 -0.7286 -0.0212
1.1600 -0.7420 -0.0181
1.1800 -0.7553 -0.0205
1.2000 -0.7687 -0.0187
1.2200 -0.7819 -0.0193
1.2400 -0.7953 -0.0193
1.2600 -0.8086 -0.0207
1.2800 -0.8220 -0.0185
1.3000 -0.8353 -0.0209
1.3200 -0.8487 -0.0216
1.3400 -0.8620 -0.0200
1.3600 -0.8754 -0.0211
1.3800 -0.8887 -0.0215
1.4000 -0.9020 -0.0206
1.4200 -0.9153 -0.0228
1.4400 -0.9287 -0.0208
1.4600 -0.9421 -0.0200
1.4800 -0.9554 -0.0214
1.5000 -0.9687 -0.0217
1.5200 -0.9820 -0.0212
1.5400 -0.9954 -0.0215
1.5600 -1.0087 -0.0230
1.5800 -1.0220 -0.0207
1.6000 -1.0353 -0.0222
1.6200 -1.0486 -0.0225
1.6400 -1.0620 -0.0213
1.6600 -1.0753 -0.0230
1.6800 -1.0887 -0.0239
1.7000 -1.1020 -0.0216
1.7200 -1.1154 -0.0221
1.7400 -1.1287 -0.0232
1.7600 -1.1420 -0.0241
1.7800 -1.1554 -0.0225
1.8000 -1.1687 -0.0238
1.8200 -1.1821 -0.0206
1.8400 -1.1954 -0.0224
1.8600 -1.2087 -0.0237
1.8800 -1.2220 -0.0204
1.9000 -1.2353 -0.0205
1.9200 -1.2487 -0.0236
1.9400 -1.2619 -0.0230
1.9600 -1.2752 -0.0223
1.9800 -1.2886 -0.0218
2.0000 -1.3020 -0.0209
2.0200 -1.3153 -0.0213
2.0400 -1.3286 -0.0231
2.0600 -1.3420 -0.0248
2.0800 -1.3554 -0.0252
2.1000 -1.3688 -0.0259
2.1200 -1.3821 -0.0228
2.1400 -1.3954 -0.0232
2.1600 -1.4087 -0.0243
2.1800 -1.4221 -0.0232
2.2000 -1.4354 -0.0235
2.2200 -1.4487 -0.0229
2.2400 -1.4620 -0.0209
2.2600 -1.4753 -0.0227
2.2800 -1.4886 -0.0225
2.3000 -1.5019 -0.0238
2.3200 -1.5152 -0.0228
2.3400 -1.5286 -0.0255
2.3600 -1.5420 -0.0222
2.3800 -1.5553 -0.0235
2.4000 -1.5686 -0.0258
2.4200 -1.5820 -0.0239
2.4400 -1.5954 -0.0232
2.4600 -1.6088 -0.0252
2.4800 -1.6220 -0.0237
2.5000 -1.6353 -0.0241
2.5200 -1.6487 -0.0253
2.5400 -1.6620 -0.0236
2.5600 -1.6753 -0.0226
2.5800 -1.6886 -0.0240
2.6000 -1.7020 -0.0229
2.6200 -1.7153 -0.0219
2.6400 -1.7287 -0.0241
2.6600 -1.7420 -0.0214
2.6800 -1.7553 -0.0224
2.7000 -1.7687 -0.0253
2.7200 -1.7820 -0.0233
2.7400 -1.7954 -0.0243
2.7600 -1.8087 -0.0238
2.7800 -1.8220 -0.0224
2.8000 -1.8354 -0.0227
2.8200 -1.8487 -0.0225
2.8400 -1.8620 -0.0237
2.8600 -1.8752 -0.0221
2.8800 -1.8886 -0.0260
2.9000 -1.9020 -0.0240
2.9200 -1.9154 -0.0226
2.9400 -1.9287 -0.0256
2.9600 -1.9420 -0.0247
2.9800 -1.9554 -0.0229
3.0000 -1.9687 -0.0248
3.0200 -1.9820 -0.0221
3.0400 -1.9953 -0.0232
3.0600 -2.0087 -0.0256
3.0800 -2.0220 -0.0248
3.1000 -2.0353 -0.0260
3.1200 -2.0486 -0.0266
3.1400 -2.0620 -0.0254
3.1600 -2.0754 -0.0233
3.1800 -2.0887 -0.0267
3.2000 -2.1020 -0.0260
3.2200 -2.1154 -0.0270
3.2400 -2.1287 -0.0271
3.2600 -2.1421 -0.0269
3.2800 -2.1554 -0.0245
3.3000 -2.1687 -0.0256
3.3200 -2.1820 -0.0220
3.3400 -2.1954 -0.0244
3.3600 -2.2087 -0.0245
3.3800 -2.2220 -0.0234
3.4000 -2.2353 -0.0244
3.4200 -2.2486 -0.0260
3.4400 -2.2620 -0.0219
3.4600 -2.2753 -0.0239
3.4800 -2.2886 -0.0241
3.5000 -2.3020 -0.0223
3.5200 -2.3153 -0.0242
3.5400 -2.3287 -0.0262
3.5600 -2.3420 -0.0245
3.5800 -2.3553 -0.0253
3.6000 -2.3687 -0.0229
3.6200 -2.3821 -0.0243
3.6400 -2.3954 -0.0228
3.6600 -2.4087 -0.0251
3.6800 -2.4220 -0.0231
3.7000 -2.4354 -0.0227
3.7200 -2.4487 -0.0239
3.7400 -2.4620 -0.0229
3.7600 -2.4753 -0.0236
3.7800 -2.4886 -0.0251
3.8000 -2.5020 -0.0239
3.8200 -2.5153 -0.0232
3.8400 -2.5286 -0.0275
3.8600 -2.5420 -0.0219
3.8800 -2.5553 -0.0242
3.9000 -2.5687 -0.0226
3.9200 -2.5820 -0.0232
3.9400 -2.5953 -0.0210
3.9600 -2.6087 -0.0242
3.9800 -2.6220 -0.0207
4.0000 -2.6354 -0.0227
4.0200 -2.6487 -0.0237
4.0400 -2.6620 -0.0224
4.0600 -2.6754 -0.0217
4.0800 -2.6887 -0.0242
4.1000 -2.7020 -0.0223
4.1200 -2.7153 -0.0238
4.1400 -2.7286 -0.0251
4.1600 -2.7420 -0.0223
4.1800 -2.7553 -0.0230
4.2000 -2.7687 -0.0241
4.2200 -2.7820 -0.0256
4.2400 -2.7954 -0.0222
4.2600 -2.8087 -0.0251
4.2800 -2.8221 -0.0238
4.3000 -2.8354 -0.0235
4.3200 -2.8487 -0.0239
4.3400 -2.8620 -0.0229
4.3600 -2.8754 -0.0230
4.3800 -2.8887 -0.0243
4.4000 -2.9020 -0.0226
4.4200 -2.9153 -0.0226
4.4400 -2.9287 -0.0246
4.4600 -2.9420 -0.0244
4.4800 -2.9553 -0.0228
4.5000 -2.9686 -0.0244
4.5200 -2.9820 -0.0218
4.5400 -2.9954 -0.0206
4.5600 -3.0087 -0.0248
4.5800 -3.0220 -0.0240
4.6000 -3.0354 -0.0243
4.6200 -3.0487 -0.0235
4.6400 -3.0621 -0.0219
4.6600 -3.0753 -0.0209
4.6800 -3.0887 -0.0235
4.7000 -3.1020 -0.0227
4.7200 -3.1154 -0.0222
4.7400 -3.1287 -0.0213
4.7600 -3.1420 -0.0216
4.7800 -3.1553 -0.0223
4.8000 -3.1687 -0.0233
4.8200 -3.1820 -0.0211
4.8400 -3.1953 -0.0232
4.8600 -3.2087 -0.0229
4.8800 -3.2220 -0.0228
4.9000 -3.2353 -0.0233
4.9200 -3.2486 -0.0269
4.9400 -3.2620 -0.0254
4.9600 -3.2753 -0.0234
4.9800 -3.2887 -0.0226
5.0000 -3.3020 -0.0240
5.0200 -3.3153 -0.0243
5.0400 -3.3287 -0.0258
5.0600 -3.3420 -0.0249
5.0800 -3.3554 -0.0230
5.1000 -3.3687 -0.0238
5.1200 -3.3820 -0.0236
5.1400 -3.3954 -0.0226
5.1600 -3.4087 -0.0249
5.1800 -3.4220 -0.0253
5.2000 -3.4353 -0.0231
5.2200 -3.4486 -0.0227
5.2400 -3.4619 -0.0232
5.2600 -3.4752 -0.0206
5.2800 -3.4885 -0.0216
5.3000 -3.5019 -0.0236
5.3200 -3.5153 -0.0209
5.3400 -3.5287 -0.0235
5.3600 -3.5421 -0.0222
5.3800 -3.5554 -0.0225
5.4000 -3.5687 -0.0205
5.4200 -3.5821 -0.0212
5.4400 -3.5954 -0.0201
5.4600 -3.6087 -0.0232
5.4800 -3.6220 -0.0214
5.5000 -3.6353 -0.0207
5.5200 -3.6487 -0.0203
5.5400 -3.6620 -0.0238
5.5600 -3.6753 -0.0208
5.5800 -3.6886 -0.0243
5.6000 -3.7020 -0.0214
5.6200 -3.7153 -0.0204
5.6400 -3.7287 -0.0226
5.6600 -3.7420 -0.0232
5.6800 -3.7554 -0.0189
5.7000 -3.7687 -0.0235
5.7200 -3.7821 -0.0213
5.7400 -3.7954 -0.0207
5.7600 -3.8087 -0.0197
5.7800 -3.8221 -0.0226
5.8000 -3.8354 -0.0187
5.8200 -3.8487 -0.0208
5.8400 -3.8620 -0.0212
5.8600 -3.8753 -0.0176
5.8800 -3.8887 -0.0205
5.9000 -3.9020 -0.0195
5.9200 -3.9153 -0.0206
5.9400 -3.9286 -0.0209
5.9600 -3.9420 -0.0219
5.9800 -3.9553 -0.0188
6.0000 -3.9687 -0.0227
6.0200 -3.9820 -0.0205
6.0400 -3.9953 -0.0194
6.0600 -4.0087 -0.0204
6.0800 -4.0221 -0.0229
6.1000 -4.0354 -0.0190
6.1200 -4.0487 -0.0222
6.1400 -4.0621 -0.0193
6.1600 -4.0754 -0.0203
6.1800 -4.0887 -0.0218
6.2000 -4.1020 -0.0215
6.2200 -4.1153 -0.0190
6.2400 -4.1287 -0.0216
6.2600 -4.1420 -0.0223
6.2800 -4.1553 -0.0195
6.3000 -4.1686 -0.0217
6.3200 -4.1819 -0.0213
6.3400 -4.1953 -0.0199
6.3600 -4.2086 -0.0214
6.3800 -4.2219 -0.0216
6.4000 -4.2353 -0.0189
6.4200 -4.2487 -0.0200
6.4400 -4.2621 -0.0215
6.4600 -4.2754 -0.0201
6.4800 -4.2887 -0.0229
6.5000 -4.3021 -0.0228
6.5200 -4.3154 -0.0211
6.5400 -4.3287 -0.0205
6.5600 -4.3420 -0.0207
6.5800 -4.3553 -0.0204
6.6000 -4.3687 -0.0219
6.6200 -4.3820 -0.0229
6.6400 -4.3953 -0.0202
6.6600 -4.4086 -0.0221
6.6800 -4.4220 -0.0212
6.7000 -4.4353 -0.0216
6.7200 -4.4487 -0.0212
6.7400 -4.4620 -0.0216
6.7600 -4.4753 -0.0200
6.7800 -4.4887 -0.0218
6.8000 -4.5020 -0.0214
6.8200 -4.5153 -0.0208
6.8400 -4.5287 -0.0219
6.8600 -4.5420 -0.0198
6.8800 -4.5554 -0.0206
6.9000 -4.5687 -0.0201
6.9200 -4.5821 -0.0223
6.9400 -4.5954 -0.0182
6.9600 -4.6087 -0.0209
6.9800 -4.6221 -0.0208
7.0000 -4.6353 -0.0198
7.0200 -4.6486 -0.0192
7.0400 -4.6620 -0.0202
7.0600 -4.6753 -0.0181
7.0800 -4.6886 -0.0210
7.1000 -4.7019 -0.0204
7.1200 -4.7153 -0.0194
7.1400 -4.7287 -0.0193
7.1600 -4.7421 -0.0198
7.1800 -4.7554 -0.0171
7.2000 -4.7687 -0.0192
7.2200 -4.7820 -0.0196
7.2400 -4.7954 -0.0184
7.2600 -4.8087 -0.0185
7.2800 -4.8220 -0.0200
7.3000 -4.8353 -0.0165
7.3200 -4.8487 -0.0191
7.3400 -4.8620 -0.0193
7.3600 -4.8753 -0.0186
7.3800 -4.8886 -0.0195
7.4000 -4.9019 -0.0209
7.4200 -4.9153 -0.0181
7.4400 -4.9286 -0.0188
7.4600 -4.9419 -0.0192
7.4800 -4.9553 -0.0192
7.5000 -4.9687 -0.0193
7.5200 -4.9821 -0.0195
7.5400 -4.9954 -0.0182
7.5600 -5.0087 -0.0190
7.5800 -5.0221 -0.0197
7.6000 -5.0354 -0.0180
7.6200 -5.0487 -0.0182
7.6400 -5.0620 -0.0175
7.6600 -5.0753 -0.0197
7.6800 -5.0886 -0.0188
7.7000 -5.1019 -0.0226
7.7200 -5.1152 -0.0174
7.7400 -5.1286 -0.0207
7.7600 -5.1419 -0.0196
7.7800 -5.1553 -0.0208
7.8000 -5.1687 -0.0185
7.8200 -5.1820 -0.0217
7.8400 -5.1954 -0.0182
7.8600 -5.2087 -0.0218
7.8800 -5.2221 -0.0197
7.9000 -5.2354 -0.0207
7.9200 -5.2487 -0.0191
7.9400 -5.2620 -0.0202
7.9600 -5.2754 -0.0187
7.9800 -5.2887 -0.0204
8.0000 -5.3020 -0.0211
8.0200 -5.3153 -0.0194
8.0400 -5.3287 -0.0205
8.0600 -5.3420 -0.0211
8.0800 -5.3553 -0.0200
8.1000 -5.3686 -0.0191
8.1200 -5.3820 -0.0209
8.1400 -5.3953 -0.0189
8.1600 -5.4087 -0.0199
8.1800 -5.4220 -0.0201
8.2000 -5.4353 -0.0183
8.2200 -5.4487 -0.0197
8.2400 -5.4621 -0.0198
8.2600 -5.4754 -0.0187
8.2800 -5.4887 -0.0193
8.3000 -5.5020 -0.0213
8.3200 -5.5154 -0.0192
8.3400 -5.5287 -0.0203
8.3600 -5.5420 -0.0204
8.3800 -5.5553 -0.0196
8.4000 -5.5687 -0.0186
8.4200 -5.5820 -0.0195
8.4400 -5.5953 -0.0193
8.4600 -5.6086 -0.0190
8.4800 -5.6220 -0.0197
8.5000 -5.6353 -0.0195
8.5200 -5.6487 -0.0195
8.5400 -5.6620 -0.0210
8.5600 -5.6753 -0.0178
8.5800 -5.6887 -0.0169
8.6000 -5.7020 -0.0188
8.6200 -5.7154 -0.0189
8.6400 -5.7287 -0.0193
8.6600 -5.7420 -0.0183
8.6800 -5.7554 -0.0168
8.7000 -5.7687 -0.0171
8.7200 -5.7820 -0.0198
8.7400 -5.7953 -0.0186
8.7600 -5.8086 -0.0193
8.7800 -5.8220 -0.0212
8.8000 -5.8353 -0.0198
8.8200 -5.8486 -0.0183
8.8400 -5.8620 -0.0198
8.8600 -5.8753 -0.0197
8.8800 -5.8887 -0.0167
8.9000 -5.9020 -0.0198
8.9200 -5.9153 -0.0173
8.9400 -5.9287 -0.0191
8.9600 -5.9421 -0.0171
8.9800 -5.9554 -0.0172
9.0000 -5.9687 -0.0165
9.0200 -5.9820 -0.0176
9.0400 -5.9954 -0.0169
9.0600 -6.0088 -0.0165
9.0800 -6.0221 -0.0177
9.1000 -6.0354 -0.0155
9.1200 -6.0487 -0.0178
9.1400 -6.0620 -0.0172
9.1600 -6.0753 -0.0181
9.1800 -6.0886 -0.0179
9.2000 -6.1019 -0.0198
9.2200 -6.1153 -0.0164
9.2400 -6.1287 -0.0165
9.2600 -6.1420 -0.0178
9.2800 -6.1553 -0.0186
9.3000 -6.1687 -0.0156
9.3200 -6.1821 -0.0197
9.3400 -6.1954 -0.0159
9.3600 -6.2087 -0.0184
9.3800 -6.2220 -0.0179
9.4000 -6.2354 -0.0196
9.4200 -6.2487 -0.0155
9.4400 -6.2620 -0.0185
9.4600 -6.2753 -0.0156
9.4800 -6.2887 -0.0189
9.5000 -6.3020 -0.0181
9.5200 -6.3153 -0.0185
9.5400 -6.3286 -0.0179
9.5600 -6.3419 -0.0193
9.5800 -6.3553 -0.0194
9.6000 -6.3686 -0.0180
9.6200 -6.3820 -0.0199
9.6400 -6.3953 -0.0176
9.6600 -6.4087 -0.0158
9.6800 -6.4221 -0.0159
9.7000 -6.4354 -0.0164
9.7200 -6.4487 -0.0181
9.7400 -6.4620 -0.0200
9.7600 -6.4754 -0.0182
9.7800 -6.4887 -0.0184
9.8000 -6.5020 -0.0165
9.8200 -6.5153 -0.0165
9.8400 -6.5287 -0.0162
9.8600 -6.5420 -0.0184
9.8800 -6.5553 -0.0171
9.9000 -6.5686 -0.0161
9.9200 -6.5820 -0.0171
9.9400 -6.5954 -0.0170
9.9600 -6.6087 -0.0163
9.9800 -6.6220 -0.0188
10.0000 -6.6353 -0.0155
10.0200 -6.6487 -0.0179
10.0400 -6.6621 -0.0176
10.0600 -6.6754 -0.0191
10.0800 -6.6886 -0.0182
10.1000 -6.7019 -0.0189
10.1200 -6.7153 -0.0160
10.1400 -6.7287 -0.0163
10.1600 -6.7420 -0.0184
10.1800 -6.7553 -0.0177
10.2000 -6.7687 -0.0162
10.2200 -6.7820 -0.0180
10.2400 -6.7954 -0.0173
10.2600 -6.8087 -0.0172
10.2800 -6.8220 -0.0208
10.3000 -6.8353 -0.0183
10.3200 -6.8487 -0.0171
10.3400 -6.8620 -0.0189
10.3600 -6.8753 -0.0178
10.3800 -6.8887 -0.0174
10.4000 -6.9021 -0.0175
10.4200 -6.9154 -0.0169
10.4400 -6.9287 -0.0179
10.4600 -6.9420 -0.0179
10.4800 -6.9554 -0.0177
10.5000 -6.9688 -0.0172
10.5200 -6.9821 -0.0169
10.5400 -6.9954 -0.0176
10.5600 -7.0087 -0.0188
10.5800 -7.0220 -0.0179
10.6000 -7.0353 -0.0172
10.6200 -7.0486 -0.0142
10.6400 -7.0620 -0.0175
10.6600 -7.0753 -0.0183
10.6800 -7.0887 -0.0179
10.7000 -7.1020 -0.0174
10.7200 -7.1153 -0.0178
10.7400 -7.1287 -0.0176
10.7600 -7.1420 -0.0189
10.7800 -7.1554 -0.0194
10.8000 -7.1687 -0.0173
10.8200 -7.1820 -0.0187
10.8400 -7.1954 -0.0163
10.8600 -7.2087 -0.0184
10.8800 -7.2220 -0.0170
10.9000 -7.2353 -0.0183
10.9200 -7.2487 -0.0165
10.9400 -7.2620 -0.0194
10.9600 -7.2754 -0.0180
10.9800 -7.2886 -0.0189
11.0000 -7.3019 -0.0182
11.0200 -7.3153 -0.0183
11.0400 -7.3287 -0.0173
11.0600 -7.3420 -0.0192
11.0800 -7.3553 -0.0179
11.1000 -7.3686 -0.0179
11.1200 -7.3820 -0.0170
11.1400 -7.3954 -0.0166
11.1600 -7.4087 -0.0179
11.1800 -7.4220 -0.0186
11.2000 -7.4353 -0.0176
11.2200 -7.4487 -0.0156
11.2400 -7.4620 -0.0159
11.2600 -7.4753 -0.0155
11.2800 -7.4887 -0.0184
11.3000 -7.5020 -0.0180
11.3200 -7.5154 -0.0193
11.3400 -7.5286 -0.0171
11.3600 -7.5419 -0.0169
11.3800 -7.5553 -0.0158
11.4000 -7.5687 -0.0174
11.4200 -7.5820 -0.0170
11.4400 -7.5953 -0.0190
11.4600 -7.6087 -0.0168
11.4800 -7.6221 -0.0187
11.5000 -7.6354 -0.0160
11.5200 -7.6487 -0.0180
11.5400 -7.6620 -0.0175
11.5600 -7.6753 -0.0186
11.5800 -7.6887 -0.0164
11.6000 -7.7020 -0.0168
11.6200 -7.7153 -0.0167
11.6400 -7.7287 -0.0186
11.6600 -7.7420 -0.0165
11.6800 -7.7553 -0.0170
11.7000 -7.7686 -0.0150
11.7200 -7.7819 -0.0165
11.7400 -7.7953 -0.0160
11.7600 -7.8087 -0.0181
11.7800 -7.8220 -0.0175
11.8000 -7.8353 -0.0183
11.8200 -7.8487 -0.0163
11.8400 -7.8621 -0.0172
11.8600 -7.8754 -0.0176
11.8800 -7.8887 -0.0172
11.9000 -7.9020 -0.0158
11.9200 -7.9153 -0.0158
11.9400 -7.9287 -0.0174
11.9600 -7.9420 -0.0159
11.9800 -7.9553 -0.0176
12.0000 -7.9687 -0.0141
12.0200 -7.9820 -0.0183
12.0400 -7.9953 -0.0177
12.0600 -8.0086 -0.0170
12.0800 -8.0220 -0.0155
12.1000 -8.0353 -0.0158
12.1200 -8.0487 -0.0158
12.1400 -8.0620 -0.0167
12.1600 -8.0753 -0.0166
12.1800 -8.0886 -0.0185
12.2000 -8.1020 -0.0159
12.2200 -8.1154 -0.0164
12.2400 -8.1287 -0.0174
12.2600 -8.1420 -0.0165
12.2800 -8.1554 -0.0184
12.3000 -8.1687 -0.0144
12.3200 -8.1821 -0.0156
12.3400 -8.1954 -0.0159
12.3600 -8.2087 -0.0163
12.3800 -8.2221 -0.0158
12.4000 -8.2354 -0.0169
12.4200 -8.2487 -0.0151
12.4400 -8.2620 -0.0155
12.4600 -8.2753 -0.0165
12.4800 -8.2886 -0.0164
12.5000 -8.3019 -0.0154
12.5200 -8.3152 -0.0176
12.5400 -8.3286 -0.0156
12.5600 -8.3420 -0.0139
12.5800 -8.3554 -0.0139
12.6000 -8.3687 -0.0167
12.6200 -8.3820 -0.0180
12.6400 -8.3954 -0.0176
12.6600 -8.4088 -0.0165
12.6800 -8.4221 -0.0161
12.7000 -8.4354 -0.0186
12.7200 -8.4487 -0.0180
12.7400 -8.4620 -0.0174
12.7600 -8.4753 -0.0174
12.7800 -8.4886 -0.0189
12.8000 -8.5019 -0.0163
12.8200 -8.5153 -0.0202
12.8400 -8.5286 -0.0162
12.8600 -8.5420 -0.0168
12.8800 -8.5553 -0.0183
12.9000 -8.5687 -0.0173
12.9200 -8.5820 -0.0173
12.9400 -8.5954 -0.0178
12.9600 -8.6087 -0.0160
12.9800 -8.6220 -0.0179
13.0000 -8.6354 -0.0179
13.0200 -8.6487 -0.0185
13.0400 -8.6621 -0.0160
13.0600 -8.6753 -0.0174
13.0800 -8.6887 -0.0167
13.1000 -8.7020 -0.0170
13.1200 -8.7153 -0.0168
13.1400 -8.7286 -0.0177
13.1600 -8.7419 -0.0179
13.1800 -8.7553 -0.0168
13.2000 -8.7687 -0.0155
13.2200 -8.7820 -0.0182
13.2400 -8.7953 -0.0181
13.2600 -8.8086 -0.0177
13.2800 -8.8220 -0.0165
13.3000 -8.8354 -0.0153
13.3200 -8.8487 -0.0156
13.3400 -8.8620 -0.0183
13.3600 -8.8754 -0.0189
13.3800 -8.8887 -0.0173
13.4000 -8.9021 -0.0166
13.4200 -8.9153 -0.0171
13.4400 -8.9286 -0.0165
13.4600 -8.9420 -0.0155
13.4800 -8.9553 -0.0158
13.5000 -8.9686 -0.0157
13.5200 -8.9819 -0.0165
13.5400 -8.9953 -0.0166
13.5600 -9.0086 -0.0154
13.5800 -9.0220 -0.0146
13.6000 -9.0353 -0.0176
13.6200 -9.0486 -0.0137
13.6400 -9.0620 -0.0156
13.6600 -9.0754 -0.0146
13.6800 -9.0887 -0.0159
13.7000 -9.1020 -0.0155
13.7200 -9.1153 -0.0161
13.7400 -9.1287 -0.0148
13.7600 -9.1420 -0.0152
13.7800 -9.1554 -0.0155
13.8000 -9.1687 -0.0160
13.8200 -9.1820 -0.0136
13.8400 -9.1954 -0.0152
13.8600 -9.2087 -0.0176
13.8800 -9.2220 -0.0164
13.9000 -9.2353 -0.0165
13.9200 -9.2487 -0.0164
13.9400 -9.2620 -0.0154
13.9600 -9.2753 -0.0160
13.9800 -9.2886 -0.0166
14.0000 -9.3020 -0.0160
14.0200 -9.3154 -0.0164
14.0400 -9.3287 -0.0160
14.0600 -9.3420 -0.0166
14.0800 -9.3554 -0.0143
14.1000 -9.3687 -0.0153
14.1200 -9.3821 -0.0127
14.1400 -9.3954 -0.0159
14.1600 -9.4087 -0.0152
14.1800 -9.4221 -0.0165
14.2000 -9.4354 -0.0150
14.2200 -9.4487 -0.0157
14.2400 -9.4620 -0.0170
14.2600 -9.4753 -0.0170
14.2800 -9.4886 -0.0168
14.3000 -9.5020 -0.0146
14.3200 -9.5153 -0.0165
14.3400 -9.5286 -0.0160
14.3600 -9.5420 -0.0171
14.3800 -9.5554 -0.0152
14.4000 -9.5687 -0.0202
14.4200 -9.5820 -0.0160
14.4400 -9.5953 -0.0158
14.4600 -9.6087 -0.0144
14.4800 -9.6221 -0.0122
14.5000 -9.6354 -0.0131
14.5200 -9.6487 -0.0153
14.5400 -9.6620 -0.0149
14.5600 -9.6753 -0.0146
14.5800 -9.6886 -0.0138
14.6000 -9.7019 -0.0144
14.6200 -9.7153 -0.0158
14.6400 -9.7286 -0.0171
14.6600 -9.7420 -0.0150
14.6800 -9.7553 -0.0140
14.7000 -9.7686 -0.0147
14.7200 -9.7820 -0.0145
14.7400 -9.7954 -0.0167
14.7600 -9.8088 -0.0117
14.7800 -9.8221 -0.0140
14.8000 -9.8354 -0.0133
14.8200 -9.8487 -0.0170
14.8400 -9.8621 -0.0143
14.8600 -9.8754 -0.0163
14.8800 -9.8886 -0.0148
14.9000 -9.9019 -0.0156
14.9200 -9.9153 -0.0147
14.9400 -9.9286 -0.0160
14.9600 -9.9419 -0.0150
14.9800 -9.9552 -0.0170
15.0000 -9.9686 -0.0157
15.0200 -9.9820 -0.0161
15.0400 -9.9953 -0.0126
15.0600 -10.0087 -0.0132
15.0800 -10.0220 -0.0135
15.1000 -10.0354 -0.0160
15.1200 -10.0488 -0.0159
15.1400 -10.0620 -0.0153
15.1600 -10.0753 -0.0113
15.1800 -10.0887 -0.0156
15.2000 -10.1021 -0.0139
15.2200 -10.1154 -0.0151
15.2400 -10.1287 -0.0129
15.2600 -10.1420 -0.0150
15.2800 -10.1554 -0.0151
15.3000 -10.1687 -0.0146
15.3200 -10.1820 -0.0150
15.3400 -10.1953 -0.0139
15.3600 -10.2086 -0.0144
15.3800 -10.2220 -0.0151
15.4000 -10.2353 -0.0157
15.4200 -10.2486 -0.0159
15.4400 -10.2620 -0.0161
15.4600 -10.2754 -0.0135
15.4800 -10.2887 -0.0148
15.5000 -10.3020 -0.0146
15.5200 -10.3153 -0.0151
15.5400 -10.3287 -0.0148
15.5600 -10.3420 -0.0148
15.5800 -10.3553 -0.0161
15.6000 -10.3687 -0.0166
15.6200 -10.3820 -0.0166
15.6400 -10.3954 -0.0161
15.6600 -10.4087 -0.0170
15.6800 -10.4220 -0.0161
15.7000 -10.4353 -0.0159
15.7200 -10.4486 -0.0169
15.7400 -10.4620 -0.0134
15.7600 -10.4753 -0.0142
15.7800 -10.4887 -0.0129
15.8000 -10.5020 -0.0144
15.8200 -10.5154 -0.0134
15.8400 -10.5287 -0.0141
15.8600 -10.5420 -0.0163
15.8800 -10.5553 -0.0158
15.9000 -10.5687 -0.0143
15.9200 -10.5821 -0.0147
15.9400 -10.5954 -0.0133
15.9600 -10.6087 -0.0158
15.9800 -10.6220 -0.0146
16.0000 -10.6353 -0.0139
16.0200 -10.6486 -0.0153
16.0400 -10.6619 -0.0146
16.0600 -10.6753 -0.0134
16.0800 -10.6886 -0.0142
16.1000 -10.7020 -0.0150
16.1200 -10.7154 -0.0145
16.1400 -10.7287 -0.0177
16.1600 -10.7420 -0.0152
16.1800 -10.7554 -0.0159
16.2000 -10.7687 -0.0174
16.2200 -10.7820 -0.0160
16.2400 -10.7954 -0.0148
16.2600 -10.8087 -0.0166
16.2800 -10.8221 -0.0165
16.3000 -10.8354 -0.0156
16.3200 -10.8487 -0.0147
16.3400 -10.8620 -0.0146
16.3600 -10.8753 -0.0137
16.3800 -10.8887 -0.0148
16.4000 -10.9019 -0.0157
16.4200 -10.9152 -0.0156
16.4400 -10.9286 -0.0165
16.4600 -10.9420 -0.0163
16.4800 -10.9553 -0.0156
16.5000 -10.9686 -0.0159
16.5200 -10.9820 -0.0159
16.5400 -10.9954 -0.0135
16.5600 -11.0088 -0.0164
16.5800 -11.0221 -0.0137
16.6000 -11.0354 -0.0163
16.6200 -11.0487 -0.0157
16.6400 -11.0621 -0.0152
16.6600 -11.0754 -0.0131
16.6800 -11.0887 -0.0151
16.7000 -11.1020 -0.0152
16.7200 -11.1153 -0.0142
16.7400 -11.1287 -0.0161
16.7600 -11.1419 -0.0144
16.7800 -11.1552 -0.0153
16.8000 -11.1686 -0.0137
16.8200 -11.1820 -0.0158
16.8400 -11.1953 -0.0128
16.8600 -11.2086 -0.0156
16.8800 -11.2220 -0.0146
16.9000 -11.2354 -0.0154
16.9200 -11.2488 -0.0137
16.9400 -11.2621 -0.0150
16.9600 -11.2753 -0.0140
16.9800 -11.2887 -0.0142
17.0000 -11.3020 -0.0148
17.0200 -11.3153 -0.0132
17.0400 -11.3286 -0.0160
17.0600 -11.3420 -0.0149
17.0800 -11.3553 -0.0154
17.1000 -11.3687 -0.0134
17.1200 -11.3820 -0.0118
17.1400 -11.3953 -0.0144
17.1600 -11.4086 -0.0144
17.1800 -11.4220 -0.0149
17.2000 -11.4354 -0.0113
17.2200 -11.4487 -0.0150
17.2400 -11.4620 -0.0095
17.2600 -11.4754 -0.0157
17.2800 -11.4887 -0.0108
17.3000 -11.5020 -0.0154
17.3200 -11.5153 -0.0086
17.3400 -11.5286 -0.0164
17.3600 -11.5420 -0.0114
17.3800 -11.5553 -0.0131
17.4000 -11.5687 -0.0131
17.4200 -11.5820 -0.0142
17.4400 -11.5953 -0.0148
17.4600 -11.6087 -0.0139
17.4800 -11.6220 -0.0157
17.5000 -11.6353 -0.0112
17.5200 -11.6486 -0.0142
17.5400 -11.6620 -0.0141
17.5600 -11.6753 -0.0143
17.5800 -11.6887 -0.0139
17.6000 -11.7020 -0.0161
17.6200 -11.7154 -0.0135
17.6400 -11.7288 -0.0158
17.6600 -11.7421 -0.0156
17.6800 -11.7554 -0.0167
17.7000 -11.7687 -0.0142
17.7200 -11.7821 -0.0158
17.7400 -11.7954 -0.0136
17.7600 -11.8087 -0.0155
17.7800 -11.8220 -0.0119
17.8000 -11.8354 -0.0122
17.8200 -11.8487 -0.0111
17.8400 -11.8620 -0.0148
17.8600 -11.8753 -0.0115
17.8800 -11.8886 -0.0139
17.9000 -11.9020 -0.0142
17.9200 -11.9153 -0.0124
17.9400 -11.9286 -0.0122
17.9600 -11.9420 -0.0133
17.9800 -11.9553 -0.0131
18.0000 -11.9687 -0.0126
18.0200 -11.9820 -0.0122
18.0400 -11.9954 -0.0102
18.0600 -12.0087 -0.0117
18.0800 -12.0221 -0.0136
18.1000 -12.0354 -0.0115
18.1200 -12.0487 -0.0136
18.1400 -12.0620 -0.0138
18.1600 -12.0753 -0.0124
18.1800 -12.0887 -0.0148
18.2000 -12.1020 -0.0138
18.2200 -12.1153 -0.0119
18.2400 -12.1286 -0.0134
18.2600 -12.1420 -0.0150
18.2800 -12.1553 -0.0134
18.3000 -12.1686 -0.0149
18.3200 -12.1820 -0.0140
18.3400 -12.1953 -0.0121
18.3600 -12.2087 -0.0139
18.3800 -12.2220 -0.0158
18.4000 -12.2353 -0.0135
18.4200 -12.2487 -0.0142
18.4400 -12.2620 -0.0129
18.4600 -12.2754 -0.0139
18.4800 -12.2887 -0.0129
18.5000 -12.3020 -0.0142
18.5200 -12.3154 -0.0113
18.5400 -12.3287 -0.0137
18.5600 -12.3420 -0.0164
18.5800 -12.3553 -0.0158
18.6000 -12.3686 -0.0159
18.6200 -12.3820 -0.0154
18.6400 -12.3953 -0.0127
18.6600 -12.4087 -0.0118
18.6800 -12.4220 -0.0150
18.7000 -12.4354 -0.0109
18.7200 -12.4487 -0.0139
18.7400 -12.4621 -0.0130
18.7600 -12.4754 -0.0160
18.7800 -12.4887 -0.0110
18.8000 -12.5020 -0.0157
18.8200 -12.5154 -0.0110
18.8400 -12.5287 -0.0150
18.8600 -12.5420 -0.0129
18.8800 -12.5553 -0.0142
18.9000 -12.5687 -0.0110
18.9200 -12.5820 -0.0137
18.9400 -12.5953 -0.0118
18.9600 -12.6086 -0.0128
18.9800 -12.6220 -0.0126
19.0000 -12.6354 -0.0123
19.0200 -12.6487 -0.0113
19.0400 -12.6620 -0.0128
19.0600 -12.6754 -0.0133
19.0800 -12.6887 -0.0123
19.1000 -12.7021 -0.0126
19.1200 -12.7153 -0.0114
19.1400 -12.7287 -0.0129
19.1600 -12.7420 -0.0142
19.1800 -12.7554 -0.0118
19.2000 -12.7687 -0.0125
19.2200 -12.7820 -0.0134
19.2400 -12.7953 -0.0123
19.2600 -12.8087 -0.0121
19.2800 -12.8220 -0.0147
19.3000 -12.8353 -0.0128
19.3200 -12.8486 -0.0131
19.3400 -12.8620 -0.0131
19.3600 -12.8754 -0.0112
19.3800 -12.8887 -0.0116
19.4000 -12.9020 -0.0138
19.4200 -12.9153 -0.0140
19.4400 -12.9287 -0.0118
19.4600 -12.9421 -0.0137
19.4800 -12.9554 -0.0118
19.5000 -12.9687 -0.0129
19.5200 -12.9820 -0.0130
19.5400 -12.9954 -0.0118
19.5600 -13.0087 -0.0120
19.5800 -13.0220 -0.0152
19.6000 -13.0354 -0.0146
19.6200 -13.0487 -0.0133
19.6400 -13.0620 -0.0142
19.6600 -13.0753 -0.0123
19.6800 -13.0886 -0.0121
19.7000 -13.1019 -0.0148
19.7200 -13.1153 -0.0123
19.7400 -13.1286 -0.0121
19.7600 -13.1419 -0.0157
19.7800 -13.1553 -0.0119
19.8000 -13.1687 -0.0136
19.8200 -13.1821 -0.0120
19.8400 -13.1954 -0.0129
19.8600 -13.2087 -0.0128
19.8800 -13.2221 -0.0137
19.9000 -13.2354 -0.0123
19.9200 -13.2488 -0.0149
19.9400 -13.2620 -0.0155
19.9600 -13.2753 -0.0141
19.9800 -13.2887 -0.0138
20.0000 -13.3020 -0.0152
20.0200 -13.3153 -0.0126
20.0400 -13.3286 -0.0127
20.0600 -13.3420 -0.0147
20.0800 -13.3553 -0.0146
20.1000 -13.3687 -0.0128
20.1200 -13.3820 -0.0146
20.1400 -13.3953 -0.0140
20.1600 -13.4087 -0.0136
20.1800 -13.4221 -0.0157
20.2000 -13.4354 -0.0144
20.2200 -13.4487 -0.0153
20.2400 -13.4620 -0.0171
20.2600 -13.4754 -0.0134
20.2800 -13.4887 -0.0116
20.3000 -13.5020 -0.0147
20.3200 -13.5153 -0.0132
20.3400 -13.5287 -0.0147
20.3600 -13.5420 -0.0147
20.3800 -13.5553 -0.0166
20.4000 -13.5686 -0.0119
20.4200 -13.5820 -0.0165
20.4400 -13.5953 -0.0143
20.4600 -13.6087 -0.0148
20.4800 -13.6220 -0.0139
20.5000 -13.6353 -0.0162
20.5200 -13.6487 -0.0146
20.5400 -13.6621 -0.0172
20.5600 -13.6754 -0.0134
20.5800 -13.6887 -0.0142
20.6000 -13.7020 -0.0151
20.6200 -13.7154 -0.0141
20.6400 -13.7287 -0.0107
20.6600 -13.7420 -0.0140
20.6800 -13.7553 -0.0128
20.7000 -13.7687 -0.0124
20.7200 -13.7820 -0.0160
20.7400 -13.7953 -0.0144
20.7600 -13.8086 -0.0136
20.7800 -13.8219 -0.0163
20.8000 -13.8353 -0.0152
20.8200 -13.8486 -0.0123
20.8400 -13.8620 -0.0156
20.8600 -13.8753 -0.0124
20.8800 -13.8887 -0.0156
20.9000 -13.9021 -0.0145
20.9200 -13.9154 -0.0158
20.9400 -13.9287 -0.0127
20.9600 -13.9420 -0.0157
20.9800 -13.9554 -0.0130
21.0000 -13.9687 -0.0142
21.0200 -13.9820 -0.0156
21.0400 -13.9953 -0.0139
21.0600 -14.0087 -0.0130
21.0800 -14.0220 -0.0141
21.1000 -14.0353 -0.0142
21.1200 -14.0486 -0.0112
21.1400 -14.0620 -0.0133
21.1600 -14.0753 -0.0149
21.1800 -14.0887 -0.0103
21.2000 -14.1020 -0.0132
21.2200 -14.1153 -0.0123
21.2400 -14.1287 -0.0126
21.2600 -14.1420 -0.0131
21.2800 -14.1554 -0.0132
21.3000 -14.1687 -0.0128
21.3200 -14.1820 -0.0144
21.3400 -14.1954 -0.0107
21.3600 -14.2087 -0.0117
21.3800 -14.2220 -0.0141
21.4000 -14.2354 -0.0120
21.4200 -14.2487 -0.0131
21.4400 -14.2620 -0.0141
21.4600 -14.2753 -0.0151
21.4800 -14.2886 -0.0137
21.5000 -14.3019 -0.0143
21.5200 -14.3153 -0.0128
21.5400 -14.3287 -0.0130
21.5600 -14.3420 -0.0130
21.5800 -14.3553 -0.0122
21.6000 -14.3687 -0.0099
21.6200 -14.3821 -0.0135
21.6400 -14.3954 -0.0127
21.6600 -14.4087 -0.0124
21.6800 -14.4220 -0.0151
21.7000 -14.4354 -0.0120
21.7200 -14.4488 -0.0116
21.7400 -14.4621 -0.0130
21.7600 -14.4754 -0.0131
21.7800 -14.4887 -0.0109
21.8000 -14.5020 -0.0152
21.8200 -14.5153 -0.0137
21.8400 -14.5286 -0.0146
21.8600 -14.5419 -0.0143
21.8800 -14.5553 -0.0145
21.9000 -14.5687 -0.0129
21.9200 -14.5820 -0.0153
21.9400 -14.5953 -0.0146
21.9600 -14.6087 -0.0147
21.9800 -14.6221 -0.0150
22.0000 -14.6354 -0.0134
22.0200 -14.6487 -0.0131
22.0400 -14.6621 -0.0160
22.0600 -14.6754 -0.0142
22.0800 -14.6887 -0.0138
22.1000 -14.7020 -0.0150
22.1200 -14.7153 -0.0147
22.1400 -14.7286 -0.0138
22.1600 -14.7419 -0.0183
22.1800 -14.7552 -0.0145
22.2000 -14.7686 -0.0143
22.2200 -14.7819 -0.0156
22.2400 -14.7953 -0.0155
22.2600 -14.8087 -0.0133
22.2800 -14.8220 -0.0154
22.3000 -14.8353 -0.0148
22.3200 -14.8487 -0.0135
22.3400 -14.8621 -0.0142
22.3600 -14.8754 -0.0130
22.3800 -14.8887 -0.0114
22.4000 -14.9020 -0.0125
22.4200 -14.9154 -0.0147
22.4400 -14.9287 -0.0122
22.4600 -14.9420 -0.0139
22.4800 -14.9553 -0.0139
22.5000 -14.9687 -0.0141
22.5200 -14.9820 -0.0154
22.5400 -14.9953 -0.0168
22.5600 -15.0086 -0.0117
22.5800 -15.0220 -0.0125
22.6000 -15.0353 -0.0105
22.6200 -15.0487 -0.0118
22.6400 -15.0620 -0.0126
22.6600 -15.0753 -0.0152
22.6800 -15.0887 -0.0121
22.7000 -15.1021 -0.0159
22.7200 -15.1154 -0.0131
22.7400 -15.1287 -0.0126
22.7600 -15.1420 -0.0142
22.7800 -15.1554 -0.0156
22.8000 -15.1687 -0.0100
22.8200 -15.1820 -0.0130
22.8400 -15.1953 -0.0137
22.8600 -15.2087 -0.0114
22.8800 -15.2220 -0.0129
22.9000 -15.2353 -0.0149
22.9200 -15.2486 -0.0131
22.9400 -15.2620 -0.0156
22.9600 -15.2753 -0.0146
22.9800 -15.2887 -0.0120
23.0000 -15.3020 -0.0148
23.0200 -15.3153 -0.0142
23.0400 -15.3287 -0.0125
23.0600 -15.3420 -0.0147
23.0800 -15.3554 -0.0139
23.1000 -15.3687 -0.0131
23.1200 -15.3820 -0.0133
23.1400 -15.3954 -0.0140
23.1600 -15.4087 -0.0120
23.1800 -15.4220 -0.0141
23.2000 -15.4353 -0.0147
23.2200 -15.4487 -0.0122
23.2400 -15.4620 -0.0148
23.2600 -15.4753 -0.0134
23.2800 -15.4886 -0.0140
23.3000 -15.5019 -0.0139
23.3200 -15.5153 -0.0149
23.3400 -15.5287 -0.0124
23.3600 -15.5420 -0.0135
23.3800 -15.5553 -0.0140
23.4000 -15.5687 -0.0145
23.4200 -15.5821 -0.0157
23.4400 -15.5954 -0.0146
23.4600 -15.6087 -0.0136
23.4800 -15.6220 -0.0133
23.5000 -15.6354 -0.0131
23.5200 -15.6487 -0.0123
23.5400 -15.6620 -0.0152
23.5600 -15.6753 -0.0161
23.5800 -15.6887 -0.0162
23.6000 -15.7020 -0.0148
23.6200 -15.7153 -0.0160
23.6400 -15.7286 -0.0127
23.6600 -15.7419 -0.0156
23.6800 -15.7553 -0.0145
23.7000 -15.7687 -0.0136
23.7200 -15.7820 -0.0155
23.7400 -15.7953 -0.0157
23.7600 -15.8087 -0.0140
23.7800 -15.8221 -0.0148
23.8000 -15.8354 -0.0140
23.8200 -15.8487 -0.0121
23.8400 -15.8620 -0.0151
23.8600 -15.8754 -0.0145
23.8800 -15.8888 -0.0124
23.9000 -15.9021 -0.0129
23.9200 -15.9153 -0.0134
23.9400 -15.9287 -0.0121
23.9600 -15.9420 -0.0131
23.9800 -15.9553 -0.0126
24.0000 -15.9686 -0.0131
24.0200 -15.9819 -0.0145
24.0400 -15.9953 -0.0152
24.0600 -16.0086 -0.0121
24.0800 -16.0220 -0.0127
24.1000 -16.0353 -0.0112
24.1200 -16.0487 -0.0124
24.1400 -16.0621 -0.0130
24.1600 -16.0754 -0.0142
24.1800 -16.0887 -0.0121
24.2000 -16.1020 -0.0144
24.2200 -16.1153 -0.0144
24.2400 -16.1287 -0.0130
24.2600 -16.1420 -0.0138
24.2800 -16.1553 -0.0134
24.3000 -16.1687 -0.0116
24.3200 -16.1820 -0.0153
24.3400 -16.1953 -0.0135
24.3600 -16.2086 -0.0133
24.3800 -16.2219 -0.0137
24.4000 -16.2353 -0.0163
24.4200 -16.2487 -0.0127
24.4400 -16.2620 -0.0156
24.4600 -16.2753 -0.0154
24.4800 -16.2887 -0.0144
24.5000 -16.3021 -0.0123
24.5200 -16.3154 -0.0146
24.5400 -16.3286 -0.0110
24.5600 -16.3419 -0.0136
24.5800 -16.3553 -0.0153
24.6000 -16.3687 -0.0130
24.6200 -16.3820 -0.0134
24.6400 -16.3953 -0.0153
24.6600 -16.4087 -0.0136
24.6800 -16.4220 -0.0133
24.7000 -16.4354 -0.0136
24.7200 -16.4487 -0.0114
24.7400 -16.4620 -0.0136
24.7600 -16.4753 -0.0128
24.7800 -16.4887 -0.0121
24.8000 -16.5020 -0.0128
24.8200 -16.5153 -0.0138
24.8400 -16.5287 -0.0123
24.8600 -16.5421 -0.0131
24.8800 -16.5554 -0.0141
24.9000 -16.5687 -0.0161
24.9200 -16.5820 -0.0129
24.9400 -16.5954 -0.0173
24.9600 -16.6088 -0.0147
24.9800 -16.6221 -0.0142
25.0000 -16.6354 -0.0135
25.0200 -16.6487 -0.0138
25.0400 -16.6620 -0.0132
25.0600 -16.6754 -0.0155
25.0800 -16.6886 -0.0120
25.1000 -16.7020 -0.0158
25.1200 -16.7153 -0.0162
25.1400 -16.7287 -0.0134
25.1600 -16.7420 -0.0153
25.1800 -16.7553 -0.0154
25.2000 -16.7686 -0.0142
25.2200 -16.7820 -0.0148
25.2400 -16.7954 -0.0161
25.2600 -16.8087 -0.0145
25.2800 -16.8220 -0.0157
25.3000 -16.8354 -0.0159
25.3200 -16.8487 -0.0137
25.3400 -16.8620 -0.0141
25.3600 -16.8753 -0.0169
25.3800 -16.8887 -0.0144
25.4000 -16.9020 -0.0138
25.4200 -16.9154 -0.0158
25.4400 -16.9286 -0.0146
25.4600 -16.9419 -0.0157
25.4800 -16.9553 -0.0155
25.5000 -16.9686 -0.0147
25.5200 -16.9820 -0.0145
25.5400 -16.9953 -0.0168
25.5600 -17.0086 -0.0122
25.5800 -17.0220 -0.0142
25.6000 -17.0354 -0.0157
25.6200 -17.0487 -0.0109
25.6400 -17.0620 -0.0147
25.6600 -17.0753 -0.0163
25.6800 -17.0887 -0.0129
25.7000 -17.1021 -0.0126
25.7200 -17.1154 -0.0149
25.7400 -17.1287 -0.0109
25.7600 -17.1420 -0.0134
25.7800 -17.1554 -0.0149
25.8000 -17.1687 -0.0129
25.8200 -17.1820 -0.0113
25.8400 -17.1953 -0.0146
25.8600 -17.2087 -0.0126
25.8800 -17.2220 -0.0137
25.9000 -17.2354 -0.0162
25.9200 -17.2487 -0.0130
25.9400 -17.2621 -0.0145
25.9600 -17.2754 -0.0134
25.9800 -17.2887 -0.0127
26.0000 -17.3020 -0.0123
26.0200 -17.3153 -0.0147
26.0400 -17.3287 -0.0129
26.0600 -17.3420 -0.0148
26.0800 -17.3553 -0.0146
26.1000 -17.3687 -0.0135
26.1200 -17.3820 -0.0112
26.1400 -17.3953 -0.0142
26.1600 -17.4086 -0.0134
26.1800 -17.4219 -0.0151
26.2000 -17.4353 -0.0148
26.2200 -17.4487 -0.0140
26.2400 -17.4620 -0.0143
26.2600 -17.4753 -0.0178
26.2800 -17.4886 -0.0176
26.3000 -17.5020 -0.0151
26.3200 -17.5154 -0.0151
26.3400 -17.5287 -0.0134
26.3600 -17.5420 -0.0149
26.3800 -17.5553 -0.0181
26.4000 -17.5687 -0.0170
26.4200 -17.5820 -0.0138
26.4400 -17.5953 -0.0172
26.4600 -17.6086 -0.0153
26.4800 -17.6219 -0.0183
26.5000 -17.6353 -0.0155
26.5200 -17.6486 -0.0177
26.5400 -17.6620 -0.0131
26.5600 -17.6753 -0.0161
26.5800 -17.6887 -0.0152
26.6000 -17.7020 -0.0152
26.6200 -17.7153 -0.0169
26.6400 -17.7286 -0.0164
26.6600 -17.7420 -0.0140
26.6800 -17.7554 -0.0176
26.7000 -17.7687 -0.0156
26.7200 -17.7820 -0.0161
26.7400 -17.7954 -0.0195
26.7600 -17.8087 -0.0145
26.7800 -17.8221 -0.0153
26.8000 -17.8354 -0.0172
26.8200 -17.8487 -0.0180
26.8400 -17.8621 -0.0156
26.8600 -17.8754 -0.0178
26.8800 -17.8887 -0.0165
26.9000 -17.9020 -0.0158
26.9200 -17.9153 -0.0172
26.9400 -17.9286 -0.0154
26.9600 -17.9419 -0.0156
26.9800 -17.9552 -0.0178
27.0000 -17.9686 -0.0165
27.0200 -17.9820 -0.0161
27.0400 -17.9954 -0.0177
27.0600 -18.0087 -0.0156
27.0800 -18.0220 -0.0148
27.1000 -18.0354 -0.0183
27.1200 -18.0488 -0.0171
27.1400 -18.0621 -0.0156
27.1600 -18.0754 -0.0181
27.1800 -18.0887 -0.0178
27.2000 -18.1020 -0.0163
27.2200 -18.1154 -0.0192
27.2400 -18.1287 -0.0179
27.2600 -18.1420 -0.0175
27.2800 -18.1553 -0.0191
27.3000 -18.1687 -0.0180
27.3200 -18.1820 -0.0162
27.3400 -18.1953 -0.0179
27.3600 -18.2087 -0.0163
27.3800 -18.2220 -0.0168
27.4000 -18.2354 -0.0160
27.4200 -18.2487 -0.0164
27.4400 -18.2620 -0.0160
27.4600 -18.2754 -0.0183
27.4800 -18.2887 -0.0180
27.5000 -18.3021 -0.0193
27.5200 -18.3154 -0.0212
27.5400 -18.3287 -0.0201
27.5600 -18.3420 -0.0184
27.5800 -18.3553 -0.0186
27.6000 -18.3686 -0.0195
27.6200 -18.3819 -0.0180
27.6400 -18.3952 -0.0191
27.6600 -18.4086 -0.0165
27.6800 -18.4220 -0.0167
27.7000 -18.4353 -0.0187
27.7200 -18.4487 -0.0201
27.7400 -18.4620 -0.0173
27.7600 -18.4754 -0.0183
27.7800 -18.4887 -0.0185
27.8000 -18.5020 -0.0192
27.8200 -18.5154 -0.0210
27.8400 -18.5287 -0.0189
27.8600 -18.5420 -0.0192
27.8800 -18.5554 -0.0191
27.9000 -18.5687 -0.0199
27.9200 -18.5820 -0.0182
27.9400 -18.5954 -0.0189
27.9600 -18.6087 -0.0162
27.9800 -18.6219 -0.0191
28.0000 -18.6352 -0.0178
28.0200 -18.6486 -0.0184
28.0400 -18.6620 -0.0176
28.0600 -18.6753 -0.0201
28.0800 -18.6886 -0.0187
28.1000 -18.7020 -0.0194
28.1200 -18.7154 -0.0197
28.1400 -18.7287 -0.0192
28.1600 -18.7420 -0.0197
28.1800 -18.7554 -0.0208
28.2000 -18.7687 -0.0200
28.2200 -18.7821 -0.0194
28.2400 -18.7954 -0.0180
28.2600 -18.8087 -0.0200
28.2800 -18.8220 -0.0187
28.3000 -18.8354 -0.0199
28.3200 -18.8487 -0.0185
28.3400 -18.8620 -0.0203
28.3600 -18.8753 -0.0197
28.3800 -18.8886 -0.0209
28.4000 -18.9020 -0.0199
28.4200 -18.9153 -0.0186
28.4400 -18.9286 -0.0209
28.4600 -18.9420 -0.0186
28.4800 -18.9554 -0.0212
28.5000 -18.9687 -0.0213
28.5200 -18.9820 -0.0199
28.5400 -18.9953 -0.0217
28.5600 -19.0087 -0.0224
28.5800 -19.0221 -0.0189
28.6000 -19.0354 -0.0207
28.6200 -19.0487 -0.0193
28.6400 -19.0621 -0.0212
28.6600 -19.0754 -0.0203
28.6800 -19.0887 -0.0229
28.7000 -19.1020 -0.0204
28.7200 -19.1153 -0.0200
28.7400 -19.1286 -0.0184
28.7600 -19.1420 -0.0204
28.7800 -19.1553 -0.0213
28.8000 -19.1686 -0.0232
28.8200 -19.1820 -0.0192
28.8400 -19.1954 -0.0209
28.8600 -19.2087 -0.0201
28.8800 -19.2220 -0.0196
28.9000 -19.2353 -0.0214
28.9200 -19.2487 -0.0232
28.9400 -19.2621 -0.0192
28.9600 -19.2754 -0.0228
28.9800 -19.2887 -0.0239
29.0000 -19.3020 -0.0213
29.0200 -19.3154 -0.0213
29.0400 -19.3287 -0.0214
29.0600 -19.3420 -0.0187
29.0800 -19.3553 -0.0216
29.1000 -19.3686 -0.0209
29.1200 -19.3820 -0.0200
29.1400 -19.3953 -0.0218
29.1600 -19.4086 -0.0235
29.1800 -19.4220 -0.0218
29.2000 -19.4354 -0.0228
29.2200 -19.4487 -0.0220
29.2400 -19.4621 -0.0220
29.2600 -19.4754 -0.0235
29.2800 -19.4887 -0.0225
29.3000 -19.5021 -0.0215
29.3200 -19.5154 -0.0199
29.3400 -19.5287 -0.0230
29.3600 -19.5420 -0.0207
29.3800 -19.5553 -0.0236
29.4000 -19.5686 -0.0210
29.4200 -19.5819 -0.0216
29.4400 -19.5952 -0.0212
29.4600 -19.6086 -0.0224
29.4800 -19.6220 -0.0208
29.5000 -19.6353 -0.0212
29.5200 -19.6487 -0.0226
29.5400 -19.6620 -0.0207
29.5600 -19.6754 -0.0232
29.5800 -19.6888 -0.0236
29.6000 -19.7021 -0.0222
29.6200 -19.7154 -0.0228
29.6400 -19.7287 -0.0222
29.6600 -19.7421 -0.0229
29.6800 -19.7554 -0.0219
29.7000 -19.7687 -0.0226
29.7200 -19.7820 -0.0215
29.7400 -19.7954 -0.0215
29.7600 -19.8087 -0.0252
29.7800 -19.8220 -0.0242
29.8000 -19.8353 -0.0248
29.8200 -19.8486 -0.0255
29.8400 -19.8620 -0.0234
29.8600 -19.8753 -0.0251
29.8800 -19.8886 -0.0255
29.9000 -19.9020 -0.0240
29.9200 -19.9154 -0.0251
29.9400 -19.9287 -0.0239
29.9600 -19.9420 -0.0263
29.9800 -19.9553 -0.0252
30.0000 -19.9687 -0.0261
30.0200 -19.9821 -0.0231
30.0400 -19.9954 -0.0225
30.0600 -20.0087 -0.0232
30.0800 -20.0220 -0.0243
30.1000 -20.0353 -0.0237
30.1200 -20.0487 -0.0242
30.1400 -20.0620 -0.0251
30.1600 -20.0753 -0.0267
30.1800 -20.0886 -0.0268
30.2000 -20.1020 -0.0270
30.2200 -20.1153 -0.0281
30.2400 -20.1287 -0.0247
30.2600 -20.1420 -0.0259
30.2800 -20.1554 -0.0239
30.3000 -20.1687 -0.0262
30.3200 -20.1821 -0.0250
30.3400 -20.1954 -0.0246
30.3600 -20.2087 -0.0248
30.3800 -20.2220 -0.0237
30.4000 -20.2354 -0.0219
30.4200 -20.2487 -0.0258
30.4400 -20.2620 -0.0257
30.4600 -20.2753 -0.0282
30.4800 -20.2887 -0.0262
30.5000 -20.3019 -0.0248
30.5200 -20.3153 -0.0250
30.5400 -20.3286 -0.0264
30.5600 -20.3420 -0.0265
30.5800 -20.3554 -0.0277
30.6000 -20.3687 -0.0276
30.6200 -20.3820 -0.0278
30.6400 -20.3954 -0.0268
30.6600 -20.4087 -0.0281
30.6800 -20.4220 -0.0266
30.7000 -20.4354 -0.0283
30.7200 -20.4487 -0.0277
30.7400 -20.4621 -0.0292
30.7600 -20.4754 -0.0283
30.7800 -20.4887 -0.0303
30.8000 -20.5020 -0.0292
30.8200 -20.5154 -0.0268
30.8400 -20.5287 -0.0311
30.8600 -20.5420 -0.0281
30.8800 -20.5552 -0.0286
30.9000 -20.5686 -0.0297
30.9200 -20.5820 -0.0298
30.9400 -20.5953 -0.0300
30.9600 -20.6086 -0.0319
30.9800 -20.6220 -0.0304
31.0000 -20.6354 -0.0301
31.0200 -20.6488 -0.0302
31.0400 -20.6621 -0.0323
31.0600 -20.6754 -0.0306
31.0800 -20.6887 -0.0311
31.1000 -20.7021 -0.0301
31.1200 -20.7154 -0.0318
31.1400 -20.7287 -0.0307
31.1600 -20.7420 -0.0295
31.1800 -20.7553 -0.0271
31.2000 -20.7687 -0.0309
31.2200 -20.7820 -0.0319
31.2400 -20.7952 -0.0561
31.2600 -20.8086 -0.0810
31.2800 -20.8220 -0.0891
31.3000 -20.8353 -0.0913
31.3200 -20.8486 -0.0927
31.3400 -20.8620 -0.0906
31.3600 -20.8754 -0.0904
31.3800 -20.8888 -0.0899
31.4000 -20.9021 -0.0916
31.4200 -20.9154 -0.0913
31.4400 -20.9287 -0.0941
31.4600 -20.9420 -0.0943
31.4800 -20.9554 -0.0947
31.5000 -20.9687 -0.0950
31.5200 -20.9820 -0.0929
31.5400 -20.9953 -0.0959
31.5600 -21.0087 -0.0950
31.5800 -21.0220 -0.0948
31.6000 -21.0353 -0.0960
31.6200 -21.0486 -0.0983
31.6400 -21.0620 -0.0986
31.6600 -21.0754 -0.0973
31.6800 -21.0887 -0.0972
31.7000 -21.1020 -0.0955
31.7200 -21.1154 -0.0951
31.7400 -21.1287 -0.0964
31.7600 -21.1420 -0.0968
31.7800 -21.1553 -0.0999
31.8000 -21.1686 -0.1001
31.8200 -21.1820 -0.1010
31.8400 -21.1953 -0.0986
31.8600 -21.2087 -0.1009
31.8800 -21.2220 -0.0986
31.9000 -21.2353 -0.0980
31.9200 -21.2487 -0.0983
31.9400 -21.2620 -0.0991
31.9600 -21.2753 -0.1002
31.9800 -21.2886 -0.0995
32.0000 -21.3020 -0.0996
32.0200 -21.3153 -0.1016
32.0400 -21.3286 -0.1016
32.0600 -21.3420 -0.0985
32.0800 -21.3553 -0.0990
32.1000 -21.3687 -0.0996
32.1200 -21.3821 -0.1011
32.1400 -21.3954 -0.1021
32.1600 -21.4087 -0.1026
32.1800 -21.4221 -0.1019
32.2000 -21.4354 -0.1020
32.2200 -21.4487 -0.1023
32.2400 -21.4620 -0.1020
32.2600 -21.4754 -0.0999
32.2800 -21.4887 -0.0985
32.3000 -21.5020 -0.1000
32.3200 -21.5153 -0.1015
32.3400 -21.5286 -0.1023
32.3600 -21.5420 -0.1011
32.3800 -21.5553 -0.1005
32.4000 -21.5687 -0.1015
32.4200 -21.5820 -0.1021
32.4400 -21.5953 -0.1008
32.4600 -21.6087 -0.1027
32.4800 -21.6220 -0.1030
32.5000 -21.6353 -0.1037
32.5200 -21.6487 -0.1024
32.5400 -21.6621 -0.1030
32.5600 -21.6754 -0.1029
32.5800 -21.6887 -0.1054
32.6000 -21.7020 -0.1035
32.6200 -21.7154 -0.1047
32.6400 -21.7287 -0.1020
32.6600 -21.7420 -0.1048
32.6800 -21.7553 -0.1031
32.7000 -21.7686 -0.1039
32.7200 -21.7820 -0.1037
32.7400 -21.7953 -0.1025
32.7600 -21.8087 -0.1033
32.7800 -21.8220 -0.1032
32.8000 -21.8353 -0.1016
32.8200 -21.8487 -0.1022
32.8400 -21.8620 -0.1039
32.8600 -21.8754 -0.1034
32.8800 -21.8887 -0.1038
32.9000 -21.9020 -0.1026
32.9200 -21.9154 -0.1022
32.9400 -21.9287 -0.1020
32.9600 -21.9420 -0.1031
32.9800 -21.9554 -0.1057
33.0000 -21.9687 -0.1038
33.0200 -21.9820 -0.1041
33.0400 -21.9953 -0.1024
33.0600 -22.0086 -0.1029
33.0800 -22.0220 -0.1028
33.1000 -22.0353 -0.1020
33.1200 -22.0487 -0.1030
33.1400 -22.0620 -0.1034
33.1600 -22.0753 -0.1037
33.1800 -22.0887 -0.1042
33.2000 -22.1021 -0.1026
33.2200 -22.1154 -0.1017
33.2400 -22.1287 -0.1022
33.2600 -22.1420 -0.1031
33.2800 -22.1554 -0.1040
33.3000 -22.1687 -0.1038
33.3200 -22.1820 -0.1047
33.3400 -22.1953 -0.1035
33.3600 -22.2087 -0.1052
33.3800 -22.2220 -0.1032
33.4000 -22.2353 -0.1031
33.4200 -22.2486 -0.1007
33.4400 -22.2620 -0.1035
33.4600 -22.2754 -0.1041
33.4800 -22.2887 -0.1048
33.5000 -22.3020 -0.1046
33.5200 -22.3153 -0.1037
33.5400 -22.3287 -0.1043
33.5600 -22.3421 -0.1045
33.5800 -22.3554 -0.1043
33.6000 -22.3687 -0.1041
33.6200 -22.3820 -0.1042
33.6400 -22.3954 -0.1028
33.6600 -22.4087 -0.1049
33.6800 -22.4220 -0.1026
33.7000 -22.4353 -0.1020
33.7200 -22.4486 -0.1022
33.7400 -22.4620 -0.1037
33.7600 -22.4753 -0.1025
33.7800 -22.4886 -0.1043
33.8000 -22.5020 -0.1036
33.8200 -22.5154 -0.1022
33.8400 -22.5287 -0.1034
33.8600 -22.5420 -0.1022
33.8800 -22.5553 -0.1041
33.9000 -22.5687 -0.1024
33.9200 -22.5821 -0.1035
33.9400 -22.5954 -0.1033
33.9600 -22.6087 -0.1016
33.9800 -22.6220 -0.1021
34.0000 -22.6354 -0.1034
34.0200 -22.6487 -0.1036
34.0400 -22.6620 -0.1041
34.0600 -22.6754 -0.1029
34.0800 -22.6887 -0.1022
34.1000 -22.7021 -0.1020
34.1200 -22.7153 -0.1038
34.1400 -22.7286 -0.1029
34.1600 -22.7419 -0.1041
34.1800 -22.7552 -0.1036
34.2000 -22.7686 -0.1060
34.2200 -22.7819 -0.1068
34.2400 -22.7953 -0.1084
34.2600 -22.8087 -0.1053
34.2800 -22.8221 -0.1072
34.3000 -22.8354 -0.1056
34.3200 -22.8487 -0.1052
34.3400 -22.8621 -0.1061
34.3600 -22.8754 -0.1071
34.3800 -22.8888 -0.1024
34.4000 -22.9020 -0.1057
34.4200 -22.9153 -0.1048
34.4400 -22.9287 -0.1063
34.4600 -22.9420 -0.1048
34.4800 -22.9553 -0.1063
34.5000 -22.9686 -0.1062
34.5200 -22.9820 -0.1050
34.5400 -22.9954 -0.1076
34.5600 -23.0087 -0.1046
34.5800 -23.0220 -0.1059
34.6000 -23.0353 -0.1042
34.6200 -23.0487 -0.1053
34.6400 -23.0621 -0.1031
34.6600 -23.0754 -0.1050
34.6800 -23.0887 -0.1046
34.7000 -23.1020 -0.1063
34.7200 -23.1154 -0.1063
34.7400 -23.1287 -0.1045
34.7600 -23.1420 -0.1059
34.7800 -23.1553 -0.1046
34.8000 -23.1687 -0.1033
34.8200 -23.1820 -0.1055
34.8400 -23.1953 -0.1066
34.8600 -23.2086 -0.1059
34.8800 -23.2219 -0.1070
34.9000 -23.2353 -0.1067
34.9200 -23.2487 -0.1059
34.9400 -23.2620 -0.1047
34.9600 -23.2753 -0.1045
34.9800 -23.2887 -0.1065
35.0000 -23.3021 -0.1038
35.0200 -23.3154 -0.1058
35.0400 -23.3287 -0.1050
35.0600 -23.3421 -0.1075
35.0800 -23.3554 -0.1059
35.1000 -23.3687 -0.1084
35.1200 -23.3820 -0.1060
35.1400 -23.3953 -0.1090
35.1600 -23.4087 -0.1060
35.1800 -23.4220 -0.1057
35.2000 -23.4353 -0.1047
35.2200 -23.4486 -0.1053
35.2400 -23.4619 -0.1076
35.2600 -23.4753 -0.1069
35.2800 -23.4887 -0.1069
35.3000 -23.5020 -0.1060
35.3200 -23.5153 -0.1072
35.3400 -23.5287 -0.1029
35.3600 -23.5421 -0.1049
35.3800 -23.5554 -0.1038
35.4000 -23.5687 -0.1042
35.4200 -23.5821 -0.1052
35.4400 -23.5954 -0.1054
35.4600 -23.6087 -0.1048
35.4800 -23.6220 -0.1037
35.5000 -23.6353 -0.1015
35.5200 -23.6487 -0.1036
35.5400 -23.6620 -0.1027
35.5600 -23.6753 -0.1043
35.5800 -23.6886 -0.1020
35.6000 -23.7020 -0.1041
35.6200 -23.7153 -0.1071
35.6400 -23.7287 -0.1045
35.6600 -23.7420 -0.1039
35.6800 -23.7553 -0.1038
35.7000 -23.7686 -0.1025
35.7200 -23.7820 -0.1026
35.7400 -23.7954 -0.1018
35.7600 -23.8087 -0.1030
35.7800 -23.8220 -0.1030
35.8000 -23.8354 -0.1027
35.8200 -23.8487 -0.1024
35.8400 -23.8620 -0.1002
35.8600 -23.8754 -0.1027
35.8800 -23.8887 -0.1015
35.9000 -23.9021 -0.1027
35.9200 -23.9153 -0.1011
35.9400 -23.9286 -0.1023
35.9600 -23.9420 -0.1004
35.9800 -23.9553 -0.1038
36.0000 -23.9687 -0.1028
36.0200 -23.9820 -0.1032
36.0400 -23.9953 -0.1023
36.0600 -24.0087 -0.1023
36.0800 -24.0220 -0.1025
36.1000 -24.0354 -0.1051
36.1200 -24.0487 -0.1041
36.1400 -24.0620 -0.1015
36.1600 -24.0754 -0.1042
36.1800 -24.0887 -0.1022
36.2000 -24.1020 -0.1038
36.2200 -24.1154 -0.1052
36.2400 -24.1287 -0.1043
36.2600 -24.1420 -0.1025
36.2800 -24.1553 -0.1044
36.3000 -24.1686 -0.1026
36.3200 -24.1819 -0.1042
36.3400 -24.1953 -0.1032
36.3600 -24.2087 -0.1028
36.3800 -24.2220 -0.1040
36.4000 -24.2353 -0.1064
36.4200 -24.2487 -0.1046
36.4400 -24.2621 -0.1038
36.4600 -24.2754 -0.1043
36.4800 -24.2887 -0.1029
36.5000 -24.3021 -0.1032
36.5200 -24.3154 -0.1050
36.5400 -24.3288 -0.1022
36.5600 -24.3420 -0.1044
36.5800 -24.3553 -0.1036
36.6000 -24.3686 -0.1057
36.6200 -24.3819 -0.1041
36.6400 -24.3952 -0.1060
36.6600 -24.4086 -0.1037
36.6800 -24.4219 -0.1036
36.7000 -24.4353 -0.1045
36.7200 -24.4487 -0.1041
36.7400 -24.4620 -0.1025
36.7600 -24.4753 -0.1044
36.7800 -24.4887 -0.1012
36.8000 -24.5021 -0.1016
36.8200 -24.5154 -0.1020
36.8400 -24.5287 -0.1019
36.8600 -24.5420 -0.1022
36.8800 -24.5554 -0.1046
36.9000 -24.5687 -0.1037
36.9200 -24.5820 -0.1028
36.9400 -24.5954 -0.1035
36.9600 -24.6087 -0.1050
36.9800 -24.6220 -0.1040
37.0000 -24.6353 -0.1045
37.0200 -24.6486 -0.1026
37.0400 -24.6620 -0.1039
37.0600 -24.6753 -0.1051
37.0800 -24.6887 -0.1048
37.1000 -24.7020 -0.1060
37.1200 -24.7153 -0.1030
37.1400 -24.7287 -0.1059
37.1600 -24.7420 -0.1029
37.1800 -24.7554 -0.1070
37.2000 -24.7687 -0.1062
37.2200 -24.7820 -0.1054
37.2400 -24.7954 -0.1044
37.2600 -24.8087 -0.1025
37.2800 -24.8220 -0.1016
37.3000 -24.8353 -0.1045
37.3200 -24.8487 -0.1036
37.3400 -24.8620 -0.1034
37.3600 -24.8753 -0.1033
37.3800 -24.8886 -0.1038
37.4000 -24.9019 -0.1014
37.4200 -24.9153 -0.1045
37.4400 -24.9287 -0.1021
37.4600 -24.9420 -0.1017
37.4800 -24.9553 -0.1041
37.5000 -24.9687 -0.1015
37.5200 -24.9820 -0.1034
37.5400 -24.9954 -0.1044
37.5600 -25.0087 -0.1037
37.5800 -25.0220 -0.1034
37.6000 -25.0354 -0.1062
37.6200 -25.0487 -0.1046
37.6400 -25.0620 -0.1041
37.6600 -25.0753 -0.1038
37.6800 -25.0887 -0.1043
37.7000 -25.1020 -0.1028
37.7200 -25.1153 -0.1059
37.7400 -25.1286 -0.1047
37.7600 -25.1420 -0.1060
37.7800 -25.1553 -0.1071
37.8000 -25.1687 -0.1056
37.8200 -25.1820 -0.1045
37.8400 -25.1953 -0.1063
37.8600 -25.2087 -0.1051
37.8800 -25.2221 -0.1055
37.9000 -25.2354 -0.1076
37.9200 -25.2487 -0.1055
37.9400 -25.2620 -0.1059
37.9600 -25.2754 -0.1061
37.9800 -25.2888 -0.1054
38.0000 -25.3021 -0.1028
38.0200 -25.3154 -0.1057
38.0400 -25.3287 -0.1052
38.0600 -25.3420 -0.1049
38.0800 -25.3553 -0.1049
38.1000 -25.3686 -0.1065
38.1200 -25.3819 -0.1054
38.1400 -25.3953 -0.1061
38.1600 -25.4086 -0.1046
38.1800 -25.4220 -0.1054
38.2000 -25.4353 -0.1059
38.2200 -25.4487 -0.1070
38.2400 -25.4620 -0.1036
38.2600 -25.4754 -0.1041
38.2800 -25.4887 -0.1042
38.3000 -25.5020 -0.1051
38.3200 -25.5154 -0.1053
38.3400 -25.5287 -0.1055
38.3600 -25.5421 -0.1032
38.3800 -25.5553 -0.1044
38.4000 -25.5687 -0.1031
38.4200 -25.5820 -0.1047
38.4400 -25.5953 -0.1053
38.4600 -25.6086 -0.1061
38.4800 -25.6219 -0.1051
38.5000 -25.6353 -0.1046
38.5200 -25.6486 -0.1053
38.5400 -25.6620 -0.1045
38.5600 -25.6753 -0.1052
38.5800 -25.6887 -0.1047
38.6000 -25.7021 -0.1049
38.6200 -25.7155 -0.1052
38.6400 -25.7287 -0.1060
38.6600 -25.7420 -0.1032
38.6800 -25.7554 -0.1061
38.7000 -25.7687 -0.1060
38.7200 -25.7820 -0.1055
38.7400 -25.7953 -0.1048
38.7600 -25.8086 -0.1047
38.7800 -25.8220 -0.1029
38.8000 -25.8354 -0.1046
38.8200 -25.8487 -0.1025
38.8400 -25.8620 -0.1014
38.8600 -25.8753 -0.1031
38.8800 -25.8887 -0.1036
38.9000 -25.9020 -0.1011
38.9200 -25.9153 -0.1048
38.9400 -25.9287 -0.1019
38.9600 -25.9421 -0.1025
38.9800 -25.9554 -0.1029
39.0000 -25.9686 -0.1035
39.0200 -25.9819 -0.1025
39.0400 -25.9953 -0.1036
39.0600 -26.0087 -0.1045
39.0800 -26.0220 -0.1027
39.1000 -26.0353 -0.1053
39.1200 -26.0486 -0.1025
39.1400 -26.0620 -0.1010
39.1600 -26.0753 -0.1030
39.1800 -26.0886 -0.1039
39.2000 -26.1019 -0.1014
39.2200 -26.1153 -0.1046
39.2400 -26.1287 -0.1019
39.2600 -26.1420 -0.1024
39.2800 -26.1553 -0.1025
39.3000 -26.1687 -0.1035
39.3200 -26.1820 -0.1002
39.3400 -26.1954 -0.1017
39.3600 -26.2087 -0.1036
39.3800 -26.2220 -0.1012
39.4000 -26.2354 -0.1038
39.4200 -26.2488 -0.1023
39.4400 -26.2621 -0.1019
39.4600 -26.2754 -0.1032
39.4800 -26.2887 -0.1033
39.5000 -26.3020 -0.1019
39.5200 -26.3154 -0.1042
39.5400 -26.3286 -0.1024
39.5600 -26.3420 -0.1012
39.5800 -26.3553 -0.1022
39.6000 -26.3687 -0.1045
39.6200 -26.3820 -0.1023
39.6400 -26.3953 -0.1045
39.6600 -26.4086 -0.1043
39.6800 -26.4220 -0.1025
39.7000 -26.4354 -0.1030
39.7200 -26.4487 -0.1038
39.7400 -26.4620 -0.1023
39.7600 -26.4754 -0.1031
39.7800 -26.4887 -0.1030
39.8000 -26.5021 -0.1023
39.8200 -26.5153 -0.1024
39.8400 -26.5287 -0.1056
39.8600 -26.5420 -0.1018
39.8800 -26.5554 -0.1025
39.9000 -26.5686 -0.1023
39.9200 -26.5819 -0.1000
39.9400 -26.5953 -0.1024
39.9600 -26.6087 -0.1041
39.9800 -26.6220 -0.1013
40.0000 -26.6353 -0.1034
40.0200 -26.6486 -0.1039
40.0400 -26.6620 -0.1010
40.0600 -26.6754 -0.1036
40.0800 -26.6887 -0.1016
40.1000 -26.7020 -0.1013
40.1200 -26.7153 -0.1025
40.1400 -26.7287 -0.1034
40.1600 -26.7420 -0.1020
40.1800 -26.7554 -0.1026
40.2000 -26.7687 -0.1010
40.2200 -26.7820 -0.0995
40.2400 -26.7954 -0.1022
40.2600 -26.8087 -0.1020
40.2800 -26.8220 -0.0991
40.3000 -26.8353 -0.1025
40.3200 -26.8487 -0.1007
40.3400 -26.8620 -0.1001
40.3600 -26.8753 -0.1019
40.3800 -26.8887 -0.1033
40.4000 -26.9020 -0.1008
40.4200 -26.9154 -0.1032
40.4400 -26.9287 -0.1018
40.4600 -26.9420 -0.0996
40.4800 -26.9553 -0.0996
40.5000 -26.9687 -0.0996
40.5200 -26.9820 -0.0974
40.5400 -26.9953 -0.1010
40.5600 -27.0087 -0.0990
40.5800 -27.0220 -0.0988
40.6000 -27.0353 -0.0997
40.6200 -27.0487 -0.1008
40.6400 -27.0620 -0.0993
40.6600 -27.0753 -0.1009
40.6800 -27.0887 -0.1039
40.7000 -27.1020 -0.0998
40.7200 -27.1153 -0.1025
40.7400 -27.1287 -0.1000
40.7600 -27.1420 -0.1000
40.7800 -27.1554 -0.0991
40.8000 -27.1687 -0.0996
40.8200 -27.1820 -0.0990
40.8400 -27.1954 -0.1002
40.8600 -27.2087 -0.1006
40.8800 -27.2220 -0.0994
40.9000 -27.2353 -0.0987
40.9200 -27.2487 -0.0999
40.9400 -27.2620 -0.0971
40.9600 -27.2753 -0.0981
40.9800 -27.2887 -0.1001
41.0000 -27.3020 -0.0977
41.0200 -27.3153 -0.0996
41.0400 -27.3287 -0.1004
41.0600 -27.3420 -0.0966
41.0800 -27.3553 -0.1002
41.1000 -27.3686 -0.0984
41.1200 -27.3820 -0.0985
41.1400 -27.3954 -0.1001
41.1600 -27.4087 -0.1013
41.1800 -27.4220 -0.0974
41.2000 -27.4353 -0.0996
41.2200 -27.4487 -0.0979
41.2400 -27.4620 -0.0990
41.2600 -27.4754 -0.0991
41.2800 -27.4887 -0.0989
41.3000 -27.5020 -0.0966
41.3200 -27.5154 -0.0990
41.3400 -27.5287 -0.0995
41.3600 -27.5420 -0.0990
41.3800 -27.5553 -0.0992
41.4000 -27.5686 -0.0995
41.4200 -27.5819 -0.1005
41.4400 -27.5952 -0.0993
41.4600 -27.6086 -0.1028
41.4800 -27.6219 -0.0979
41.5000 -27.6354 -0.1005
41.5200 -27.6487 -0.0992
41.5400 -27.6620 -0.0997
41.5600 -27.6754 -0.0995
41.5800 -27.6888 -0.1007
41.6000 -27.7021 -0.0976
41.6200 -27.7154 -0.1013
41.6400 -27.7287 -0.1010
41.6600 -27.7420 -0.1001
41.6800 -27.7554 -0.0981
41.7000 -27.7687 -0.0998
41.7200 -27.7820 -0.0992
41.7400 -27.7953 -0.0995
41.7600 -27.8087 -0.1028
41.7800 -27.8220 -0.0984
41.8000 -27.8353 -0.1011
41.8200 -27.8487 -0.0984
41.8400 -27.8620 -0.0971
41.8600 -27.8754 -0.0974
41.8800 -27.8888 -0.1012
41.9000 -27.9021 -0.0998
41.9200 -27.9154 -0.0999
41.9400 -27.9287 -0.1005
41.9600 -27.9421 -0.0993
41.9800 -27.9554 -0.0983
42.0000 -27.9687 -0.1011
42.0200 -27.9820 -0.0985
42.0400 -27.9954 -0.1005
42.0600 -28.0087 -0.1015
42.0800 -28.0220 -0.0988
42.1000 -28.0353 -0.0966
42.1200 -28.0486 -0.0988
42.1400 -28.0620 -0.0964
42.1600 -28.0753 -0.0999
42.1800 -28.0887 -0.1013
42.2000 -28.1020 -0.0961
42.2200 -28.1154 -0.0985
42.2400 -28.1287 -0.0982
42.2600 -28.1420 -0.0977
42.2800 -28.1554 -0.0985
42.3000 -28.1687 -0.0994
42.3200 -28.1821 -0.0961
42.3400 -28.1954 -0.0973
42.3600 -28.2087 -0.0996
42.3800 -28.2220 -0.0990
42.4000 -28.2353 -0.0992
42.4200 -28.2487 -0.1005
42.4400 -28.2619 -0.0995
42.4600 -28.2752 -0.0999
42.4800 -28.2886 -0.1012
42.5000 -28.3020 -0.1009
42.5200 -28.3153 -0.0982
42.5400 -28.3286 -0.1001
42.5600 -28.3420 -0.0984
42.5800 -28.3554 -0.0994
42.6000 -28.3687 -0.0991
42.6200 -28.3821 -0.0972
42.6400 -28.3954 -0.0984
42.6600 -28.4087 -0.1021
42.6800 -28.4221 -0.0996
42.7000 -28.4354 -0.0998
42.7200 -28.4487 -0.1002
42.7400 -28.4620 -0.1006
42.7600 -28.4754 -0.0989
42.7800 -28.4887 -0.1018
42.8000 -28.5020 -0.1005
42.8200 -28.5153 -0.1003
42.8400 -28.5286 -0.1007
42.8600 -28.5420 -0.0989
42.8800 -28.5553 -0.0982
42.9000 -28.5686 -0.1011
42.9200 -28.5820 -0.0991
42.9400 -28.5953 -0.0994
42.9600 -28.6087 -0.0987
42.9800 -28.6220 -0.0981
43.0000 -28.6353 -0.0990
43.0200 -28.6487 -0.1021
43.0400 -28.6621 -0.1008
43.0600 -28.6754 -0.0987
43.0800 -28.6887 -0.1001
43.1000 -28.7021 -0.0977
43.1200 -28.7154 -0.0979
43.1400 -28.7287 -0.0985
43.1600 -28.7420 -0.0994
43.1800 -28.7553 -0.0971
43.2000 -28.7686 -0.1007
43.2200 -28.7820 -0.0989
43.2400 -28.7953 -0.1003
43.2600 -28.8086 -0.1006
43.2800 -28.8220 -0.0990
43.3000 -28.8353 -0.0977
43.3200 -28.8487 -0.1008
43.3400 -28.8620 -0.0989
43.3600 -28.8753 -0.1000
43.3800 -28.8887 -0.1006
43.4000 -28.9021 -0.0986
43.4200 -28.9154 -0.0982
43.4400 -28.9287 -0.1000
43.4600 -28.9420 -0.0983
43.4800 -28.9554 -0.0991
43.5000 -28.9687 -0.0981
43.5200 -28.9820 -0.0986
43.5400 -28.9953 -0.0985
43.5600 -29.0086 -0.0983
43.5800 -29.0220 -0.1002
43.6000 -29.0353 -0.0968
43.6200 -29.0486 -0.1005
43.6400 -29.0619 -0.0971
43.6600 -29.0754 -0.0971
43.6800 -29.0888 -0.0970
43.7000 -29.1021 -0.0991
43.7200 -29.1154 -0.0972
43.7400 -29.1287 -0.0989
43.7600 -29.1421 -0.0975
43.7800 -29.1554 -0.0961
43.8000 -29.1687 -0.0990
43.8200 -29.1819 -0.0968
43.8400 -29.1953 -0.0990
43.8600 -29.2086 -0.0985
43.8800 -29.2219 -0.0997
43.9000 -29.2352 -0.0982
43.9200 -29.2486 -0.1001
43.9400 -29.2620 -0.0974
43.9600 -29.2754 -0.0990
43.9800 -29.2887 -0.0993
44.0000 -29.3020 -0.1000
44.0200 -29.3154 -0.0974
44.0400 -29.3288 -0.0996
44.0600 -29.3421 -0.0992
44.0800 -29.3554 -0.0999
44.1000 -29.3687 -0.1014
44.1200 -29.3821 -0.0997
44.1400 -29.3954 -0.0967
44.1600 -29.4087 -0.0987
44.1800 -29.4220 -0.0992
44.2000 -29.4354 -0.0981
44.2200 -29.4487 -0.1010
44.2400 -29.4620 -0.0991
44.2600 -29.4753 -0.0995
44.2800 -29.4886 -0.1013
44.3000 -29.5020 -0.0997
44.3200 -29.5153 -0.0997
44.3400 -29.5287 -0.0993
44.3600 -29.5420 -0.1000
44.3800 -29.5554 -0.0976
44.4000 -29.5687 -0.1017
44.4200 -29.5820 -0.1010
44.4400 -29.5953 -0.0998
44.4600 -29.6087 -0.1003
44.4800 -29.6220 -0.0977
44.5000 -29.6354 -0.0979
44.5200 -29.6487 -0.1014
44.5400 -29.6620 -0.0999
44.5600 -29.6754 -0.0987
44.5800 -29.6887 -0.0989
44.6000 -29.7020 -0.0981
44.6200 -29.7153 -0.0983
44.6400 -29.7286 -0.0989
44.6600 -29.7420 -0.0990
44.6800 -29.7554 -0.0962
44.7000 -29.7687 -0.1009
44.7200 -29.7820 -0.0960
44.7400 -29.7954 -0.0985
44.7600 -29.8087 -0.0963
44.7800 -29.8221 -0.1009
44.8000 -29.8354 -0.0962
44.8200 -29.8487 -0.1009
44.8400 -29.8620 -0.0975
44.8600 -29.8754 -0.0992
44.8800 -29.8887 -0.0992
44.9000 -29.9020 -0.1012
44.9200 -29.9153 -0.0985
44.9400 -29.9287 -0.0975
44.9600 -29.9420 -0.0977
44.9800 -29.9553 -0.0975
45.0000 -29.9686 -0.0989
45.0200 -29.9820 -0.0977
45.0400 -29.9954 -0.0968
45.0600 -30.0087 -0.0978
45.0800 -30.0220 -0.0978
45.1000 -30.0354 -0.0975
45.1200 -30.0487 -0.0974
45.1400 -30.0621 -0.0974
45.1600 -30.0753 -0.0970
45.1800 -30.0887 -0.0971
45.2000 -30.1021 -0.0972
45.2200 -30.1154 -0.0938
45.2400 -30.1287 -0.0974
45.2600 -30.1420 -0.0971
45.2800 -30.1553 -0.0971
45.3000 -30.1687 -0.0994
45.3200 -30.1820 -0.0983
45.3400 -30.1953 -0.0961
45.3600 -30.2086 -0.0960
45.3800 -30.2220 -0.0966
45.4000 -30.2353 -0.0960
45.4200 -30.2486 -0.0968
45.4400 -30.2620 -0.0975
45.4600 -30.2754 -0.0961
45.4800 -30.2888 -0.0976
45.5000 -30.3021 -0.0980
45.5200 -30.3154 -0.0951
45.5400 -30.3287 -0.0959
45.5600 -30.3421 -0.0958
45.5800 -30.3554 -0.0954
45.6000 -30.3687 -0.0997
45.6200 -30.3820 -0.0974
45.6400 -30.3953 -0.0966
45.6600 -30.4087 -0.0966
45.6800 -30.4220 -0.0986
45.7000 -30.4353 -0.0969
45.7200 -30.4486 -0.0973
45.7400 -30.4619 -0.0955
45.7600 -30.4753 -0.0949
45.7800 -30.4886 -0.0979
45.8000 -30.5020 -0.0997
45.8200 -30.5154 -0.0965
45.8400 -30.5288 -0.0969
45.8600 -30.5421 -0.0979
45.8800 -30.5554 -0.0961
45.9000 -30.5687 -0.0987
45.9200 -30.5820 -0.0963
45.9400 -30.5954 -0.0957
45.9600 -30.6087 -0.0964
45.9800 -30.6220 -0.0980
46.0000 -30.6353 -0.0945
46.0200 -30.6487 -0.0959
46.0400 -30.6620 -0.0964
46.0600 -30.6753 -0.0953
46.0800 -30.6886 -0.0964
46.1000 -30.7020 -0.0964
46.1200 -30.7154 -0.0953
46.1400 -30.7287 -0.0949
46.1600 -30.7420 -0.0957
46.1800 -30.7554 -0.0937
46.2000 -30.7687 -0.0945
46.2200 -30.7820 -0.0953
46.2400 -30.7953 -0.0957
46.2600 -30.8086 -0.0968
46.2800 -30.8220 -0.0981
46.3000 -30.8354 -0.0944
46.3200 -30.8487 -0.0975
46.3400 -30.8620 -0.0962
46.3600 -30.8754 -0.0973
46.3800 -30.8887 -0.0969
46.4000 -30.9020 -0.0967
46.4200 -30.9153 -0.0937
46.4400 -30.9286 -0.0986
46.4600 -30.9420 -0.0967
46.4800 -30.9553 -0.0968
46.5000 -30.9686 -0.0970
46.5200 -30.9820 -0.0969
46.5400 -30.9953 -0.0939
46.5600 -31.0087 -0.0968
46.5800 -31.0221 -0.0963
46.6000 -31.0354 -0.0958
46.6200 -31.0487 -0.0959
46.6400 -31.0621 -0.0972
46.6600 -31.0754 -0.0947
46.6800 -31.0887 -0.0952
46.7000 -31.1020 -0.0963
46.7200 -31.1153 -0.0962
46.7400 -31.1287 -0.0970
46.7600 -31.1420 -0.0971
46.7800 -31.1553 -0.0949
46.8000 -31.1686 -0.0966
46.8200 -31.1819 -0.0986
46.8400 -31.1953 -0.0939
46.8600 -31.2086 -0.0971
46.8800 -31.2219 -0.0980
46.9000 -31.2353 -0.0952
46.9200 -31.2487 -0.0971
46.9400 -31.2620 -0.0981
46.9600 -31.2754 -0.0940
46.9800 -31.2887 -0.0964
47.0000 -31.3021 -0.0956
47.0200 -31.3154 -0.0948
47.0400 -31.3287 -0.0959
47.0600 -31.3420 -0.0968
47.0800 -31.3553 -0.0955
47.1000 -31.3687 -0.0969
47.1200 -31.3820 -0.0979
47.1400 -31.3953 -0.0954
47.1600 -31.4086 -0.0965
47.1800 -31.4220 -0.0977
47.2000 -31.4353 -0.0952
47.2200 -31.4487 -0.0962
47.2400 -31.4620 -0.0943
47.2600 -31.4753 -0.0950
47.2800 -31.4887 -0.0947
47.3000 -31.5021 -0.0961
47.3200 -31.5154 -0.0948
47.3400 -31.5287 -0.0972
47.3600 -31.5420 -0.0974
47.3800 -31.5554 -0.0957
47.4000 -31.5687 -0.0950
47.4200 -31.5820 -0.0987
47.4400 -31.5954 -0.0965
47.4600 -31.6087 -0.0963
47.4800 -31.6220 -0.0949
47.5000 -31.6353 -0.0947
47.5200 -31.6486 -0.0965
47.5400 -31.6620 -0.0974
47.5600 -31.6753 -0.0945
47.5800 -31.6887 -0.0954
47.6000 -31.7020 -0.0976
47.6200 -31.7153 -0.0971
47.6400 -31.7287 -0.0972
47.6600 -31.7421 -0.0963
47.6800 -31.7554 -0.0967
47.7000 -31.7687 -0.0954
47.7200 -31.7820 -0.0972
47.7400 -31.7954 -0.0946
47.7600 -31.8087 -0.0971
47.7800 -31.8220 -0.0943
47.8000 -31.8353 -0.0952
47.8200 -31.8487 -0.0960
47.8400 -31.8620 -0.0955
47.8600 -31.8753 -0.0969
47.8800 -31.8886 -0.0966
47.9000 -31.9020 -0.0971
47.9200 -31.9154 -0.0938
47.9400 -31.9287 -0.0963
47.9600 -31.9420 -0.0965
47.9800 -31.9553 -0.0952
48.0000 -31.9687 -0.0946
48.0200 -31.9821 -0.0954
48.0400 -31.9954 -0.0939
48.0600 -32.0087 -0.0951
48.0800 -32.0220 -0.0955
48.1000 -32.0354 -0.0955
48.1200 -32.0487 -0.0969
48.1400 -32.0620 -0.0979
48.1600 -32.0753 -0.0960
48.1800 -32.0887 -0.0976
48.2000 -32.1020 -0.0959
48.2200 -32.1153 -0.0941
48.2400 -32.1286 -0.0956
48.2600 -32.1420 -0.0948
48.2800 -32.1553 -0.0948
48.3000 -32.1687 -0.0964
48.3200 -32.1820 -0.0973
48.3400 -32.1953 -0.0938
48.3600 -32.2087 -0.0944
48.3800 -32.2221 -0.0936
48.4000 -32.2354 -0.0945
48.4200 -32.2487 -0.0932
48.4400 -32.2620 -0.0964
48.4600 -32.2754 -0.0930
48.4800 -32.2887 -0.0957
48.5000 -32.3020 -0.0944
48.5200 -32.3154 -0.0958
48.5400 -32.3287 -0.0926
48.5600 -32.3421 -0.0956
48.5800 -32.3554 -0.0944
48.6000 -32.3686 -0.0990
48.6200 -32.3819 -0.0960
48.6400 -32.3953 -0.0975
48.6600 -32.4086 -0.0938
48.6800 -32.4219 -0.0964
48.7000 -32.4353 -0.0948
48.7200 -32.4487 -0.0961
48.7400 -32.4621 -0.0965
48.7600 -32.4754 -0.0966
48.7800 -32.4887 -0.0966
48.8000 -32.5021 -0.0994
48.8200 -32.5154 -0.0967
48.8400 -32.5288 -0.0936
48.8600 -32.5421 -0.0950
48.8800 -32.5554 -0.0958
48.9000 -32.5687 -0.0949
48.9200 -32.5820 -0.0973
48.9400 -32.5953 -0.0947
48.9600 -32.6086 -0.0952
48.9800 -32.6220 -0.0962
49.0000 -32.6353 -0.0956
49.0200 -32.6487 -0.0937
49.0400 -32.6620 -0.0957
49.0600 -32.6753 -0.0938
49.0800 -32.6887 -0.0954
49.1000 -32.7021 -0.0945
49.1200 -32.7154 -0.0935
49.1400 -32.7287 -0.0933
49.1600 -32.7420 -0.0937
49.1800 -32.7554 -0.0937
49.2000 -32.7687 -0.0937
49.2200 -32.7820 -0.0958
49.2400 -32.7953 -0.0937
49.2600 -32.8087 -0.0925
49.2800 -32.8220 -0.0947
49.3000 -32.8353 -0.0962
49.3200 -32.8486 -0.0949
49.3400 -32.8619 -0.0952
49.3600 -32.8753 -0.0927
49.3800 -32.8887 -0.0955
49.4000 -32.9020 -0.0940
49.4200 -32.9153 -0.0957
49.4400 -32.9287 -0.0935
49.4600 -32.9421 -0.0955
49.4800 -32.9554 -0.0932
49.5000 -32.9687 -0.0951
49.5200 -32.9820 -0.0959
49.5400 -32.9954 -0.0953
49.5600 -33.0087 -0.0943
49.5800 -33.0220 -0.0964
49.6000 -33.0354 -0.0955
49.6200 -33.0487 -0.0953
49.6400 -33.0620 -0.0984
49.6600 -33.0753 -0.0981
49.6800 -33.0886 -0.0974
49.7000 -33.1019 -0.0970
49.7200 -33.1153 -0.0971
49.7400 -33.1287 -0.0959
49.7600 -33.1420 -0.0989
49.7800 -33.1553 -0.0987
49.8000 -33.1687 -0.0983
49.8200 -33.1821 -0.0978
49.8400 -33.1954 -0.0978
49.8600 -33.2087 -0.0976
49.8800 -33.2220 -0.0984
49.9000 -33.2354 -0.0972
49.9200 -33.2488 -0.0969
49.9400 -33.2621 -0.0977
49.9600 -33.2754 -0.0972
49.9800 -33.2887 -0.0976
50.0000 -33.3020 -0.0966
50.0200 -33.3154 -0.0997
50.0400 -33.3286 -0.0984
50.0600 -33.3420 -0.1003
50.0800 -33.3553 -0.0973
50.1000 -33.3687 -0.0981
50.1200 -33.3820 -0.0985
50.1400 -33.3953 -0.0998
50.1600 -33.4086 -0.0984
50.1800 -33.4220 -0.0988
50.2000 -33.4354 -0.0981
50.2200 -33.4487 -0.0982
50.2400 -33.4620 -0.0986
50.2600 -33.4754 -0.0987
50.2800 -33.4887 -0.0983
50.3000 -33.5021 -0.0992
50.3200 -33.5154 -0.0998
50.3400 -33.5287 -0.0983
50.3600 -33.5421 -0.0990
50.3800 -33.5554 -0.1002
50.4000 -33.5686 -0.0970
50.4200 -33.5820 -0.0965
50.4400 -33.5953 -0.0957
50.4600 -33.6087 -0.0964
50.4800 -33.6220 -0.0958
50.5000 -33.6353 -0.0961
50.5200 -33.6486 -0.0951
50.5400 -33.6620 -0.0967
50.5600 -33.6754 -0.0957
50.5800 -33.6887 -0.0952
50.6000 -33.7020 -0.0944
50.6200 -33.7154 -0.0941
50.6400 -33.7287 -0.0935
50.6600 -33.7421 -0.0946
50.6800 -33.7554 -0.0942
50.7000 -33.7687 -0.0924
50.7200 -33.7820 -0.0939
50.7400 -33.7953 -0.0925
50.7600 -33.8086 -0.0947
50.7800 -33.8219 -0.0940
50.8000 -33.8353 -0.0960
50.8200 -33.8487 -0.0930
50.8400 -33.8620 -0.0949
50.8600 -33.8753 -0.0931
50.8800 -33.8886 -0.0927
50.9000 -33.9020 -0.0926
50.9200 -33.9154 -0.0937
50.9400 -33.9287 -0.0931
50.9600 -33.9420 -0.0947
50.9800 -33.9554 -0.0929
51.0000 -33.9687 -0.0921
51.0200 -33.9820 -0.0901
51.0400 -33.9953 -0.0916
51.0600 -34.0086 -0.0927
51.0800 -34.0219 -0.0930
51.1000 -34.0352 -0.0935
51.1200 -34.0486 -0.0934
51.1400 -34.0619 -0.0947
51.1600 -34.0753 -0.0950
51.1800 -34.0887 -0.0942
51.2000 -34.1020 -0.0957
51.2200 -34.1153 -0.0950
51.2400 -34.1287 -0.0943
51.2600 -34.1421 -0.0944
51.2800 -34.1554 -0.0941
51.3000 -34.1687 -0.0955
51.3200 -34.1820 -0.0950
51.3400 -34.1954 -0.0955
51.3600 -34.2088 -0.0962
51.3800 -34.2221 -0.0961
51.4000 -34.2354 -0.0954
51.4200 -34.2487 -0.0970
51.4400 -34.2620 -0.0964
51.4600 -34.2754 -0.0965
51.4800 -34.2887 -0.0953
51.5000 -34.3020 -0.0966
51.5200 -34.3153 -0.0945
51.5400 -34.3287 -0.0945
51.5600 -34.3420 -0.0948
51.5800 -34.3553 -0.0967
51.6000 -34.3687 -0.0966
51.6200 -34.3820 -0.0973
51.6400 -34.3954 -0.0970
51.6600 -34.4087 -0.0959
51.6800 -34.4220 -0.0954
51.7000 -34.4354 -0.0968
51.7200 -34.4487 -0.0947
51.7400 -34.4620 -0.0942
51.7600 -34.4753 -0.0956
51.7800 -34.4887 -0.0963
51.8000 -34.5020 -0.0970
51.8200 -34.5153 -0.0959
51.8400 -34.5286 -0.0970
51.8600 -34.5419 -0.0974
51.8800 -34.5552 -0.0979
51.9000 -34.5686 -0.0969
51.9200 -34.5820 -0.0963
51.9400 -34.5953 -0.0965
51.9600 -34.6087 -0.0941
51.9800 -34.6220 -0.0962
52.0000 -34.6354 -0.0978
52.0200 -34.6487 -0.0989
52.0400 -34.6620 -0.0966
52.0600 -34.6753 -0.0972
52.0800 -34.6887 -0.0964
52.1000 -34.7020 -0.0939
52.1200 -34.7153 -0.0962
52.1400 -34.7286 -0.0955
52.1600 -34.7420 -0.0968
52.1800 -34.7553 -0.0972
52.2000 -34.7686 -0.0977
52.2200 -34.7819 -0.0966
52.2400 -34.7953 -0.0971
52.2600 -34.8087 -0.0969
52.2800 -34.8220 -0.0963
52.3000 -34.8353 -0.0959
52.3200 -34.8487 -0.0948
52.3400 -34.8621 -0.0959
52.3600 -34.8754 -0.0970
52.3800 -34.8887 -0.0967
52.4000 -34.9020 -0.0958
52.4200 -34.9154 -0.0987
52.4400 -34.9288 -0.0965
52.4600 -34.9421 -0.0982
52.4800 -34.9554 -0.0981
52.5000 -34.9687 -0.0983
52.5200 -34.9820 -0.0954
52.5400 -34.9953 -0.0953
52.5600 -35.0086 -0.0940
52.5800 -35.0219 -0.0972
52.6000 -35.0353 -0.0969
52.6200 -35.0486 -0.0982
52.6400 -35.0620 -0.0962
52.6600 -35.0753 -0.0984
52.6800 -35.0887 -0.0974
52.7000 -35.1021 -0.0972
52.7200 -35.1154 -0.0961
52.7400 -35.1288 -0.0931
52.7600 -35.1421 -0.0938
52.7800 -35.1554 -0.0940
52.8000 -35.1688 -0.0939
52.8200 -35.1821 -0.0952
52.8400 -35.1954 -0.0959
52.8600 -35.2087 -0.0964
52.8800 -35.2220 -0.0971
52.9000 -35.2353 -0.0963
52.9200 -35.2486 -0.0970
52.9400 -35.2619 -0.0955
52.9600 -35.2753 -0.0960
52.9800 -35.2886 -0.0972
53.0000 -35.3020 -0.0951
53.0200 -35.3153 -0.0952
53.0400 -35.3287 -0.0962
53.0600 -35.3420 -0.0954
53.0800 -35.3554 -0.0964
53.1000 -35.3687 -0.0953
53.1200 -35.3820 -0.0965
53.1400 -35.3954 -0.0958
53.1600 -35.4087 -0.0956
53.1800 -35.4220 -0.0943
53.2000 -35.4353 -0.0974
53.2200 -35.4486 -0.0964
53.2400 -35.4620 -0.0962
53.2600 -35.4753 -0.0964
53.2800 -35.4886 -0.0964
53.3000 -35.5019 -0.0967
53.3200 -35.5153 -0.0968
53.3400 -35.5287 -0.0948
53.3600 -35.5420 -0.0948
53.3800 -35.5554 -0.0947
53.4000 -35.5687 -0.0959
53.4200 -35.5820 -0.0964
53.4400 -35.5954 -0.0964
53.4600 -35.6087 -0.0961
53.4800 -35.6219 -0.0959
53.5000 -35.6353 -0.0984
53.5200 -35.6486 -0.0964
53.5400 -35.6620 -0.0964
53.5600 -35.6753 -0.0961
53.5800 -35.6887 -0.0969
53.6000 -35.7020 -0.0959
53.6200 -35.7154 -0.0970
53.6400 -35.7287 -0.0948
53.6600 -35.7420 -0.0970
53.6800 -35.7553 -0.0957
53.7000 -35.7687 -0.0985
53.7200 -35.7820 -0.0957
53.7400 -35.7953 -0.0987
53.7600 -35.8087 -0.0984
53.7800 -35.8220 -0.0975
53.8000 -35.8354 -0.0972
53.8200 -35.8487 -0.0979
53.8400 -35.8620 -0.0981
53.8600 -35.8754 -0.0996
53.8800 -35.8887 -0.0979
53.9000 -35.9021 -0.0984
53.9200 -35.9154 -0.0989
53.9400 -35.9287 -0.0984
53.9600 -35.9420 -0.0972
53.9800 -35.9554 -0.0968
54.0000 -35.9687 -0.0987
54.0200 -35.9819 -0.0965
54.0400 -35.9953 -0.0983
54.0600 -36.0086 -0.0970
54.0800 -36.0220 -0.0976
54.1000 -36.0353 -0.0973
54.1200 -36.0486 -0.0991
54.1400 -36.0620 -0.0960
54.1600 -36.0754 -0.0982
54.1800 -36.0887 -0.0983
54.2000 -36.1020 -0.0990
54.2200 -36.1154 -0.0955
54.2400 -36.1287 -0.0965
54.2600 -36.1421 -0.0958
54.2800 -36.1554 -0.0977
54.3000 -36.1687 -0.0975
54.3200 -36.1820 -0.0991
54.3400 -36.1954 -0.0990
54.3600 -36.2087 -0.0979
54.3800 -36.2219 -0.0975
54.4000 -36.2353 -0.0986
54.4200 -36.2486 -0.0977
54.4400 -36.2620 -0.0964
54.4600 -36.2753 -0.0972
54.4800 -36.2886 -0.0971
54.5000 -36.3020 -0.0983
54.5200 -36.3154 -0.0966
54.5400 -36.3287 -0.0986
54.5600 -36.3420 -0.0979
54.5800 -36.3553 -0.0984
54.6000 -36.3687 -0.0984
54.6200 -36.3820 -0.0975
54.6400 -36.3954 -0.0978
54.6600 -36.4087 -0.0973
54.6800 -36.4220 -0.0967
54.7000 -36.4354 -0.0964
54.7200 -36.4487 -0.0960
54.7400 -36.4620 -0.0974
54.7600 -36.4753 -0.0967
54.7800 -36.4886 -0.0983
54.8000 -36.5020 -0.0982
54.8200 -36.5153 -0.0971
54.8400 -36.5287 -0.0969
54.8600 -36.5420 -0.0981
54.8800 -36.5554 -0.0973
54.9000 -36.5688 -0.0993
54.9200 -36.5820 -0.0983
54.9400 -36.5953 -0.0979
54.9600 -36.6087 -0.0972
54.9800 -36.6220 -0.0986
55.0000 -36.6353 -0.0976
55.0200 -36.6487 -0.0996
55.0400 -36.6620 -0.0976
55.0600 -36.6753 -0.0979
55.0800 -36.6887 -0.0985
55.1000 -36.7020 -0.0967
55.1200 -36.7153 -0.0968
55.1400 -36.7287 -0.0961
55.1600 -36.7420 -0.0954
55.1800 -36.7554 -0.0949
55.2000 -36.7687 -0.0968
55.2200 -36.7820 -0.0977
55.2400 -36.7954 -0.0991
55.2600 -36.8087 -0.0994
55.2800 -36.8220 -0.0987
55.3000 -36.8353 -0.0959
55.3200 -36.8487 -0.0974
55.3400 -36.8620 -0.0952
55.3600 -36.8753 -0.0943
55.3800 -36.8887 -0.0961
55.4000 -36.9020 -0.0971
55.4200 -36.9153 -0.0955
55.4400 -36.9287 -0.0967
55.4600 -36.9420 -0.0982
55.4800 -36.9553 -0.0974
55.5000 -36.9687 -0.0977
55.5200 -36.9820 -0.0971
55.5400 -36.9953 -0.0971
55.5600 -37.0086 -0.0990
55.5800 -37.0220 -0.0974
55.6000 -37.0354 -0.0963
55.6200 -37.0487 -0.0975
55.6400 -37.0620 -0.0962
55.6600 -37.0753 -0.0967
55.6800 -37.0887 -0.0975
55.7000 -37.1021 -0.0969
55.7200 -37.1154 -0.0963
55.7400 -37.1287 -0.0965
55.7600 -37.1421 -0.0967
55.7800 -37.1554 -0.0972
55.8000 -37.1687 -0.0965
55.8200 -37.1820 -0.0987
55.8400 -37.1953 -0.0957
55.8600 -37.2086 -0.0981
55.8800 -37.2219 -0.0980
55.9000 -37.2352 -0.0977
55.9200 -37.2486 -0.0991
55.9400 -37.2619 -0.0996
55.9600 -37.2754 -0.0972
55.9800 -37.2887 -0.0982
56.0000 -37.3020 -0.0978
56.0200 -37.3154 -0.0969
56.0400 -37.3287 -0.0978
56.0600 -37.3421 -0.0961
56.0800 -37.3554 -0.0962
56.1000 -37.3687 -0.0985
56.1200 -37.3820 -0.0961
56.1400 -37.3953 -0.0972
56.1600 -37.4087 -0.0982
56.1800 -37.4220 -0.0994
56.2000 -37.4353 -0.0992
56.2200 -37.4486 -0.0971
56.2400 -37.4620 -0.0957
56.2600 -37.4753 -0.0968
56.2800 -37.4887 -0.0983
56.3000 -37.5020 -0.0989
56.3200 -37.5154 -0.0983
56.3400 -37.5287 -0.0987
56.3600 -37.5420 -0.0999
56.3800 -37.5554 -0.0978
56.4000 -37.5687 -0.1005
56.4200 -37.5821 -0.0980
56.4400 -37.5954 -0.0979
56.4600 -37.6087 -0.0974
56.4800 -37.6220 -0.0981
56.5000 -37.6353 -0.0963
56.5200 -37.6487 -0.0994
56.5400 -37.6619 -0.0995
56.5600 -37.6753 -0.1002
56.5800 -37.6886 -0.0999
56.6000 -37.7020 -0.1017
56.6200 -37.7153 -0.0977
56.6400 -37.7287 -0.0997
56.6600 -37.7420 -0.0980
56.6800 -37.7554 -0.0989
56.7000 -37.7687 -0.0985
56.7200 -37.7821 -0.0983
56.7400 -37.7954 -0.0973
56.7600 -37.8087 -0.0986
56.7800 -37.8221 -0.0996
56.8000 -37.8354 -0.0959
56.8200 -37.8487 -0.0957
56.8400 -37.8620 -0.0972
56.8600 -37.8753 -0.0996
56.8800 -37.8887 -0.0973
56.9000 -37.9019 -0.0996
56.9200 -37.9152 -0.0962
56.9400 -37.9286 -0.0990
56.9600 -37.9420 -0.0974
56.9800 -37.9553 -0.0965
57.0000 -37.9686 -0.0991
57.0200 -37.9820 -0.1019
57.0400 -37.9954 -0.1000
57.0600 -38.0088 -0.0989
57.0800 -38.0221 -0.0990
57.1000 -38.0354 -0.0974
57.1200 -38.0487 -0.0985
57.1400 -38.0621 -0.0999
57.1600 -38.0754 -0.0964
57.1800 -38.0887 -0.0983
57.2000 -38.1020 -0.0986
57.2200 -38.1154 -0.0985
57.2400 -38.1287 -0.0986
57.2600 -38.1420 -0.0997
57.2800 -38.1553 -0.0999
57.3000 -38.1686 -0.1005
57.3200 -38.1820 -0.0995
57.3400 -38.1953 -0.0986
57.3600 -38.2086 -0.1000
57.3800 -38.2220 -0.0998
57.4000 -38.2353 -0.0995
57.4200 -38.2487 -0.0988
57.4400 -38.2620 -0.0997
57.4600 -38.2753 -0.0966
57.4800 -38.2887 -0.0988
57.5000 -38.3021 -0.0974
57.5200 -38.3154 -0.0974
57.5400 -38.3287 -0.0975
57.5600 -38.3421 -0.0992
57.5800 -38.3554 -0.0984
57.6000 -38.3687 -0.0990
57.6200 -38.3820 -0.1001
57.6400 -38.3953 -0.0990
57.6600 -38.4086 -0.0993
57.6800 -38.4220 -0.1000
57.7000 -38.4353 -0.0983
57.7200 -38.4486 -0.0995
57.7400 -38.4620 -0.1013
57.7600 -38.4753 -0.0997
57.7800 -38.4887 -0.1011
57.8000 -38.5020 -0.1011
57.8200 -38.5153 -0.1012
57.8400 -38.5287 -0.0990
57.8600 -38.5421 -0.1027
57.8800 -38.5554 -0.0980
57.9000 -38.5687 -0.1020
57.9200 -38.5820 -0.1007
57.9400 -38.5954 -0.0994
57.9600 -38.6087 -0.0989
57.9800 -38.6220 -0.1029
58.0000 -38.6353 -0.0996
58.0200 -38.6486 -0.0970
58.0400 -38.6620 -0.1004
58.0600 -38.6753 -0.0962
58.0800 -38.6886 -0.1031
58.1000 -38.7020 -0.0996
58.1200 -38.7153 -0.1020
58.1400 -38.7287 -0.0977
58.1600 -38.7421 -0.1034
58.1800 -38.7554 -0.0975
58.2000 -38.7687 -0.1023
58.2200 -38.7821 -0.1016
58.2400 -38.7954 -0.1001
58.2600 -38.8087 -0.1013
58.2800 -38.8220 -0.0987
58.3000 -38.8353 -0.1010
58.3200 -38.8486 -0.0964
58.3400 -38.8619 -0.1027
58.3600 -38.8752 -0.0956
58.3800 -38.8886 -0.1036
58.4000 -38.9020 -0.0997
58.4200 -38.9153 -0.1034
58.4400 -38.9287 -0.0999
58.4600 -38.9420 -0.1014
58.4800 -38.9554 -0.1003
58.5000 -38.9688 -0.0968
58.5200 -38.9821 -0.1038
58.5400 -38.9954 -0.0977
58.5600 -39.0087 -0.1030
58.5800 -39.0220 -0.1010
58.6000 -39.0354 -0.1011
58.6200 -39.0487 -0.1008
58.6400 -39.0620 -0.1014
58.6600 -39.0754 -0.0981
58.6800 -39.0887 -0.1023
58.7000 -39.1020 -0.1000
58.7200 -39.1153 -0.1022
58.7400 -39.1286 -0.1005
58.7600 -39.1420 -0.1037
58.7800 -39.1553 -0.0997
58.8000 -39.1687 -0.1012
58.8200 -39.1820 -0.1019
58.8400 -39.1954 -0.0988
58.8600 -39.2087 -0.1029
58.8800 -39.2220 -0.0974
58.9000 -39.2353 -0.1048
58.9200 -39.2487 -0.0981
58.9400 -39.2620 -0.1035
58.9600 -39.2754 -0.0999
58.9800 -39.2887 -0.0983
59.0000 -39.3020 -0.1020
59.0200 -39.3153 -0.0979
59.0400 -39.3287 -0.1005
59.0600 -39.3420 -0.0998
59.0800 -39.3553 -0.0996
59.1000 -39.3686 -0.0993
59.1200 -39.3820 -0.1021
59.1400 -39.3954 -0.0993
59.1600 -39.4087 -0.0996
59.1800 -39.4220 -0.0982
59.2000 -39.4353 -0.0997
59.2200 -39.4487 -0.0961
59.2400 -39.4621 -0.1008
59.2600 -39.4754 -0.0981
59.2800 -39.4887 -0.1010
59.3000 -39.5020 -0.1009
59.3200 -39.5154 -0.1016
59.3400 -39.5287 -0.1008
59.3600 -39.5420 -0.1018
59.3800 -39.5553 -0.1021
59.4000 -39.5687 -0.1007
59.4200 -39.5820 -0.1028
59.4400 -39.5953 -0.1013
59.4600 -39.6086 -0.1026
59.4800 -39.6220 -0.1037
59.5000 -39.6354 -0.1016
59.5200 -39.6487 -0.1037
59.5400 -39.6620 -0.1025
59.5600 -39.6753 -0.1030
59.5800 -39.6887 -0.1020
59.6000 -39.7020 -0.1037
59.6200 -39.7153 -0.1039
59.6400 -39.7287 -0.1027
59.6600 -39.7420 -0.1040
59.6800 -39.7554 -0.1042
59.7000 -39.7687 -0.1004
59.7200 -39.7820 -0.1049
59.7400 -39.7953 -0.1033
59.7600 -39.8087 -0.1053
59.7800 -39.8220 -0.1047
59.8000 -39.8353 -0.1075
59.8200 -39.8486 -0.1036
59.8400 -39.8619 -0.1081
59.8600 -39.8753 -0.1038
59.8800 -39.8886 -0.1019
59.9000 -39.9020 -0.1080
59.9200 -39.9153 -0.1038
59.9400 -39.9287 -0.1057
59.9600 -39.9421 -0.1043
59.9800 -39.9554 -0.1057
60.0000 -39.9687 -0.1040
60.0200 -39.9821 -0.1061
60.0400 -39.9954 -0.1028
60.0480 -40.0006 -0.0992
