Raw Data
Time Displacement Force
(s) (mm) (N)
0.0000 0.0000 -0.0052
0.0200 -0.0001 -0.0072
0.0400 -0.0019 -0.0203
0.0600 -0.0093 -0.0196
0.0800 -0.0212 -0.0070
0.1000 -0.0338 -0.0091
0.1200 -0.0465 -0.0094
0.1400 -0.0598 -0.0117
0.1600 -0.0737 -0.0109
0.1800 -0.0878 -0.0107
0.2000 -0.1017 -0.0082
0.2200 -0.1152 -0.0123
0.2400 -0.1286 -0.0109
0.2600 -0.1420 -0.0116
0.2800 -0.1554 -0.0116
0.3000 -0.1687 -0.0129
0.3200 -0.1821 -0.0154
0.3400 -0.1954 -0.0140
0.3600 -0.2088 -0.0133
0.3800 -0.2221 -0.0148
0.4000 -0.2354 -0.0168
0.4200 -0.2487 -0.0152
0.4400 -0.2620 -0.0172
0.4600 -0.2753 -0.0170
0.4800 -0.2886 -0.0178
0.5000 -0.3020 -0.0173
0.5200 -0.3153 -0.0173
0.5400 -0.3287 -0.0163
0.5600 -0.3421 -0.0171
0.5800 -0.3554 -0.0173
0.6000 -0.3687 -0.0175
0.6200 -0.3821 -0.0182
0.6400 -0.3955 -0.0190
0.6600 -0.4088 -0.0185
0.6800 -0.4221 -0.0182
0.7000 -0.4354 -0.0194
0.7200 -0.4488 -0.0184
0.7400 -0.4621 -0.0156
0.7600 -0.4754 -0.0171
0.7800 -0.4887 -0.0157
0.8000 -0.5021 -0.0210
0.8200 -0.5154 -0.0181
0.8400 -0.5287 -0.0173
0.8600 -0.5420 -0.0190
0.8800 -0.5553 -0.0197
0.9000 -0.5687 -0.0170
0.9200 -0.5820 -0.0201
0.9400 -0.5953 -0.0192
0.9600 -0.6086 -0.0214
0.9800 -0.6220 -0.0196
1.0000 -0.6354 -0.0205
1.0200 -0.6487 -0.0202
1.0400 -0.6620 -0.0199
1.0600 -0.6754 -0.0173
1.0800 -0.6887 -0.0183
1.1000 -0.7021 -0.0204
1.1200 -0.7154 -0.0213
1.1400 -0.7287 -0.0200
1.1600 -0.7420 -0.0191
1.1800 -0.7554 -0.0195
1.2000 -0.7687 -0.0194
1.2200 -0.7820 -0.0200
1.2400 -0.7953 -0.0216
1.2600 -0.8087 -0.0211
1.2800 -0.8221 -0.0205
1.3000 -0.8354 -0.0210
1.3200 -0.8487 -0.0192
1.3400 -0.8621 -0.0211
1.3600 -0.8754 -0.0219
1.3800 -0.8888 -0.0203
1.4000 -0.9021 -0.0210
1.4200 -0.9154 -0.0232
1.4400 -0.9288 -0.0210
1.4600 -0.9421 -0.0222
1.4800 -0.9554 -0.0210
1.5000 -0.9687 -0.0230
1.5200 -0.9821 -0.0208
1.5400 -0.9954 -0.0224
1.5600 -1.0087 -0.0222
1.5800 -1.0220 -0.0211
1.6000 -1.0353 -0.0208
1.6200 -1.0487 -0.0196
1.6400 -1.0621 -0.0201
1.6600 -1.0754 -0.0217
1.6800 -1.0887 -0.0229
1.7000 -1.1021 -0.0222
1.7200 -1.1155 -0.0221
1.7400 -1.1288 -0.0204
1.7600 -1.1421 -0.0200
1.7800 -1.1554 -0.0201
1.8000 -1.1688 -0.0215
1.8200 -1.1822 -0.0197
1.8400 -1.1955 -0.0219
1.8600 -1.2088 -0.0207
1.8800 -1.2221 -0.0219
1.9000 -1.2354 -0.0216
1.9200 -1.2487 -0.0213
1.9400 -1.2620 -0.0200
1.9600 -1.2753 -0.0234
1.9800 -1.2887 -0.0225
2.0000 -1.3020 -0.0224
2.0200 -1.3154 -0.0218
2.0400 -1.3287 -0.0232
2.0600 -1.3421 -0.0221
2.0800 -1.3555 -0.0240
2.1000 -1.3688 -0.0228
2.1200 -1.3821 -0.0233
2.1400 -1.3954 -0.0230
2.1600 -1.4088 -0.0242
2.1800 -1.4221 -0.0248
2.2000 -1.4354 -0.0248
2.2200 -1.4487 -0.0238
2.2400 -1.4620 -0.0213
2.2600 -1.4754 -0.0245
2.2800 -1.4887 -0.0250
2.3000 -1.5020 -0.0244
2.3200 -1.5153 -0.0246
2.3400 -1.5287 -0.0244
2.3600 -1.5420 -0.0222
2.3800 -1.5554 -0.0250
2.4000 -1.5687 -0.0235
2.4200 -1.5821 -0.0228
2.4400 -1.5955 -0.0250
2.4600 -1.6088 -0.0229
2.4800 -1.6221 -0.0244
2.5000 -1.6354 -0.0252
2.5200 -1.6487 -0.0246
2.5400 -1.6621 -0.0256
2.5600 -1.6754 -0.0253
2.5800 -1.6887 -0.0254
2.6000 -1.7020 -0.0230
2.6200 -1.7154 -0.0237
2.6400 -1.7287 -0.0243
2.6600 -1.7420 -0.0244
2.6800 -1.7554 -0.0231
2.7000 -1.7687 -0.0243
2.7200 -1.7821 -0.0240
2.7400 -1.7954 -0.0244
2.7600 -1.8087 -0.0235
2.7800 -1.8221 -0.0251
2.8000 -1.8354 -0.0240
2.8200 -1.8488 -0.0257
2.8400 -1.8620 -0.0245
2.8600 -1.8753 -0.0253
2.8800 -1.8887 -0.0244
2.9000 -1.9021 -0.0225
2.9200 -1.9154 -0.0266
2.9400 -1.9287 -0.0258
2.9600 -1.9421 -0.0266
2.9800 -1.9554 -0.0261
3.0000 -1.9688 -0.0275
3.0200 -1.9821 -0.0248
3.0400 -1.9954 -0.0242
3.0600 -2.0087 -0.0232
3.0800 -2.0221 -0.0237
3.1000 -2.0354 -0.0241
3.1200 -2.0487 -0.0268
3.1400 -2.0620 -0.0251
3.1600 -2.0754 -0.0246
3.1800 -2.0888 -0.0254
3.2000 -2.1021 -0.0253
3.2200 -2.1154 -0.0261
3.2400 -2.1288 -0.0241
3.2600 -2.1422 -0.0228
3.2800 -2.1555 -0.0230
3.3000 -2.1688 -0.0254
3.3200 -2.1821 -0.0261
3.3400 -2.1954 -0.0275
3.3600 -2.2088 -0.0270
3.3800 -2.2220 -0.0249
3.4000 -2.2353 -0.0263
3.4200 -2.2487 -0.0249
3.4400 -2.2620 -0.0226
3.4600 -2.2754 -0.0212
3.4800 -2.2887 -0.0224
3.5000 -2.3020 -0.0243
3.5200 -2.3154 -0.0237
3.5400 -2.3288 -0.0248
3.5600 -2.3421 -0.0240
3.5800 -2.3554 -0.0248
3.6000 -2.3688 -0.0238
3.6200 -2.3821 -0.0252
3.6400 -2.3954 -0.0254
3.6600 -2.4087 -0.0268
3.6800 -2.4221 -0.0239
3.7000 -2.4354 -0.0264
3.7200 -2.4488 -0.0249
3.7400 -2.4620 -0.0251
3.7600 -2.4753 -0.0250
3.7800 -2.4887 -0.0249
3.8000 -2.5020 -0.0230
3.8200 -2.5154 -0.0255
3.8400 -2.5287 -0.0259
3.8600 -2.5420 -0.0235
3.8800 -2.5554 -0.0256
3.9000 -2.5688 -0.0265
3.9200 -2.5821 -0.0271
3.9400 -2.5954 -0.0233
3.9600 -2.6087 -0.0256
3.9800 -2.6221 -0.0226
4.0000 -2.6354 -0.0263
4.0200 -2.6488 -0.0257
4.0400 -2.6621 -0.0250
4.0600 -2.6754 -0.0254
4.0800 -2.6888 -0.0265
4.1000 -2.7021 -0.0251
4.1200 -2.7153 -0.0272
4.1400 -2.7287 -0.0254
4.1600 -2.7421 -0.0247
4.1800 -2.7554 -0.0247
4.2000 -2.7687 -0.0262
4.2200 -2.7820 -0.0240
4.2400 -2.7954 -0.0235
4.2600 -2.8088 -0.0245
4.2800 -2.8221 -0.0242
4.3000 -2.8354 -0.0226
4.3200 -2.8487 -0.0266
4.3400 -2.8621 -0.0230
4.3600 -2.8754 -0.0227
4.3800 -2.8887 -0.0229
4.4000 -2.9020 -0.0249
4.4200 -2.9154 -0.0240
4.4400 -2.9287 -0.0250
4.4600 -2.9420 -0.0230
4.4800 -2.9553 -0.0233
4.5000 -2.9687 -0.0241
4.5200 -2.9821 -0.0220
4.5400 -2.9954 -0.0238
4.5600 -3.0087 -0.0230
4.5800 -3.0221 -0.0242
4.6000 -3.0354 -0.0235
4.6200 -3.0488 -0.0235
4.6400 -3.0621 -0.0215
4.6600 -3.0754 -0.0241
4.6800 -3.0887 -0.0239
4.7000 -3.1021 -0.0246
4.7200 -3.1154 -0.0227
4.7400 -3.1287 -0.0264
4.7600 -3.1421 -0.0233
4.7800 -3.1554 -0.0260
4.8000 -3.1687 -0.0247
4.8200 -3.1821 -0.0242
4.8400 -3.1954 -0.0233
4.8600 -3.2087 -0.0271
4.8800 -3.2221 -0.0229
4.9000 -3.2354 -0.0245
4.9200 -3.2487 -0.0246
4.9400 -3.2620 -0.0244
4.9600 -3.2754 -0.0235
4.9800 -3.2888 -0.0276
5.0000 -3.3021 -0.0243
5.0200 -3.3154 -0.0240
5.0400 -3.3287 -0.0251
5.0600 -3.3421 -0.0237
5.0800 -3.3554 -0.0240
5.1000 -3.3688 -0.0247
5.1200 -3.3821 -0.0231
5.1400 -3.3954 -0.0227
5.1600 -3.4088 -0.0229
5.1800 -3.4221 -0.0213
5.2000 -3.4354 -0.0224
5.2200 -3.4487 -0.0249
5.2400 -3.4620 -0.0234
5.2600 -3.4753 -0.0225
5.2800 -3.4886 -0.0246
5.3000 -3.5020 -0.0242
5.3200 -3.5153 -0.0234
5.3400 -3.5288 -0.0257
5.3600 -3.5421 -0.0245
5.3800 -3.5554 -0.0235
5.4000 -3.5688 -0.0242
5.4200 -3.5821 -0.0228
5.4400 -3.5955 -0.0230
5.4600 -3.6088 -0.0249
5.4800 -3.6221 -0.0238
5.5000 -3.6354 -0.0241
5.5200 -3.6487 -0.0259
5.5400 -3.6621 -0.0254
5.5600 -3.6754 -0.0267
5.5800 -3.6887 -0.0267
5.6000 -3.7020 -0.0231
5.6200 -3.7154 -0.0252
5.6400 -3.7287 -0.0263
5.6600 -3.7421 -0.0251
5.6800 -3.7554 -0.0228
5.7000 -3.7688 -0.0247
5.7200 -3.7821 -0.0239
5.7400 -3.7954 -0.0247
5.7600 -3.8088 -0.0228
5.7800 -3.8221 -0.0246
5.8000 -3.8355 -0.0219
5.8200 -3.8488 -0.0256
5.8400 -3.8621 -0.0231
5.8600 -3.8754 -0.0228
5.8800 -3.8887 -0.0237
5.9000 -3.9021 -0.0226
5.9200 -3.9153 -0.0217
5.9400 -3.9287 -0.0228
5.9600 -3.9420 -0.0234
5.9800 -3.9554 -0.0230
6.0000 -3.9687 -0.0254
6.0200 -3.9821 -0.0225
6.0400 -3.9954 -0.0223
6.0600 -4.0088 -0.0231
6.0800 -4.0221 -0.0221
6.1000 -4.0354 -0.0221
6.1200 -4.0488 -0.0247
6.1400 -4.0621 -0.0217
6.1600 -4.0755 -0.0237
6.1800 -4.0888 -0.0238
6.2000 -4.1021 -0.0240
6.2200 -4.1154 -0.0230
6.2400 -4.1287 -0.0264
6.2600 -4.1420 -0.0204
6.2800 -4.1553 -0.0220
6.3000 -4.1686 -0.0223
6.3200 -4.1820 -0.0250
6.3400 -4.1954 -0.0212
6.3600 -4.2087 -0.0245
6.3800 -4.2220 -0.0227
6.4000 -4.2354 -0.0243
6.4200 -4.2488 -0.0242
6.4400 -4.2621 -0.0247
6.4600 -4.2754 -0.0230
6.4800 -4.2888 -0.0240
6.5000 -4.3021 -0.0235
6.5200 -4.3155 -0.0239
6.5400 -4.3288 -0.0243
6.5600 -4.3421 -0.0245
6.5800 -4.3554 -0.0215
6.6000 -4.3688 -0.0240
6.6200 -4.3821 -0.0254
6.6400 -4.3954 -0.0229
6.6600 -4.4087 -0.0249
6.6800 -4.4220 -0.0232
6.7000 -4.4354 -0.0238
6.7200 -4.4487 -0.0251
6.7400 -4.4620 -0.0242
6.7600 -4.4754 -0.0217
6.7800 -4.4887 -0.0226
6.8000 -4.5021 -0.0224
6.8200 -4.5154 -0.0241
6.8400 -4.5287 -0.0251
6.8600 -4.5421 -0.0254
6.8800 -4.5555 -0.0221
6.9000 -4.5688 -0.0256
6.9200 -4.5821 -0.0263
6.9400 -4.5955 -0.0251
6.9600 -4.6088 -0.0259
6.9800 -4.6221 -0.0233
7.0000 -4.6354 -0.0215
7.0200 -4.6487 -0.0238
7.0400 -4.6620 -0.0227
7.0600 -4.6754 -0.0209
7.0800 -4.6887 -0.0228
7.1000 -4.7020 -0.0228
7.1200 -4.7154 -0.0219
7.1400 -4.7287 -0.0225
7.1600 -4.7421 -0.0230
7.1800 -4.7554 -0.0207
7.2000 -4.7687 -0.0259
7.2200 -4.7821 -0.0220
7.2400 -4.7955 -0.0227
7.2600 -4.8088 -0.0234
7.2800 -4.8221 -0.0229
7.3000 -4.8354 -0.0206
7.3200 -4.8488 -0.0227
7.3400 -4.8621 -0.0229
7.3600 -4.8754 -0.0230
7.3800 -4.8887 -0.0234
7.4000 -4.9020 -0.0230
7.4200 -4.9154 -0.0229
7.4400 -4.9287 -0.0221
7.4600 -4.9420 -0.0224
7.4800 -4.9554 -0.0202
7.5000 -4.9688 -0.0225
7.5200 -4.9821 -0.0219
7.5400 -4.9955 -0.0228
7.5600 -5.0088 -0.0239
7.5800 -5.0221 -0.0218
7.6000 -5.0355 -0.0194
7.6200 -5.0488 -0.0198
7.6400 -5.0621 -0.0214
7.6600 -5.0754 -0.0215
7.6800 -5.0887 -0.0234
7.7000 -5.1020 -0.0238
7.7200 -5.1153 -0.0208
7.7400 -5.1286 -0.0215
7.7600 -5.1420 -0.0192
7.7800 -5.1554 -0.0213
7.8000 -5.1687 -0.0208
7.8200 -5.1821 -0.0229
7.8400 -5.1954 -0.0208
7.8600 -5.2088 -0.0236
7.8800 -5.2222 -0.0196
7.9000 -5.2355 -0.0205
7.9200 -5.2487 -0.0210
7.9400 -5.2621 -0.0218
7.9600 -5.2754 -0.0186
7.9800 -5.2888 -0.0228
8.0000 -5.3021 -0.0210
8.0200 -5.3154 -0.0216
8.0400 -5.3287 -0.0216
8.0600 -5.3421 -0.0218
8.0800 -5.3554 -0.0195
8.1000 -5.3687 -0.0227
8.1200 -5.3820 -0.0217
8.1400 -5.3954 -0.0216
8.1600 -5.4087 -0.0208
8.1800 -5.4221 -0.0234
8.2000 -5.4354 -0.0207
8.2200 -5.4488 -0.0233
8.2400 -5.4621 -0.0211
8.2600 -5.4754 -0.0187
8.2800 -5.4887 -0.0220
8.3000 -5.5021 -0.0231
8.3200 -5.5154 -0.0220
8.3400 -5.5288 -0.0216
8.3600 -5.5421 -0.0236
8.3800 -5.5554 -0.0190
8.4000 -5.5687 -0.0218
8.4200 -5.5821 -0.0212
8.4400 -5.5954 -0.0235
8.4600 -5.6087 -0.0237
8.4800 -5.6220 -0.0231
8.5000 -5.6354 -0.0201
8.5200 -5.6487 -0.0236
8.5400 -5.6621 -0.0236
8.5600 -5.6754 -0.0233
8.5800 -5.6888 -0.0239
8.6000 -5.7021 -0.0234
8.6200 -5.7154 -0.0214
8.6400 -5.7287 -0.0212
8.6600 -5.7421 -0.0223
8.6800 -5.7554 -0.0223
8.7000 -5.7687 -0.0240
8.7200 -5.7820 -0.0266
8.7400 -5.7954 -0.0213
8.7600 -5.8087 -0.0238
8.7800 -5.8221 -0.0229
8.8000 -5.8354 -0.0226
8.8200 -5.8487 -0.0230
8.8400 -5.8620 -0.0226
8.8600 -5.8754 -0.0189
8.8800 -5.8888 -0.0212
8.9000 -5.9021 -0.0233
8.9200 -5.9154 -0.0208
8.9400 -5.9287 -0.0201
8.9600 -5.9421 -0.0210
8.9800 -5.9554 -0.0204
9.0000 -5.9687 -0.0206
9.0200 -5.9821 -0.0209
9.0400 -5.9955 -0.0172
9.0600 -6.0088 -0.0186
9.0800 -6.0221 -0.0188
9.1000 -6.0354 -0.0195
9.1200 -6.0487 -0.0196
9.1400 -6.0621 -0.0211
9.1600 -6.0754 -0.0194
9.1800 -6.0886 -0.0205
9.2000 -6.1020 -0.0221
9.2200 -6.1153 -0.0191
9.2400 -6.1287 -0.0206
9.2600 -6.1420 -0.0215
9.2800 -6.1554 -0.0206
9.3000 -6.1687 -0.0198
9.3200 -6.1821 -0.0208
9.3400 -6.1955 -0.0168
9.3600 -6.2088 -0.0205
9.3800 -6.2221 -0.0203
9.4000 -6.2354 -0.0202
9.4200 -6.2488 -0.0201
9.4400 -6.2621 -0.0215
9.4600 -6.2754 -0.0190
9.4800 -6.2887 -0.0210
9.5000 -6.3021 -0.0202
9.5200 -6.3153 -0.0193
9.5400 -6.3286 -0.0190
9.5600 -6.3420 -0.0211
9.5800 -6.3553 -0.0187
9.6000 -6.3687 -0.0200
9.6200 -6.3820 -0.0200
9.6400 -6.3954 -0.0198
9.6600 -6.4087 -0.0193
9.6800 -6.4221 -0.0197
9.7000 -6.4355 -0.0193
9.7200 -6.4488 -0.0207
9.7400 -6.4621 -0.0213
9.7600 -6.4754 -0.0175
9.7800 -6.4888 -0.0185
9.8000 -6.5021 -0.0203
9.8200 -6.5154 -0.0196
9.8400 -6.5287 -0.0198
9.8600 -6.5421 -0.0215
9.8800 -6.5554 -0.0171
9.9000 -6.5687 -0.0183
9.9200 -6.5820 -0.0192
9.9400 -6.5954 -0.0193
9.9600 -6.6088 -0.0188
9.9800 -6.6221 -0.0198
10.0000 -6.6354 -0.0183
10.0200 -6.6488 -0.0189
10.0400 -6.6621 -0.0198
10.0600 -6.6754 -0.0184
10.0800 -6.6887 -0.0173
10.1000 -6.7020 -0.0205
10.1200 -6.7153 -0.0186
10.1400 -6.7287 -0.0189
10.1600 -6.7421 -0.0189
10.1800 -6.7554 -0.0185
10.2000 -6.7687 -0.0185
10.2200 -6.7821 -0.0213
10.2400 -6.7954 -0.0167
10.2600 -6.8087 -0.0183
10.2800 -6.8220 -0.0200
10.3000 -6.8354 -0.0182
10.3200 -6.8487 -0.0187
10.3400 -6.8620 -0.0199
10.3600 -6.8754 -0.0178
10.3800 -6.8887 -0.0214
10.4000 -6.9021 -0.0221
10.4200 -6.9155 -0.0181
10.4400 -6.9288 -0.0185
10.4600 -6.9421 -0.0174
10.4800 -6.9555 -0.0174
10.5000 -6.9688 -0.0199
10.5200 -6.9821 -0.0196
10.5400 -6.9954 -0.0182
10.5600 -7.0087 -0.0193
10.5800 -7.0221 -0.0185
10.6000 -7.0354 -0.0196
10.6200 -7.0487 -0.0179
10.6400 -7.0620 -0.0207
10.6600 -7.0754 -0.0179
10.6800 -7.0887 -0.0201
10.7000 -7.1021 -0.0189
10.7200 -7.1154 -0.0177
10.7400 -7.1287 -0.0182
10.7600 -7.1421 -0.0217
10.7800 -7.1554 -0.0189
10.8000 -7.1687 -0.0208
10.8200 -7.1821 -0.0192
10.8400 -7.1954 -0.0178
10.8600 -7.2088 -0.0172
10.8800 -7.2221 -0.0216
10.9000 -7.2354 -0.0177
10.9200 -7.2487 -0.0183
10.9400 -7.2621 -0.0189
10.9600 -7.2754 -0.0180
10.9800 -7.2887 -0.0189
11.0000 -7.3020 -0.0193
11.0200 -7.3154 -0.0196
11.0400 -7.3287 -0.0166
11.0600 -7.3421 -0.0198
11.0800 -7.3554 -0.0183
11.1000 -7.3687 -0.0172
11.1200 -7.3821 -0.0179
11.1400 -7.3954 -0.0169
11.1600 -7.4087 -0.0154
11.1800 -7.4221 -0.0193
11.2000 -7.4354 -0.0168
11.2200 -7.4488 -0.0180
11.2400 -7.4621 -0.0178
11.2600 -7.4754 -0.0161
11.2800 -7.4887 -0.0159
11.3000 -7.5021 -0.0181
11.3200 -7.5154 -0.0181
11.3400 -7.5287 -0.0174
11.3600 -7.5420 -0.0170
11.3800 -7.5553 -0.0166
11.4000 -7.5687 -0.0156
11.4200 -7.5821 -0.0182
11.4400 -7.5954 -0.0165
11.4600 -7.6087 -0.0152
11.4800 -7.6221 -0.0183
11.5000 -7.6355 -0.0169
11.5200 -7.6488 -0.0186
11.5400 -7.6621 -0.0187
11.5600 -7.6754 -0.0184
11.5800 -7.6887 -0.0156
11.6000 -7.7021 -0.0201
11.6200 -7.7154 -0.0184
11.6400 -7.7287 -0.0171
11.6600 -7.7421 -0.0179
11.6800 -7.7554 -0.0184
11.7000 -7.7687 -0.0153
11.7200 -7.7820 -0.0185
11.7400 -7.7954 -0.0158
11.7600 -7.8088 -0.0168
11.7800 -7.8221 -0.0185
11.8000 -7.8354 -0.0186
11.8200 -7.8487 -0.0176
11.8400 -7.8621 -0.0198
11.8600 -7.8755 -0.0154
11.8800 -7.8888 -0.0173
11.9000 -7.9021 -0.0186
11.9200 -7.9154 -0.0183
11.9400 -7.9287 -0.0156
11.9600 -7.9421 -0.0185
11.9800 -7.9554 -0.0164
12.0000 -7.9687 -0.0180
12.0200 -7.9820 -0.0198
12.0400 -7.9954 -0.0173
12.0600 -8.0087 -0.0166
12.0800 -8.0220 -0.0163
12.1000 -8.0354 -0.0168
12.1200 -8.0487 -0.0161
12.1400 -8.0621 -0.0171
12.1600 -8.0754 -0.0169
12.1800 -8.0887 -0.0167
12.2000 -8.1021 -0.0185
12.2200 -8.1155 -0.0168
12.2400 -8.1288 -0.0127
12.2600 -8.1421 -0.0158
12.2800 -8.1554 -0.0138
12.3000 -8.1688 -0.0158
12.3200 -8.1821 -0.0161
12.3400 -8.1955 -0.0172
12.3600 -8.2088 -0.0164
12.3800 -8.2221 -0.0197
12.4000 -8.2355 -0.0183
12.4200 -8.2487 -0.0172
12.4400 -8.2620 -0.0145
12.4600 -8.2753 -0.0159
12.4800 -8.2887 -0.0156
12.5000 -8.3020 -0.0167
12.5200 -8.3153 -0.0160
12.5400 -8.3287 -0.0159
12.5600 -8.3421 -0.0181
12.5800 -8.3554 -0.0158
12.6000 -8.3688 -0.0158
12.6200 -8.3821 -0.0156
12.6400 -8.3954 -0.0166
12.6600 -8.4088 -0.0147
12.6800 -8.4222 -0.0175
12.7000 -8.4354 -0.0172
12.7200 -8.4487 -0.0166
12.7400 -8.4621 -0.0190
12.7600 -8.4754 -0.0176
12.7800 -8.4887 -0.0168
12.8000 -8.5020 -0.0200
12.8200 -8.5153 -0.0196
12.8400 -8.5287 -0.0193
12.8600 -8.5420 -0.0189
12.8800 -8.5554 -0.0180
12.9000 -8.5687 -0.0182
12.9200 -8.5821 -0.0200
12.9400 -8.5955 -0.0201
12.9600 -8.6088 -0.0191
12.9800 -8.6221 -0.0187
13.0000 -8.6354 -0.0177
13.0200 -8.6488 -0.0164
13.0400 -8.6621 -0.0203
13.0600 -8.6754 -0.0184
13.0800 -8.6887 -0.0181
13.1000 -8.7021 -0.0177
13.1200 -8.7154 -0.0169
13.1400 -8.7287 -0.0146
13.1600 -8.7420 -0.0193
13.1800 -8.7553 -0.0172
13.2000 -8.7687 -0.0181
13.2200 -8.7821 -0.0179
13.2400 -8.7954 -0.0192
13.2600 -8.8087 -0.0170
13.2800 -8.8221 -0.0180
13.3000 -8.8354 -0.0170
13.3200 -8.8488 -0.0148
13.3400 -8.8621 -0.0177
13.3600 -8.8754 -0.0159
13.3800 -8.8888 -0.0179
13.4000 -8.9021 -0.0172
13.4200 -8.9154 -0.0181
13.4400 -8.9287 -0.0146
13.4600 -8.9421 -0.0174
13.4800 -8.9554 -0.0162
13.5000 -8.9687 -0.0165
13.5200 -8.9820 -0.0165
13.5400 -8.9953 -0.0189
13.5600 -9.0087 -0.0157
13.5800 -9.0220 -0.0170
13.6000 -9.0354 -0.0158
13.6200 -9.0487 -0.0159
13.6400 -9.0621 -0.0170
13.6600 -9.0755 -0.0157
13.6800 -9.0888 -0.0152
13.7000 -9.1021 -0.0177
13.7200 -9.1154 -0.0186
13.7400 -9.1287 -0.0146
13.7600 -9.1421 -0.0166
13.7800 -9.1554 -0.0193
13.8000 -9.1687 -0.0184
13.8200 -9.1821 -0.0183
13.8400 -9.1954 -0.0185
13.8600 -9.2087 -0.0155
13.8800 -9.2220 -0.0174
13.9000 -9.2354 -0.0170
13.9200 -9.2487 -0.0190
13.9400 -9.2621 -0.0177
13.9600 -9.2754 -0.0197
13.9800 -9.2887 -0.0168
14.0000 -9.3020 -0.0187
14.0200 -9.3154 -0.0186
14.0400 -9.3288 -0.0184
14.0600 -9.3421 -0.0205
14.0800 -9.3554 -0.0199
14.1000 -9.3688 -0.0157
14.1200 -9.3821 -0.0180
14.1400 -9.3955 -0.0176
14.1600 -9.4088 -0.0179
14.1800 -9.4221 -0.0193
14.2000 -9.4354 -0.0165
14.2200 -9.4487 -0.0163
14.2400 -9.4620 -0.0181
14.2600 -9.4753 -0.0192
14.2800 -9.4887 -0.0171
14.3000 -9.5020 -0.0158
14.3200 -9.5153 -0.0180
14.3400 -9.5287 -0.0168
14.3600 -9.5420 -0.0171
14.3800 -9.5554 -0.0171
14.4000 -9.5688 -0.0156
14.4200 -9.5821 -0.0174
14.4400 -9.5954 -0.0172
14.4600 -9.6088 -0.0151
14.4800 -9.6221 -0.0155
14.5000 -9.6355 -0.0163
14.5200 -9.6488 -0.0158
14.5400 -9.6621 -0.0171
14.5600 -9.6754 -0.0177
14.5800 -9.6887 -0.0145
14.6000 -9.7020 -0.0145
14.6200 -9.7153 -0.0171
14.6400 -9.7287 -0.0147
14.6600 -9.7420 -0.0154
14.6800 -9.7553 -0.0152
14.7000 -9.7687 -0.0151
14.7200 -9.7820 -0.0153
14.7400 -9.7954 -0.0174
14.7600 -9.8088 -0.0143
14.7800 -9.8221 -0.0161
14.8000 -9.8355 -0.0169
14.8200 -9.8488 -0.0181
14.8400 -9.8621 -0.0139
14.8600 -9.8754 -0.0173
14.8800 -9.8887 -0.0141
14.9000 -9.9020 -0.0152
14.9200 -9.9153 -0.0164
14.9400 -9.9286 -0.0129
14.9600 -9.9420 -0.0162
14.9800 -9.9553 -0.0162
15.0000 -9.9687 -0.0164
15.0200 -9.9821 -0.0147
15.0400 -9.9954 -0.0174
15.0600 -10.0087 -0.0151
15.0800 -10.0221 -0.0157
15.1000 -10.0355 -0.0171
15.1200 -10.0488 -0.0155
15.1400 -10.0621 -0.0152
15.1600 -10.0754 -0.0180
15.1800 -10.0888 -0.0163
15.2000 -10.1021 -0.0175
15.2200 -10.1154 -0.0179
15.2400 -10.1288 -0.0167
15.2600 -10.1421 -0.0180
15.2800 -10.1554 -0.0186
15.3000 -10.1688 -0.0170
15.3200 -10.1820 -0.0184
15.3400 -10.1954 -0.0194
15.3600 -10.2087 -0.0182
15.3800 -10.2221 -0.0169
15.4000 -10.2354 -0.0177
15.4200 -10.2487 -0.0169
15.4400 -10.2621 -0.0163
15.4600 -10.2754 -0.0193
15.4800 -10.2888 -0.0172
15.5000 -10.3021 -0.0187
15.5200 -10.3154 -0.0176
15.5400 -10.3288 -0.0166
15.5600 -10.3421 -0.0137
15.5800 -10.3554 -0.0175
15.6000 -10.3687 -0.0166
15.6200 -10.3820 -0.0181
15.6400 -10.3954 -0.0169
15.6600 -10.4087 -0.0148
15.6800 -10.4220 -0.0160
15.7000 -10.4353 -0.0162
15.7200 -10.4487 -0.0166
15.7400 -10.4621 -0.0167
15.7600 -10.4754 -0.0172
15.7800 -10.4887 -0.0167
15.8000 -10.5021 -0.0191
15.8200 -10.5154 -0.0178
15.8400 -10.5288 -0.0164
15.8600 -10.5421 -0.0161
15.8800 -10.5554 -0.0163
15.9000 -10.5688 -0.0172
15.9200 -10.5821 -0.0157
15.9400 -10.5954 -0.0178
15.9600 -10.6087 -0.0176
15.9800 -10.6220 -0.0174
16.0000 -10.6354 -0.0181
16.0200 -10.6487 -0.0173
16.0400 -10.6620 -0.0143
16.0600 -10.6753 -0.0159
16.0800 -10.6887 -0.0167
16.1000 -10.7021 -0.0155
16.1200 -10.7154 -0.0175
16.1400 -10.7287 -0.0165
16.1600 -10.7421 -0.0146
16.1800 -10.7554 -0.0157
16.2000 -10.7688 -0.0168
16.2200 -10.7821 -0.0150
16.2400 -10.7954 -0.0165
16.2600 -10.8088 -0.0141
16.2800 -10.8221 -0.0175
16.3000 -10.8355 -0.0163
16.3200 -10.8487 -0.0171
16.3400 -10.8621 -0.0159
16.3600 -10.8754 -0.0187
16.3800 -10.8887 -0.0169
16.4000 -10.9020 -0.0172
16.4200 -10.9153 -0.0158
16.4400 -10.9287 -0.0137
16.4600 -10.9420 -0.0138
16.4800 -10.9554 -0.0180
16.5000 -10.9687 -0.0170
16.5200 -10.9821 -0.0160
16.5400 -10.9955 -0.0177
16.5600 -11.0088 -0.0158
16.5800 -11.0221 -0.0162
16.6000 -11.0355 -0.0197
16.6200 -11.0488 -0.0180
16.6400 -11.0621 -0.0162
16.6600 -11.0755 -0.0171
16.6800 -11.0888 -0.0169
16.7000 -11.1021 -0.0170
16.7200 -11.1154 -0.0159
16.7400 -11.1287 -0.0159
16.7600 -11.1420 -0.0142
16.7800 -11.1553 -0.0169
16.8000 -11.1686 -0.0150
16.8200 -11.1820 -0.0146
16.8400 -11.1954 -0.0149
16.8600 -11.2087 -0.0144
16.8800 -11.2221 -0.0162
16.9000 -11.2355 -0.0172
16.9200 -11.2488 -0.0155
16.9400 -11.2621 -0.0146
16.9600 -11.2754 -0.0162
16.9800 -11.2887 -0.0150
17.0000 -11.3021 -0.0146
17.0200 -11.3154 -0.0161
17.0400 -11.3287 -0.0162
17.0600 -11.3420 -0.0142
17.0800 -11.3554 -0.0158
17.1000 -11.3687 -0.0147
17.1200 -11.3820 -0.0163
17.1400 -11.3953 -0.0155
17.1600 -11.4087 -0.0161
17.1800 -11.4221 -0.0160
17.2000 -11.4354 -0.0188
17.2200 -11.4487 -0.0158
17.2400 -11.4621 -0.0170
17.2600 -11.4754 -0.0154
17.2800 -11.4888 -0.0152
17.3000 -11.5021 -0.0151
17.3200 -11.5153 -0.0163
17.3400 -11.5287 -0.0174
17.3600 -11.5420 -0.0191
17.3800 -11.5554 -0.0188
17.4000 -11.5687 -0.0165
17.4200 -11.5821 -0.0167
17.4400 -11.5954 -0.0165
17.4600 -11.6088 -0.0167
17.4800 -11.6221 -0.0159
17.5000 -11.6354 -0.0162
17.5200 -11.6487 -0.0157
17.5400 -11.6621 -0.0143
17.5600 -11.6754 -0.0156
17.5800 -11.6887 -0.0169
17.6000 -11.7021 -0.0155
17.6200 -11.7154 -0.0173
17.6400 -11.7288 -0.0148
17.6600 -11.7421 -0.0157
17.6800 -11.7554 -0.0167
17.7000 -11.7688 -0.0164
17.7200 -11.7821 -0.0143
17.7400 -11.7955 -0.0161
17.7600 -11.8088 -0.0142
17.7800 -11.8221 -0.0147
17.8000 -11.8354 -0.0163
17.8200 -11.8488 -0.0171
17.8400 -11.8621 -0.0137
17.8600 -11.8753 -0.0156
17.8800 -11.8887 -0.0130
17.9000 -11.9020 -0.0160
17.9200 -11.9154 -0.0154
17.9400 -11.9287 -0.0166
17.9600 -11.9420 -0.0143
17.9800 -11.9554 -0.0176
18.0000 -11.9688 -0.0151
18.0200 -11.9821 -0.0162
18.0400 -11.9954 -0.0159
18.0600 -12.0087 -0.0167
18.0800 -12.0221 -0.0155
18.1000 -12.0354 -0.0166
18.1200 -12.0487 -0.0155
18.1400 -12.0621 -0.0163
18.1600 -12.0754 -0.0159
18.1800 -12.0888 -0.0157
18.2000 -12.1020 -0.0135
18.2200 -12.1153 -0.0154
18.2400 -12.1287 -0.0143
18.2600 -12.1420 -0.0153
18.2800 -12.1554 -0.0148
18.3000 -12.1687 -0.0159
18.3200 -12.1820 -0.0138
18.3400 -12.1954 -0.0148
18.3600 -12.2087 -0.0156
18.3800 -12.2221 -0.0145
18.4000 -12.2354 -0.0161
18.4200 -12.2487 -0.0144
18.4400 -12.2621 -0.0168
18.4600 -12.2754 -0.0143
18.4800 -12.2887 -0.0168
18.5000 -12.3021 -0.0147
18.5200 -12.3154 -0.0152
18.5400 -12.3288 -0.0148
18.5600 -12.3421 -0.0154
18.5800 -12.3554 -0.0157
18.6000 -12.3687 -0.0160
18.6200 -12.3820 -0.0155
18.6400 -12.3954 -0.0146
18.6600 -12.4087 -0.0171
18.6800 -12.4220 -0.0164
18.7000 -12.4354 -0.0176
18.7200 -12.4488 -0.0152
18.7400 -12.4621 -0.0164
18.7600 -12.4754 -0.0162
18.7800 -12.4887 -0.0153
18.8000 -12.5021 -0.0163
18.8200 -12.5154 -0.0148
18.8400 -12.5287 -0.0166
18.8600 -12.5420 -0.0166
18.8800 -12.5554 -0.0152
18.9000 -12.5687 -0.0147
18.9200 -12.5821 -0.0137
18.9400 -12.5953 -0.0164
18.9600 -12.6087 -0.0156
18.9800 -12.6221 -0.0166
19.0000 -12.6354 -0.0159
19.0200 -12.6487 -0.0168
19.0400 -12.6621 -0.0161
19.0600 -12.6754 -0.0179
19.0800 -12.6888 -0.0172
19.1000 -12.7021 -0.0177
19.1200 -12.7154 -0.0169
19.1400 -12.7287 -0.0167
19.1600 -12.7421 -0.0166
19.1800 -12.7554 -0.0175
19.2000 -12.7688 -0.0182
19.2200 -12.7821 -0.0153
19.2400 -12.7954 -0.0158
19.2600 -12.8087 -0.0144
19.2800 -12.8221 -0.0159
19.3000 -12.8354 -0.0160
19.3200 -12.8487 -0.0170
19.3400 -12.8621 -0.0175
19.3600 -12.8754 -0.0147
19.3800 -12.8887 -0.0159
19.4000 -12.9020 -0.0154
19.4200 -12.9154 -0.0157
19.4400 -12.9288 -0.0167
19.4600 -12.9421 -0.0129
19.4800 -12.9554 -0.0142
19.5000 -12.9687 -0.0145
19.5200 -12.9821 -0.0159
19.5400 -12.9954 -0.0148
19.5600 -13.0088 -0.0150
19.5800 -13.0221 -0.0138
19.6000 -13.0354 -0.0153
19.6200 -13.0488 -0.0139
19.6400 -13.0621 -0.0152
19.6600 -13.0754 -0.0143
19.6800 -13.0887 -0.0151
19.7000 -13.1020 -0.0133
19.7200 -13.1153 -0.0151
19.7400 -13.1286 -0.0145
19.7600 -13.1420 -0.0149
19.7800 -13.1553 -0.0152
19.8000 -13.1687 -0.0156
19.8200 -13.1821 -0.0148
19.8400 -13.1954 -0.0154
19.8600 -13.2088 -0.0161
19.8800 -13.2221 -0.0163
19.9000 -13.2355 -0.0151
19.9200 -13.2488 -0.0166
19.9400 -13.2621 -0.0153
19.9600 -13.2754 -0.0144
19.9800 -13.2887 -0.0162
20.0000 -13.3021 -0.0141
20.0200 -13.3154 -0.0167
20.0400 -13.3287 -0.0156
20.0600 -13.3420 -0.0146
20.0800 -13.3554 -0.0139
20.1000 -13.3687 -0.0166
20.1200 -13.3820 -0.0149
20.1400 -13.3954 -0.0158
20.1600 -13.4088 -0.0148
20.1800 -13.4221 -0.0175
20.2000 -13.4355 -0.0159
20.2200 -13.4488 -0.0151
20.2400 -13.4621 -0.0142
20.2600 -13.4755 -0.0143
20.2800 -13.4888 -0.0147
20.3000 -13.5021 -0.0168
20.3200 -13.5154 -0.0178
20.3400 -13.5287 -0.0172
20.3600 -13.5421 -0.0143
20.3800 -13.5553 -0.0157
20.4000 -13.5686 -0.0161
20.4200 -13.5820 -0.0172
20.4400 -13.5954 -0.0143
20.4600 -13.6087 -0.0183
20.4800 -13.6220 -0.0138
20.5000 -13.6354 -0.0164
20.5200 -13.6488 -0.0143
20.5400 -13.6621 -0.0166
20.5600 -13.6754 -0.0150
20.5800 -13.6888 -0.0174
20.6000 -13.7021 -0.0161
20.6200 -13.7155 -0.0162
20.6400 -13.7288 -0.0131
20.6600 -13.7421 -0.0166
20.6800 -13.7554 -0.0159
20.7000 -13.7687 -0.0163
20.7200 -13.7821 -0.0160
20.7400 -13.7953 -0.0161
20.7600 -13.8086 -0.0164
20.7800 -13.8220 -0.0145
20.8000 -13.8354 -0.0159
20.8200 -13.8487 -0.0146
20.8400 -13.8620 -0.0162
20.8600 -13.8754 -0.0138
20.8800 -13.8888 -0.0155
20.9000 -13.9021 -0.0143
20.9200 -13.9155 -0.0152
20.9400 -13.9288 -0.0158
20.9600 -13.9421 -0.0161
20.9800 -13.9555 -0.0144
21.0000 -13.9688 -0.0149
21.0200 -13.9821 -0.0158
21.0400 -13.9954 -0.0142
21.0600 -14.0087 -0.0167
21.0800 -14.0221 -0.0133
21.1000 -14.0354 -0.0142
21.1200 -14.0487 -0.0143
21.1400 -14.0620 -0.0153
21.1600 -14.0754 -0.0146
21.1800 -14.0887 -0.0144
21.2000 -14.1020 -0.0162
21.2200 -14.1153 -0.0147
21.2400 -14.1287 -0.0152
21.2600 -14.1421 -0.0144
21.2800 -14.1554 -0.0133
21.3000 -14.1687 -0.0127
21.3200 -14.1821 -0.0144
21.3400 -14.1955 -0.0152
21.3600 -14.2088 -0.0135
21.3800 -14.2221 -0.0143
21.4000 -14.2354 -0.0148
21.4200 -14.2488 -0.0129
21.4400 -14.2621 -0.0145
21.4600 -14.2754 -0.0139
21.4800 -14.2887 -0.0136
21.5000 -14.3020 -0.0153
21.5200 -14.3154 -0.0146
21.5400 -14.3287 -0.0150
21.5600 -14.3420 -0.0143
21.5800 -14.3554 -0.0141
21.6000 -14.3687 -0.0172
21.6200 -14.3821 -0.0141
21.6400 -14.3954 -0.0156
21.6600 -14.4087 -0.0143
21.6800 -14.4221 -0.0162
21.7000 -14.4355 -0.0151
21.7200 -14.4488 -0.0164
21.7400 -14.4621 -0.0146
21.7600 -14.4754 -0.0162
21.7800 -14.4888 -0.0127
21.8000 -14.5021 -0.0171
21.8200 -14.5154 -0.0141
21.8400 -14.5287 -0.0168
21.8600 -14.5420 -0.0151
21.8800 -14.5554 -0.0157
21.9000 -14.5687 -0.0136
21.9200 -14.5820 -0.0148
21.9400 -14.5954 -0.0158
21.9600 -14.6087 -0.0145
21.9800 -14.6221 -0.0162
22.0000 -14.6355 -0.0147
22.0200 -14.6488 -0.0193
22.0400 -14.6621 -0.0150
22.0600 -14.6755 -0.0133
22.0800 -14.6888 -0.0156
22.1000 -14.7021 -0.0173
22.1200 -14.7154 -0.0162
22.1400 -14.7287 -0.0175
22.1600 -14.7420 -0.0192
22.1800 -14.7553 -0.0176
22.2000 -14.7686 -0.0171
22.2200 -14.7820 -0.0185
22.2400 -14.7954 -0.0171
22.2600 -14.8087 -0.0162
22.2800 -14.8221 -0.0196
22.3000 -14.8354 -0.0165
22.3200 -14.8488 -0.0162
22.3400 -14.8621 -0.0179
22.3600 -14.8755 -0.0172
22.3800 -14.8887 -0.0173
22.4000 -14.9021 -0.0157
22.4200 -14.9154 -0.0161
22.4400 -14.9288 -0.0165
22.4600 -14.9421 -0.0159
22.4800 -14.9554 -0.0121
22.5000 -14.9688 -0.0156
22.5200 -14.9821 -0.0159
22.5400 -14.9954 -0.0152
22.5600 -15.0087 -0.0135
22.5800 -15.0220 -0.0179
22.6000 -15.0354 -0.0137
22.6200 -15.0487 -0.0174
22.6400 -15.0620 -0.0161
22.6600 -15.0754 -0.0143
22.6800 -15.0887 -0.0147
22.7000 -15.1021 -0.0161
22.7200 -15.1154 -0.0146
22.7400 -15.1287 -0.0159
22.7600 -15.1421 -0.0171
22.7800 -15.1554 -0.0169
22.8000 -15.1688 -0.0139
22.8200 -15.1821 -0.0162
22.8400 -15.1954 -0.0150
22.8600 -15.2087 -0.0134
22.8800 -15.2221 -0.0151
22.9000 -15.2354 -0.0117
22.9200 -15.2487 -0.0153
22.9400 -15.2620 -0.0146
22.9600 -15.2754 -0.0159
22.9800 -15.2887 -0.0139
23.0000 -15.3021 -0.0174
23.0200 -15.3154 -0.0168
23.0400 -15.3287 -0.0163
23.0600 -15.3421 -0.0174
23.0800 -15.3554 -0.0180
23.1000 -15.3687 -0.0145
23.1200 -15.3821 -0.0169
23.1400 -15.3954 -0.0160
23.1600 -15.4088 -0.0152
23.1800 -15.4221 -0.0161
23.2000 -15.4354 -0.0165
23.2200 -15.4487 -0.0174
23.2400 -15.4621 -0.0185
23.2600 -15.4754 -0.0186
23.2800 -15.4887 -0.0158
23.3000 -15.5020 -0.0171
23.3200 -15.5154 -0.0163
23.3400 -15.5287 -0.0162
23.3600 -15.5421 -0.0158
23.3800 -15.5554 -0.0162
23.4000 -15.5688 -0.0146
23.4200 -15.5821 -0.0177
23.4400 -15.5955 -0.0159
23.4600 -15.6088 -0.0174
23.4800 -15.6221 -0.0165
23.5000 -15.6355 -0.0170
23.5200 -15.6488 -0.0141
23.5400 -15.6621 -0.0165
23.5600 -15.6754 -0.0163
23.5800 -15.6887 -0.0166
23.6000 -15.7021 -0.0170
23.6200 -15.7154 -0.0173
23.6400 -15.7286 -0.0171
23.6600 -15.7420 -0.0179
23.6800 -15.7553 -0.0168
23.7000 -15.7687 -0.0151
23.7200 -15.7820 -0.0176
23.7400 -15.7953 -0.0171
23.7600 -15.8087 -0.0176
23.7800 -15.8221 -0.0173
23.8000 -15.8355 -0.0167
23.8200 -15.8488 -0.0146
23.8400 -15.8621 -0.0166
23.8600 -15.8754 -0.0172
23.8800 -15.8888 -0.0160
23.9000 -15.9021 -0.0169
23.9200 -15.9154 -0.0158
23.9400 -15.9287 -0.0142
23.9600 -15.9421 -0.0160
23.9800 -15.9554 -0.0151
24.0000 -15.9686 -0.0152
24.0200 -15.9820 -0.0155
24.0400 -15.9953 -0.0153
24.0600 -16.0087 -0.0140
24.0800 -16.0220 -0.0166
24.1000 -16.0354 -0.0161
24.1200 -16.0487 -0.0171
24.1400 -16.0621 -0.0158
24.1600 -16.0755 -0.0158
24.1800 -16.0888 -0.0149
24.2000 -16.1021 -0.0190
24.2200 -16.1154 -0.0154
24.2400 -16.1288 -0.0165
24.2600 -16.1421 -0.0148
24.2800 -16.1554 -0.0160
24.3000 -16.1687 -0.0150
24.3200 -16.1821 -0.0171
24.3400 -16.1954 -0.0163
24.3600 -16.2087 -0.0166
24.3800 -16.2220 -0.0184
24.4000 -16.2354 -0.0180
24.4200 -16.2488 -0.0154
24.4400 -16.2621 -0.0162
24.4600 -16.2754 -0.0143
24.4800 -16.2887 -0.0129
24.5000 -16.3021 -0.0155
24.5200 -16.3154 -0.0157
24.5400 -16.3287 -0.0168
24.5600 -16.3420 -0.0154
24.5800 -16.3553 -0.0173
24.6000 -16.3687 -0.0137
24.6200 -16.3821 -0.0187
24.6400 -16.3954 -0.0160
24.6600 -16.4087 -0.0148
24.6800 -16.4221 -0.0139
24.7000 -16.4354 -0.0176
24.7200 -16.4487 -0.0148
24.7400 -16.4620 -0.0186
24.7600 -16.4754 -0.0190
24.7800 -16.4887 -0.0160
24.8000 -16.5021 -0.0166
24.8200 -16.5154 -0.0177
24.8400 -16.5287 -0.0170
24.8600 -16.5421 -0.0180
24.8800 -16.5555 -0.0173
24.9000 -16.5688 -0.0152
24.9200 -16.5821 -0.0165
24.9400 -16.5955 -0.0172
24.9600 -16.6088 -0.0151
24.9800 -16.6221 -0.0156
25.0000 -16.6354 -0.0169
25.0200 -16.6487 -0.0157
25.0400 -16.6621 -0.0177
25.0600 -16.6754 -0.0171
25.0800 -16.6887 -0.0164
25.1000 -16.7020 -0.0182
25.1200 -16.7153 -0.0172
25.1400 -16.7287 -0.0155
25.1600 -16.7421 -0.0148
25.1800 -16.7554 -0.0179
25.2000 -16.7687 -0.0157
25.2200 -16.7821 -0.0163
25.2400 -16.7954 -0.0140
25.2600 -16.8088 -0.0149
25.2800 -16.8221 -0.0173
25.3000 -16.8354 -0.0182
25.3200 -16.8488 -0.0186
25.3400 -16.8621 -0.0173
25.3600 -16.8754 -0.0179
25.3800 -16.8887 -0.0157
25.4000 -16.9021 -0.0164
25.4200 -16.9154 -0.0164
25.4400 -16.9287 -0.0158
25.4600 -16.9420 -0.0155
25.4800 -16.9553 -0.0164
25.5000 -16.9687 -0.0154
25.5200 -16.9820 -0.0161
25.5400 -16.9953 -0.0168
25.5600 -17.0087 -0.0178
25.5800 -17.0220 -0.0175
25.6000 -17.0354 -0.0166
25.6200 -17.0487 -0.0164
25.6400 -17.0621 -0.0161
25.6600 -17.0754 -0.0180
25.6800 -17.0888 -0.0183
25.7000 -17.1021 -0.0172
25.7200 -17.1154 -0.0185
25.7400 -17.1288 -0.0169
25.7600 -17.1421 -0.0142
25.7800 -17.1554 -0.0184
25.8000 -17.1687 -0.0161
25.8200 -17.1820 -0.0195
25.8400 -17.1954 -0.0166
25.8600 -17.2087 -0.0165
25.8800 -17.2221 -0.0148
25.9000 -17.2354 -0.0200
25.9200 -17.2488 -0.0153
25.9400 -17.2621 -0.0170
25.9600 -17.2755 -0.0184
25.9800 -17.2888 -0.0163
26.0000 -17.3021 -0.0163
26.0200 -17.3154 -0.0199
26.0400 -17.3288 -0.0177
26.0600 -17.3421 -0.0167
26.0800 -17.3554 -0.0198
26.1000 -17.3687 -0.0159
26.1200 -17.3821 -0.0206
26.1400 -17.3954 -0.0165
26.1600 -17.4087 -0.0173
26.1800 -17.4220 -0.0150
26.2000 -17.4354 -0.0189
26.2200 -17.4487 -0.0164
26.2400 -17.4621 -0.0187
26.2600 -17.4754 -0.0184
26.2800 -17.4887 -0.0163
26.3000 -17.5021 -0.0182
26.3200 -17.5155 -0.0193
26.3400 -17.5288 -0.0158
26.3600 -17.5421 -0.0202
26.3800 -17.5554 -0.0165
26.4000 -17.5687 -0.0166
26.4200 -17.5820 -0.0185
26.4400 -17.5953 -0.0183
26.4600 -17.6086 -0.0162
26.4800 -17.6220 -0.0187
26.5000 -17.6354 -0.0180
26.5200 -17.6487 -0.0187
26.5400 -17.6620 -0.0173
26.5600 -17.6754 -0.0213
26.5800 -17.6887 -0.0176
26.6000 -17.7020 -0.0191
26.6200 -17.7153 -0.0199
26.6400 -17.7287 -0.0180
26.6600 -17.7421 -0.0164
26.6800 -17.7554 -0.0173
26.7000 -17.7688 -0.0178
26.7200 -17.7821 -0.0182
26.7400 -17.7954 -0.0182
26.7600 -17.8088 -0.0162
26.7800 -17.8221 -0.0156
26.8000 -17.8354 -0.0171
26.8200 -17.8488 -0.0169
26.8400 -17.8621 -0.0169
26.8600 -17.8755 -0.0168
26.8800 -17.8887 -0.0160
26.9000 -17.9020 -0.0182
26.9200 -17.9154 -0.0170
26.9400 -17.9287 -0.0178
26.9600 -17.9420 -0.0165
26.9800 -17.9553 -0.0188
27.0000 -17.9687 -0.0176
27.0200 -17.9820 -0.0190
27.0400 -17.9954 -0.0197
27.0600 -18.0088 -0.0186
27.0800 -18.0221 -0.0179
27.1000 -18.0354 -0.0190
27.1200 -18.0488 -0.0166
27.1400 -18.0622 -0.0193
27.1600 -18.0755 -0.0203
27.1800 -18.0888 -0.0191
27.2000 -18.1021 -0.0203
27.2200 -18.1154 -0.0208
27.2400 -18.1287 -0.0183
27.2600 -18.1420 -0.0193
27.2800 -18.1554 -0.0191
27.3000 -18.1687 -0.0195
27.3200 -18.1821 -0.0180
27.3400 -18.1954 -0.0200
27.3600 -18.2087 -0.0189
27.3800 -18.2221 -0.0182
27.4000 -18.2355 -0.0199
27.4200 -18.2488 -0.0176
27.4400 -18.2621 -0.0174
27.4600 -18.2754 -0.0182
27.4800 -18.2888 -0.0183
27.5000 -18.3021 -0.0187
27.5200 -18.3154 -0.0223
27.5400 -18.3287 -0.0206
27.5600 -18.3421 -0.0202
27.5800 -18.3554 -0.0212
27.6000 -18.3687 -0.0197
27.6200 -18.3820 -0.0204
27.6400 -18.3953 -0.0213
27.6600 -18.4087 -0.0204
27.6800 -18.4221 -0.0190
27.7000 -18.4354 -0.0193
27.7200 -18.4487 -0.0201
27.7400 -18.4621 -0.0219
27.7600 -18.4754 -0.0207
27.7800 -18.4888 -0.0196
27.8000 -18.5021 -0.0172
27.8200 -18.5154 -0.0190
27.8400 -18.5288 -0.0194
27.8600 -18.5421 -0.0184
27.8800 -18.5554 -0.0228
27.9000 -18.5687 -0.0206
27.9200 -18.5821 -0.0190
27.9400 -18.5954 -0.0215
27.9600 -18.6087 -0.0200
27.9800 -18.6220 -0.0212
28.0000 -18.6353 -0.0223
28.0200 -18.6487 -0.0210
28.0400 -18.6620 -0.0188
28.0600 -18.6754 -0.0227
28.0800 -18.6887 -0.0201
28.1000 -18.7021 -0.0205
28.1200 -18.7154 -0.0215
28.1400 -18.7288 -0.0207
28.1600 -18.7421 -0.0198
28.1800 -18.7554 -0.0223
28.2000 -18.7688 -0.0203
28.2200 -18.7821 -0.0224
28.2400 -18.7954 -0.0219
28.2600 -18.8087 -0.0215
28.2800 -18.8221 -0.0191
28.3000 -18.8354 -0.0217
28.3200 -18.8487 -0.0194
28.3400 -18.8620 -0.0202
28.3600 -18.8754 -0.0208
28.3800 -18.8887 -0.0185
28.4000 -18.9021 -0.0178
28.4200 -18.9154 -0.0212
28.4400 -18.9287 -0.0206
28.4600 -18.9420 -0.0212
28.4800 -18.9554 -0.0229
28.5000 -18.9688 -0.0203
28.5200 -18.9821 -0.0215
28.5400 -18.9954 -0.0220
28.5600 -19.0088 -0.0216
28.5800 -19.0221 -0.0180
28.6000 -19.0355 -0.0209
28.6200 -19.0488 -0.0177
28.6400 -19.0621 -0.0189
28.6600 -19.0755 -0.0204
28.6800 -19.0888 -0.0212
28.7000 -19.1020 -0.0188
28.7200 -19.1153 -0.0230
28.7400 -19.1287 -0.0207
28.7600 -19.1421 -0.0215
28.7800 -19.1554 -0.0228
28.8000 -19.1687 -0.0240
28.8200 -19.1820 -0.0233
28.8400 -19.1954 -0.0242
28.8600 -19.2088 -0.0213
28.8800 -19.2221 -0.0233
28.9000 -19.2354 -0.0259
28.9200 -19.2488 -0.0250
28.9400 -19.2621 -0.0236
28.9600 -19.2755 -0.0265
28.9800 -19.2888 -0.0228
29.0000 -19.3021 -0.0246
29.0200 -19.3154 -0.0245
29.0400 -19.3287 -0.0245
29.0600 -19.3420 -0.0235
29.0800 -19.3553 -0.0253
29.1000 -19.3687 -0.0242
29.1200 -19.3820 -0.0214
29.1400 -19.3954 -0.0237
29.1600 -19.4087 -0.0255
29.1800 -19.4220 -0.0231
29.2000 -19.4354 -0.0242
29.2200 -19.4488 -0.0239
29.2400 -19.4621 -0.0220
29.2600 -19.4754 -0.0258
29.2800 -19.4888 -0.0218
29.3000 -19.5022 -0.0236
29.3200 -19.5155 -0.0214
29.3400 -19.5287 -0.0229
29.3600 -19.5420 -0.0224
29.3800 -19.5553 -0.0241
29.4000 -19.5686 -0.0245
29.4200 -19.5820 -0.0213
29.4400 -19.5953 -0.0211
29.4600 -19.6087 -0.0226
29.4800 -19.6220 -0.0212
29.5000 -19.6354 -0.0236
29.5200 -19.6487 -0.0233
29.5400 -19.6621 -0.0225
29.5600 -19.6755 -0.0241
29.5800 -19.6888 -0.0238
29.6000 -19.7021 -0.0234
29.6200 -19.7154 -0.0248
29.6400 -19.7288 -0.0227
29.6600 -19.7421 -0.0212
29.6800 -19.7555 -0.0239
29.7000 -19.7688 -0.0234
29.7200 -19.7821 -0.0221
29.7400 -19.7954 -0.0246
29.7600 -19.8088 -0.0255
29.7800 -19.8220 -0.0245
29.8000 -19.8353 -0.0275
29.8200 -19.8487 -0.0290
29.8400 -19.8621 -0.0261
29.8600 -19.8754 -0.0267
29.8800 -19.8887 -0.0271
29.9000 -19.9021 -0.0242
29.9200 -19.9154 -0.0266
29.9400 -19.9288 -0.0287
29.9600 -19.9421 -0.0281
29.9800 -19.9554 -0.0265
30.0000 -19.9687 -0.0272
30.0200 -19.9821 -0.0236
30.0400 -19.9954 -0.0283
30.0600 -20.0087 -0.0271
30.0800 -20.0220 -0.0257
30.1000 -20.0354 -0.0280
30.1200 -20.0487 -0.0261
30.1400 -20.0620 -0.0271
30.1600 -20.0753 -0.0282
30.1800 -20.0887 -0.0295
30.2000 -20.1020 -0.0248
30.2200 -20.1154 -0.0285
30.2400 -20.1287 -0.0255
30.2600 -20.1421 -0.0244
30.2800 -20.1554 -0.0272
30.3000 -20.1688 -0.0265
30.3200 -20.1821 -0.0232
30.3400 -20.1954 -0.0269
30.3600 -20.2088 -0.0271
30.3800 -20.2221 -0.0265
30.4000 -20.2354 -0.0279
30.4200 -20.2487 -0.0278
30.4400 -20.2620 -0.0247
30.4600 -20.2754 -0.0289
30.4800 -20.2887 -0.0279
30.5000 -20.3020 -0.0261
30.5200 -20.3153 -0.0276
30.5400 -20.3287 -0.0301
30.5600 -20.3421 -0.0272
30.5800 -20.3554 -0.0292
30.6000 -20.3687 -0.0295
30.6200 -20.3820 -0.0277
30.6400 -20.3954 -0.0277
30.6600 -20.4088 -0.0286
30.6800 -20.4221 -0.0275
30.7000 -20.4354 -0.0294
30.7200 -20.4488 -0.0314
30.7400 -20.4621 -0.0299
30.7600 -20.4755 -0.0303
30.7800 -20.4888 -0.0300
30.8000 -20.5021 -0.0304
30.8200 -20.5154 -0.0306
30.8400 -20.5287 -0.0347
30.8600 -20.5420 -0.0306
30.8800 -20.5553 -0.0323
30.9000 -20.5686 -0.0318
30.9200 -20.5820 -0.0314
30.9400 -20.5954 -0.0336
30.9600 -20.6087 -0.0336
30.9800 -20.6220 -0.0339
31.0000 -20.6354 -0.0346
31.0200 -20.6488 -0.0346
31.0400 -20.6621 -0.0320
31.0600 -20.6754 -0.0327
31.0800 -20.6888 -0.0337
31.1000 -20.7021 -0.0311
31.1200 -20.7155 -0.0340
31.1400 -20.7288 -0.0308
31.1600 -20.7421 -0.0308
31.1800 -20.7554 -0.0311
31.2000 -20.7687 -0.0324
31.2200 -20.7820 -0.0331
31.2400 -20.7953 -0.0616
31.2600 -20.8087 -0.0835
31.2800 -20.8220 -0.0886
31.3000 -20.8354 -0.0908
31.3200 -20.8487 -0.0942
31.3400 -20.8621 -0.0910
31.3600 -20.8755 -0.0922
31.3800 -20.8888 -0.0919
31.4000 -20.9022 -0.0903
31.4200 -20.9154 -0.0927
31.4400 -20.9287 -0.0922
31.4600 -20.9421 -0.0910
31.4800 -20.9554 -0.0933
31.5000 -20.9688 -0.0960
31.5200 -20.9821 -0.0936
31.5400 -20.9954 -0.0947
31.5600 -21.0087 -0.0968
31.5800 -21.0220 -0.0950
31.6000 -21.0353 -0.0935
31.6200 -21.0487 -0.0953
31.6400 -21.0621 -0.0930
31.6600 -21.0754 -0.0957
31.6800 -21.0887 -0.0973
31.7000 -21.1021 -0.0946
31.7200 -21.1154 -0.0952
31.7400 -21.1288 -0.0981
31.7600 -21.1421 -0.0981
31.7800 -21.1553 -0.1004
31.8000 -21.1687 -0.1004
31.8200 -21.1820 -0.0967
31.8400 -21.1954 -0.0989
31.8600 -21.2087 -0.1001
31.8800 -21.2220 -0.0996
31.9000 -21.2354 -0.1017
31.9200 -21.2488 -0.1022
31.9400 -21.2621 -0.0987
31.9600 -21.2754 -0.0991
31.9800 -21.2887 -0.1009
32.0000 -21.3020 -0.0980
32.0200 -21.3154 -0.1002
32.0400 -21.3287 -0.1014
32.0600 -21.3420 -0.1001
32.0800 -21.3554 -0.1003
32.1000 -21.3688 -0.1030
32.1200 -21.3821 -0.0999
32.1400 -21.3954 -0.1017
32.1600 -21.4088 -0.1041
32.1800 -21.4221 -0.0996
32.2000 -21.4355 -0.1024
32.2200 -21.4488 -0.1029
32.2400 -21.4621 -0.1024
32.2600 -21.4754 -0.1034
32.2800 -21.4888 -0.1029
32.3000 -21.5021 -0.0999
32.3200 -21.5154 -0.1033
32.3400 -21.5287 -0.1032
32.3600 -21.5420 -0.1027
32.3800 -21.5554 -0.0996
32.4000 -21.5687 -0.1035
32.4200 -21.5820 -0.1011
32.4400 -21.5954 -0.1031
32.4600 -21.6088 -0.1025
32.4800 -21.6221 -0.1018
32.5000 -21.6354 -0.1026
32.5200 -21.6488 -0.1035
32.5400 -21.6621 -0.1031
32.5600 -21.6755 -0.1026
32.5800 -21.6888 -0.1034
32.6000 -21.7021 -0.1025
32.6200 -21.7154 -0.1051
32.6400 -21.7288 -0.1052
32.6600 -21.7421 -0.1045
32.6800 -21.7553 -0.1010
32.7000 -21.7687 -0.1034
32.7200 -21.7820 -0.1010
32.7400 -21.7954 -0.1039
32.7600 -21.8087 -0.1041
32.7800 -21.8220 -0.1029
32.8000 -21.8354 -0.1027
32.8200 -21.8488 -0.1057
32.8400 -21.8621 -0.1027
32.8600 -21.8754 -0.1043
32.8800 -21.8887 -0.1033
32.9000 -21.9021 -0.1013
32.9200 -21.9154 -0.1029
32.9400 -21.9288 -0.1056
32.9600 -21.9421 -0.1035
32.9800 -21.9554 -0.1020
33.0000 -21.9688 -0.1039
33.0200 -21.9821 -0.1032
33.0400 -21.9954 -0.1026
33.0600 -22.0087 -0.1022
33.0800 -22.0220 -0.1007
33.1000 -22.0354 -0.1019
33.1200 -22.0487 -0.1030
33.1400 -22.0620 -0.1039
33.1600 -22.0754 -0.1057
33.1800 -22.0888 -0.1045
33.2000 -22.1021 -0.1031
33.2200 -22.1154 -0.1046
33.2400 -22.1287 -0.1060
33.2600 -22.1421 -0.1003
33.2800 -22.1554 -0.1032
33.3000 -22.1687 -0.1038
33.3200 -22.1820 -0.1051
33.3400 -22.1954 -0.1015
33.3600 -22.2087 -0.1059
33.3800 -22.2221 -0.1020
33.4000 -22.2353 -0.1052
33.4200 -22.2487 -0.1044
33.4400 -22.2620 -0.1028
33.4600 -22.2754 -0.1021
33.4800 -22.2887 -0.1050
33.5000 -22.3020 -0.1029
33.5200 -22.3154 -0.1024
33.5400 -22.3288 -0.1040
33.5600 -22.3421 -0.1028
33.5800 -22.3554 -0.1036
33.6000 -22.3687 -0.1044
33.6200 -22.3821 -0.1025
33.6400 -22.3954 -0.1007
33.6600 -22.4088 -0.1035
33.6800 -22.4221 -0.1034
33.7000 -22.4354 -0.1010
33.7200 -22.4487 -0.1030
33.7400 -22.4620 -0.1021
33.7600 -22.4753 -0.1032
33.7800 -22.4887 -0.1051
33.8000 -22.5021 -0.1024
33.8200 -22.5154 -0.1014
33.8400 -22.5287 -0.1054
33.8600 -22.5420 -0.1034
33.8800 -22.5554 -0.1050
33.9000 -22.5688 -0.1045
33.9200 -22.5821 -0.1035
33.9400 -22.5954 -0.1048
33.9600 -22.6087 -0.1034
33.9800 -22.6221 -0.1043
34.0000 -22.6354 -0.1018
34.0200 -22.6488 -0.1053
34.0400 -22.6621 -0.1009
34.0600 -22.6754 -0.1045
34.0800 -22.6888 -0.1052
34.1000 -22.7021 -0.1042
34.1200 -22.7154 -0.1039
34.1400 -22.7287 -0.1058
34.1600 -22.7420 -0.1041
34.1800 -22.7553 -0.1048
34.2000 -22.7686 -0.1033
34.2200 -22.7819 -0.1041
34.2400 -22.7953 -0.1045
34.2600 -22.8087 -0.1047
34.2800 -22.8221 -0.1055
34.3000 -22.8354 -0.1065
34.3200 -22.8487 -0.1084
34.3400 -22.8621 -0.1050
34.3600 -22.8755 -0.1053
34.3800 -22.8888 -0.1067
34.4000 -22.9021 -0.1043
34.4200 -22.9154 -0.1039
34.4400 -22.9287 -0.1052
34.4600 -22.9421 -0.1034
34.4800 -22.9554 -0.1047
34.5000 -22.9687 -0.1063
34.5200 -22.9820 -0.1063
34.5400 -22.9954 -0.1057
34.5600 -23.0087 -0.1045
34.5800 -23.0220 -0.1063
34.6000 -23.0354 -0.1041
34.6200 -23.0488 -0.1044
34.6400 -23.0621 -0.1057
34.6600 -23.0755 -0.1061
34.6800 -23.0888 -0.1085
34.7000 -23.1021 -0.1050
34.7200 -23.1155 -0.1059
34.7400 -23.1288 -0.1054
34.7600 -23.1421 -0.1056
34.7800 -23.1554 -0.1056
34.8000 -23.1687 -0.1083
34.8200 -23.1821 -0.1054
34.8400 -23.1953 -0.1059
34.8600 -23.2087 -0.1062
34.8800 -23.2220 -0.1044
34.9000 -23.2354 -0.1051
34.9200 -23.2487 -0.1077
34.9400 -23.2620 -0.1072
34.9600 -23.2754 -0.1066
34.9800 -23.2887 -0.1082
35.0000 -23.3021 -0.1052
35.0200 -23.3154 -0.1068
35.0400 -23.3288 -0.1042
35.0600 -23.3421 -0.1068
35.0800 -23.3555 -0.1039
35.1000 -23.3688 -0.1074
35.1200 -23.3821 -0.1060
35.1400 -23.3954 -0.1070
35.1600 -23.4087 -0.1062
35.1800 -23.4221 -0.1043
35.2000 -23.4354 -0.1042
35.2200 -23.4487 -0.1052
35.2400 -23.4620 -0.1039
35.2600 -23.4754 -0.1044
35.2800 -23.4887 -0.1049
35.3000 -23.5020 -0.1059
35.3200 -23.5154 -0.1053
35.3400 -23.5287 -0.1068
35.3600 -23.5421 -0.1054
35.3800 -23.5555 -0.1032
35.4000 -23.5688 -0.1045
35.4200 -23.5821 -0.1039
35.4400 -23.5955 -0.1023
35.4600 -23.6088 -0.1038
35.4800 -23.6221 -0.1046
35.5000 -23.6354 -0.1037
35.5200 -23.6487 -0.1044
35.5400 -23.6621 -0.1044
35.5600 -23.6754 -0.1040
35.5800 -23.6887 -0.1032
35.6000 -23.7020 -0.1061
35.6200 -23.7154 -0.1028
35.6400 -23.7287 -0.1044
35.6600 -23.7420 -0.1040
35.6800 -23.7554 -0.1032
35.7000 -23.7687 -0.1032
35.7200 -23.7821 -0.1031
35.7400 -23.7954 -0.1014
35.7600 -23.8087 -0.1052
35.7800 -23.8221 -0.1028
35.8000 -23.8354 -0.1044
35.8200 -23.8488 -0.1030
35.8400 -23.8621 -0.1039
35.8600 -23.8754 -0.1018
35.8800 -23.8888 -0.1041
35.9000 -23.9021 -0.1030
35.9200 -23.9154 -0.1023
35.9400 -23.9287 -0.1036
35.9600 -23.9420 -0.1054
35.9800 -23.9554 -0.1056
36.0000 -23.9687 -0.1049
36.0200 -23.9820 -0.1065
36.0400 -23.9953 -0.1046
36.0600 -24.0087 -0.1041
36.0800 -24.0221 -0.1037
36.1000 -24.0354 -0.1040
36.1200 -24.0487 -0.1048
36.1400 -24.0621 -0.1059
36.1600 -24.0754 -0.1036
36.1800 -24.0888 -0.1047
36.2000 -24.1021 -0.1051
36.2200 -24.1154 -0.1039
36.2400 -24.1288 -0.1024
36.2600 -24.1421 -0.1022
36.2800 -24.1554 -0.1034
36.3000 -24.1687 -0.1035
36.3200 -24.1820 -0.1042
36.3400 -24.1954 -0.1029
36.3600 -24.2087 -0.1028
36.3800 -24.2220 -0.1040
36.4000 -24.2354 -0.1034
36.4200 -24.2487 -0.1018
36.4400 -24.2621 -0.1016
36.4600 -24.2755 -0.1008
36.4800 -24.2888 -0.1038
36.5000 -24.3021 -0.1038
36.5200 -24.3155 -0.1047
36.5400 -24.3288 -0.1052
36.5600 -24.3421 -0.1056
36.5800 -24.3554 -0.1048
36.6000 -24.3687 -0.1037
36.6200 -24.3820 -0.1046
36.6400 -24.3953 -0.1046
36.6600 -24.4086 -0.1049
36.6800 -24.4220 -0.1050
36.7000 -24.4354 -0.1027
36.7200 -24.4487 -0.1049
36.7400 -24.4621 -0.1049
36.7600 -24.4754 -0.1044
36.7800 -24.4888 -0.1032
36.8000 -24.5022 -0.1032
36.8200 -24.5155 -0.1028
36.8400 -24.5288 -0.1040
36.8600 -24.5421 -0.1059
36.8800 -24.5554 -0.1046
36.9000 -24.5688 -0.1016
36.9200 -24.5821 -0.1045
36.9400 -24.5954 -0.1029
36.9600 -24.6087 -0.1051
36.9800 -24.6221 -0.1034
37.0000 -24.6354 -0.1029
37.0200 -24.6487 -0.1032
37.0400 -24.6620 -0.1052
37.0600 -24.6754 -0.1050
37.0800 -24.6887 -0.1056
37.1000 -24.7021 -0.1040
37.1200 -24.7154 -0.1053
37.1400 -24.7287 -0.1061
37.1600 -24.7421 -0.1080
37.1800 -24.7554 -0.1076
37.2000 -24.7687 -0.1041
37.2200 -24.7821 -0.1054
37.2400 -24.7954 -0.1041
37.2600 -24.8088 -0.1044
37.2800 -24.8221 -0.1051
37.3000 -24.8354 -0.1037
37.3200 -24.8487 -0.1050
37.3400 -24.8621 -0.1058
37.3600 -24.8754 -0.1035
37.3800 -24.8887 -0.1059
37.4000 -24.9020 -0.1033
37.4200 -24.9154 -0.1057
37.4400 -24.9287 -0.1033
37.4600 -24.9421 -0.1067
37.4800 -24.9554 -0.1033
37.5000 -24.9687 -0.1047
37.5200 -24.9821 -0.1058
37.5400 -24.9954 -0.1058
37.5600 -25.0088 -0.1047
37.5800 -25.0221 -0.1046
37.6000 -25.0354 -0.1035
37.6200 -25.0488 -0.1061
37.6400 -25.0621 -0.1057
37.6600 -25.0754 -0.1051
37.6800 -25.0887 -0.1052
37.7000 -25.1021 -0.1086
37.7200 -25.1154 -0.1049
37.7400 -25.1287 -0.1048
37.7600 -25.1420 -0.1049
37.7800 -25.1554 -0.1060
37.8000 -25.1687 -0.1051
37.8200 -25.1821 -0.1066
37.8400 -25.1954 -0.1047
37.8600 -25.2087 -0.1056
37.8800 -25.2221 -0.1043
37.9000 -25.2355 -0.1069
37.9200 -25.2488 -0.1075
37.9400 -25.2621 -0.1083
37.9600 -25.2754 -0.1078
37.9800 -25.2888 -0.1043
38.0000 -25.3021 -0.1073
38.0200 -25.3154 -0.1058
38.0400 -25.3287 -0.1071
38.0600 -25.3421 -0.1066
38.0800 -25.3554 -0.1041
38.1000 -25.3687 -0.1035
38.1200 -25.3820 -0.1063
38.1400 -25.3953 -0.1064
38.1600 -25.4087 -0.1052
38.1800 -25.4220 -0.1073
38.2000 -25.4353 -0.1100
38.2200 -25.4487 -0.1064
38.2400 -25.4621 -0.1082
38.2600 -25.4755 -0.1052
38.2800 -25.4888 -0.1063
38.3000 -25.5021 -0.1069
38.3200 -25.5154 -0.1076
38.3400 -25.5288 -0.1071
38.3600 -25.5421 -0.1087
38.3800 -25.5554 -0.1074
38.4000 -25.5687 -0.1059
38.4200 -25.5821 -0.1072
38.4400 -25.5954 -0.1056
38.4600 -25.6087 -0.1060
38.4800 -25.6220 -0.1079
38.5000 -25.6353 -0.1099
38.5200 -25.6487 -0.1079
38.5400 -25.6620 -0.1083
38.5600 -25.6754 -0.1057
38.5800 -25.6887 -0.1062
38.6000 -25.7021 -0.1070
38.6200 -25.7155 -0.1062
38.6400 -25.7288 -0.1050
38.6600 -25.7421 -0.1057
38.6800 -25.7554 -0.1046
38.7000 -25.7688 -0.1067
38.7200 -25.7821 -0.1063
38.7400 -25.7954 -0.1071
38.7600 -25.8087 -0.1047
38.7800 -25.8221 -0.1068
38.8000 -25.8354 -0.1054
38.8200 -25.8487 -0.1038
38.8400 -25.8620 -0.1040
38.8600 -25.8754 -0.1028
38.8800 -25.8887 -0.1048
38.9000 -25.9021 -0.1055
38.9200 -25.9154 -0.1053
38.9400 -25.9288 -0.1030
38.9600 -25.9421 -0.1042
38.9800 -25.9555 -0.1032
39.0000 -25.9687 -0.1048
39.0200 -25.9820 -0.1054
39.0400 -25.9953 -0.1052
39.0600 -26.0087 -0.1037
39.0800 -26.0221 -0.1033
39.1000 -26.0354 -0.1042
39.1200 -26.0487 -0.1046
39.1400 -26.0620 -0.1053
39.1600 -26.0754 -0.1041
39.1800 -26.0887 -0.1041
39.2000 -26.1020 -0.1052
39.2200 -26.1154 -0.1036
39.2400 -26.1287 -0.1053
39.2600 -26.1420 -0.1043
39.2800 -26.1554 -0.1058
39.3000 -26.1687 -0.1034
39.3200 -26.1821 -0.1043
39.3400 -26.1955 -0.1015
39.3600 -26.2088 -0.1042
39.3800 -26.2221 -0.1039
39.4000 -26.2354 -0.1049
39.4200 -26.2488 -0.1045
39.4400 -26.2621 -0.1047
39.4600 -26.2754 -0.1025
39.4800 -26.2887 -0.1050
39.5000 -26.3021 -0.1048
39.5200 -26.3154 -0.1028
39.5400 -26.3287 -0.1048
39.5600 -26.3420 -0.1061
39.5800 -26.3553 -0.1048
39.6000 -26.3687 -0.1042
39.6200 -26.3821 -0.1034
39.6400 -26.3954 -0.1020
39.6600 -26.4087 -0.1043
39.6800 -26.4221 -0.1041
39.7000 -26.4354 -0.1056
39.7200 -26.4487 -0.1034
39.7400 -26.4621 -0.1024
39.7600 -26.4754 -0.1013
39.7800 -26.4888 -0.1042
39.8000 -26.5021 -0.1031
39.8200 -26.5154 -0.1047
39.8400 -26.5287 -0.1025
39.8600 -26.5421 -0.1019
39.8800 -26.5554 -0.1016
39.9000 -26.5687 -0.1037
39.9200 -26.5820 -0.1028
39.9400 -26.5953 -0.1010
39.9600 -26.6087 -0.1017
39.9800 -26.6221 -0.1032
40.0000 -26.6354 -0.1031
40.0200 -26.6487 -0.1013
40.0400 -26.6621 -0.1009
40.0600 -26.6754 -0.1027
40.0800 -26.6887 -0.1021
40.1000 -26.7020 -0.1034
40.1200 -26.7154 -0.1026
40.1400 -26.7288 -0.0998
40.1600 -26.7421 -0.1002
40.1800 -26.7554 -0.1016
40.2000 -26.7687 -0.1020
40.2200 -26.7821 -0.1025
40.2400 -26.7955 -0.1007
40.2600 -26.8087 -0.1010
40.2800 -26.8220 -0.1028
40.3000 -26.8353 -0.1025
40.3200 -26.8487 -0.1020
40.3400 -26.8621 -0.1010
40.3600 -26.8754 -0.1026
40.3800 -26.8887 -0.1019
40.4000 -26.9021 -0.1019
40.4200 -26.9155 -0.1022
40.4400 -26.9288 -0.1026
40.4600 -26.9421 -0.1044
40.4800 -26.9554 -0.1016
40.5000 -26.9687 -0.1020
40.5200 -26.9821 -0.1041
40.5400 -26.9954 -0.1045
40.5600 -27.0087 -0.1047
40.5800 -27.0221 -0.1019
40.6000 -27.0354 -0.1030
40.6200 -27.0487 -0.1042
40.6400 -27.0620 -0.1025
40.6600 -27.0754 -0.1024
40.6800 -27.0887 -0.1008
40.7000 -27.1021 -0.1010
40.7200 -27.1154 -0.1029
40.7400 -27.1287 -0.1043
40.7600 -27.1421 -0.1037
40.7800 -27.1555 -0.1035
40.8000 -27.1688 -0.1029
40.8200 -27.1821 -0.1029
40.8400 -27.1954 -0.1003
40.8600 -27.2088 -0.1022
40.8800 -27.2221 -0.1005
40.9000 -27.2354 -0.1020
40.9200 -27.2487 -0.1009
40.9400 -27.2620 -0.1039
40.9600 -27.2754 -0.1021
40.9800 -27.2887 -0.1048
41.0000 -27.3020 -0.1022
41.0200 -27.3153 -0.1029
41.0400 -27.3287 -0.1004
41.0600 -27.3421 -0.1011
41.0800 -27.3554 -0.1007
41.1000 -27.3687 -0.1016
41.1200 -27.3820 -0.1013
41.1400 -27.3954 -0.1017
41.1600 -27.4088 -0.1027
41.1800 -27.4221 -0.0992
41.2000 -27.4354 -0.1029
41.2200 -27.4487 -0.1012
41.2400 -27.4621 -0.1022
41.2600 -27.4754 -0.1007
41.2800 -27.4887 -0.1008
41.3000 -27.5021 -0.0995
41.3200 -27.5154 -0.1020
41.3400 -27.5287 -0.1015
41.3600 -27.5420 -0.1028
41.3800 -27.5553 -0.1001
41.4000 -27.5687 -0.1017
41.4200 -27.5820 -0.1014
41.4400 -27.5953 -0.1030
41.4600 -27.6086 -0.1041
41.4800 -27.6220 -0.1045
41.5000 -27.6354 -0.1057
41.5200 -27.6488 -0.1041
41.5400 -27.6621 -0.1045
41.5600 -27.6754 -0.1040
41.5800 -27.6888 -0.1032
41.6000 -27.7022 -0.1035
41.6200 -27.7155 -0.1035
41.6400 -27.7288 -0.1039
41.6600 -27.7421 -0.1034
41.6800 -27.7554 -0.1031
41.7000 -27.7687 -0.1034
41.7200 -27.7820 -0.1033
41.7400 -27.7954 -0.1064
41.7600 -27.8087 -0.1050
41.7800 -27.8221 -0.1017
41.8000 -27.8354 -0.1029
41.8200 -27.8487 -0.1030
41.8400 -27.8621 -0.1037
41.8600 -27.8755 -0.1033
41.8800 -27.8888 -0.1026
41.9000 -27.9021 -0.1028
41.9200 -27.9154 -0.1028
41.9400 -27.9288 -0.1033
41.9600 -27.9421 -0.1009
41.9800 -27.9555 -0.1014
42.0000 -27.9688 -0.1016
42.0200 -27.9821 -0.1009
42.0400 -27.9954 -0.1008
42.0600 -28.0087 -0.1038
42.0800 -28.0220 -0.1022
42.1000 -28.0353 -0.1040
42.1200 -28.0487 -0.1035
42.1400 -28.0621 -0.1026
42.1600 -28.0754 -0.1013
42.1800 -28.0887 -0.1029
42.2000 -28.1021 -0.0998
42.2200 -28.1154 -0.1022
42.2400 -28.1288 -0.1027
42.2600 -28.1421 -0.1012
42.2800 -28.1554 -0.1019
42.3000 -28.1688 -0.1030
42.3200 -28.1821 -0.1022
42.3400 -28.1954 -0.1018
42.3600 -28.2087 -0.1008
42.3800 -28.2221 -0.0991
42.4000 -28.2354 -0.1008
42.4200 -28.2487 -0.1001
42.4400 -28.2620 -0.1016
42.4600 -28.2753 -0.1013
42.4800 -28.2887 -0.1023
42.5000 -28.3020 -0.1012
42.5200 -28.3154 -0.1027
42.5400 -28.3287 -0.1030
42.5600 -28.3420 -0.1045
42.5800 -28.3554 -0.1020
42.6000 -28.3688 -0.1041
42.6200 -28.3821 -0.1019
42.6400 -28.3954 -0.1012
42.6600 -28.4088 -0.1029
42.6800 -28.4221 -0.1008
42.7000 -28.4354 -0.1003
42.7200 -28.4488 -0.1022
42.7400 -28.4621 -0.1013
42.7600 -28.4754 -0.1039
42.7800 -28.4888 -0.1023
42.8000 -28.5020 -0.1004
42.8200 -28.5154 -0.1015
42.8400 -28.5287 -0.0999
42.8600 -28.5421 -0.1008
42.8800 -28.5554 -0.1024
42.9000 -28.5687 -0.1011
42.9200 -28.5820 -0.1002
42.9400 -28.5954 -0.1012
42.9600 -28.6087 -0.1018
42.9800 -28.6221 -0.1013
43.0000 -28.6354 -0.0996
43.0200 -28.6488 -0.1013
43.0400 -28.6621 -0.0999
43.0600 -28.6755 -0.0991
43.0800 -28.6888 -0.1012
43.1000 -28.7021 -0.0990
43.1200 -28.7155 -0.0988
43.1400 -28.7288 -0.0982
43.1600 -28.7420 -0.1002
43.1800 -28.7553 -0.1009
43.2000 -28.7687 -0.0988
43.2200 -28.7820 -0.0992
43.2400 -28.7954 -0.0988
43.2600 -28.8087 -0.1008
43.2800 -28.8220 -0.0986
43.3000 -28.8354 -0.1026
43.3200 -28.8488 -0.1005
43.3400 -28.8621 -0.1023
43.3600 -28.8754 -0.1010
43.3800 -28.8887 -0.1007
43.4000 -28.9021 -0.0992
43.4200 -28.9155 -0.1013
43.4400 -28.9288 -0.0997
43.4600 -28.9421 -0.0998
43.4800 -28.9554 -0.0985
43.5000 -28.9687 -0.0988
43.5200 -28.9820 -0.0998
43.5400 -28.9953 -0.0987
43.5600 -29.0087 -0.1024
43.5800 -29.0220 -0.0977
43.6000 -29.0354 -0.0992
43.6200 -29.0487 -0.1004
43.6400 -29.0620 -0.1021
43.6600 -29.0754 -0.1013
43.6800 -29.0888 -0.1029
43.7000 -29.1021 -0.0996
43.7200 -29.1154 -0.1016
43.7400 -29.1288 -0.0986
43.7600 -29.1421 -0.1006
43.7800 -29.1555 -0.0989
43.8000 -29.1687 -0.1013
43.8200 -29.1820 -0.1000
43.8400 -29.1953 -0.1017
43.8600 -29.2087 -0.0989
43.8800 -29.2220 -0.0997
43.9000 -29.2353 -0.1003
43.9200 -29.2487 -0.0996
43.9400 -29.2620 -0.0992
43.9600 -29.2754 -0.0997
43.9800 -29.2887 -0.1016
44.0000 -29.3021 -0.1022
44.0200 -29.3154 -0.1003
44.0400 -29.3288 -0.1012
44.0600 -29.3421 -0.1005
44.0800 -29.3554 -0.0994
44.1000 -29.3688 -0.1021
44.1200 -29.3821 -0.0999
44.1400 -29.3955 -0.1004
44.1600 -29.4088 -0.1009
44.1800 -29.4221 -0.0989
44.2000 -29.4354 -0.0997
44.2200 -29.4488 -0.1024
44.2400 -29.4621 -0.0997
44.2600 -29.4754 -0.0991
44.2800 -29.4887 -0.0995
44.3000 -29.5021 -0.1011
44.3200 -29.5154 -0.1007
44.3400 -29.5287 -0.1045
44.3600 -29.5421 -0.0992
44.3800 -29.5554 -0.0997
44.4000 -29.5688 -0.0987
44.4200 -29.5821 -0.1006
44.4400 -29.5954 -0.0996
44.4600 -29.6087 -0.1007
44.4800 -29.6221 -0.0978
44.5000 -29.6354 -0.0995
44.5200 -29.6487 -0.0999
44.5400 -29.6621 -0.0996
44.5600 -29.6754 -0.0990
44.5800 -29.6887 -0.1005
44.6000 -29.7020 -0.0997
44.6200 -29.7153 -0.1021
44.6400 -29.7287 -0.1008
44.6600 -29.7420 -0.0996
44.6800 -29.7554 -0.0984
44.7000 -29.7687 -0.1004
44.7200 -29.7821 -0.1003
44.7400 -29.7954 -0.0986
44.7600 -29.8088 -0.1020
44.7800 -29.8221 -0.0999
44.8000 -29.8354 -0.1000
44.8200 -29.8487 -0.1012
44.8400 -29.8621 -0.1004
44.8600 -29.8754 -0.0992
44.8800 -29.8887 -0.1014
44.9000 -29.9020 -0.0985
44.9200 -29.9154 -0.0978
44.9400 -29.9287 -0.1002
44.9600 -29.9420 -0.0985
44.9800 -29.9553 -0.0995
45.0000 -29.9687 -0.1019
45.0200 -29.9820 -0.0996
45.0400 -29.9954 -0.0989
45.0600 -30.0087 -0.1007
45.0800 -30.0221 -0.0993
45.1000 -30.0354 -0.0972
45.1200 -30.0488 -0.0984
45.1400 -30.0621 -0.0985
45.1600 -30.0754 -0.0971
45.1800 -30.0887 -0.0986
45.2000 -30.1021 -0.0965
45.2200 -30.1155 -0.0951
45.2400 -30.1288 -0.0978
45.2600 -30.1421 -0.0985
45.2800 -30.1554 -0.0965
45.3000 -30.1687 -0.0978
45.3200 -30.1820 -0.0975
45.3400 -30.1953 -0.0996
45.3600 -30.2086 -0.0992
45.3800 -30.2220 -0.0990
45.4000 -30.2354 -0.0958
45.4200 -30.2487 -0.0991
45.4400 -30.2620 -0.0980
45.4600 -30.2754 -0.0975
45.4800 -30.2888 -0.0978
45.5000 -30.3021 -0.0979
45.5200 -30.3155 -0.0970
45.5400 -30.3288 -0.0986
45.5600 -30.3421 -0.0964
45.5800 -30.3555 -0.0943
45.6000 -30.3688 -0.0977
45.6200 -30.3821 -0.0982
45.6400 -30.3954 -0.0973
45.6600 -30.4087 -0.0978
45.6800 -30.4220 -0.0991
45.7000 -30.4353 -0.0959
45.7200 -30.4486 -0.0992
45.7400 -30.4620 -0.0981
45.7600 -30.4754 -0.0997
45.7800 -30.4887 -0.1005
45.8000 -30.5020 -0.1009
45.8200 -30.5154 -0.0981
45.8400 -30.5288 -0.1006
45.8600 -30.5422 -0.0981
45.8800 -30.5554 -0.0984
45.9000 -30.5688 -0.0978
45.9200 -30.5821 -0.0987
45.9400 -30.5954 -0.0969
45.9600 -30.6087 -0.0992
45.9800 -30.6220 -0.0990
46.0000 -30.6354 -0.0988
46.0200 -30.6487 -0.1017
46.0400 -30.6620 -0.0981
46.0600 -30.6753 -0.0958
46.0800 -30.6887 -0.0982
46.1000 -30.7020 -0.0973
46.1200 -30.7154 -0.0977
46.1400 -30.7287 -0.0982
46.1600 -30.7421 -0.0993
46.1800 -30.7554 -0.0968
46.2000 -30.7688 -0.0990
46.2200 -30.7821 -0.0962
46.2400 -30.7953 -0.0973
46.2600 -30.8086 -0.0971
46.2800 -30.8220 -0.0972
46.3000 -30.8354 -0.0961
46.3200 -30.8487 -0.1004
46.3400 -30.8621 -0.0951
46.3600 -30.8754 -0.0951
46.3800 -30.8888 -0.0971
46.4000 -30.9021 -0.0953
46.4200 -30.9154 -0.0957
46.4400 -30.9287 -0.0956
46.4600 -30.9420 -0.0969
46.4800 -30.9554 -0.0948
46.5000 -30.9687 -0.1007
46.5200 -30.9820 -0.0981
46.5400 -30.9954 -0.0980
46.5600 -31.0088 -0.0980
46.5800 -31.0221 -0.0980
46.6000 -31.0354 -0.0964
46.6200 -31.0488 -0.0992
46.6400 -31.0621 -0.0969
46.6600 -31.0755 -0.0962
46.6800 -31.0888 -0.0992
46.7000 -31.1021 -0.0993
46.7200 -31.1154 -0.0977
46.7400 -31.1287 -0.0982
46.7600 -31.1421 -0.0969
46.7800 -31.1553 -0.0950
46.8000 -31.1687 -0.0993
46.8200 -31.1820 -0.0987
46.8400 -31.1954 -0.0958
46.8600 -31.2087 -0.0981
46.8800 -31.2220 -0.0978
46.9000 -31.2354 -0.0958
46.9200 -31.2487 -0.0979
46.9400 -31.2621 -0.0978
46.9600 -31.2754 -0.0967
46.9800 -31.2887 -0.0970
47.0000 -31.3021 -0.0959
47.0200 -31.3154 -0.0939
47.0400 -31.3288 -0.0968
47.0600 -31.3421 -0.0970
47.0800 -31.3554 -0.0965
47.1000 -31.3688 -0.0967
47.1200 -31.3821 -0.0955
47.1400 -31.3954 -0.0945
47.1600 -31.4087 -0.0975
47.1800 -31.4220 -0.0970
47.2000 -31.4354 -0.0950
47.2200 -31.4487 -0.0973
47.2400 -31.4620 -0.0987
47.2600 -31.4754 -0.0985
47.2800 -31.4888 -0.0975
47.3000 -31.5021 -0.0968
47.3200 -31.5154 -0.0958
47.3400 -31.5287 -0.0989
47.3600 -31.5421 -0.0996
47.3800 -31.5554 -0.0953
47.4000 -31.5688 -0.0954
47.4200 -31.5821 -0.0969
47.4400 -31.5954 -0.0963
47.4600 -31.6088 -0.0989
47.4800 -31.6221 -0.0982
47.5000 -31.6354 -0.0982
47.5200 -31.6487 -0.0982
47.5400 -31.6620 -0.1004
47.5600 -31.6754 -0.0952
47.5800 -31.6887 -0.0993
47.6000 -31.7020 -0.0968
47.6200 -31.7154 -0.0968
47.6400 -31.7288 -0.0960
47.6600 -31.7421 -0.0977
47.6800 -31.7554 -0.0957
47.7000 -31.7687 -0.0978
47.7200 -31.7821 -0.0971
47.7400 -31.7954 -0.0959
47.7600 -31.8087 -0.0964
47.7800 -31.8220 -0.0992
47.8000 -31.8354 -0.0945
47.8200 -31.8487 -0.0957
47.8400 -31.8621 -0.0960
47.8600 -31.8753 -0.0954
47.8800 -31.8887 -0.0984
47.9000 -31.9020 -0.0969
47.9200 -31.9154 -0.0949
47.9400 -31.9288 -0.0956
47.9600 -31.9421 -0.0989
47.9800 -31.9554 -0.0959
48.0000 -31.9688 -0.0988
48.0200 -31.9821 -0.0943
48.0400 -31.9954 -0.0959
48.0600 -32.0087 -0.0949
48.0800 -32.0221 -0.0995
48.1000 -32.0354 -0.0941
48.1200 -32.0488 -0.0987
48.1400 -32.0621 -0.0958
48.1600 -32.0754 -0.0973
48.1800 -32.0887 -0.0974
48.2000 -32.1021 -0.0983
48.2200 -32.1154 -0.0960
48.2400 -32.1287 -0.0982
48.2600 -32.1420 -0.0965
48.2800 -32.1554 -0.0959
48.3000 -32.1687 -0.0957
48.3200 -32.1820 -0.0982
48.3400 -32.1954 -0.0978
48.3600 -32.2087 -0.0983
48.3800 -32.2221 -0.0985
48.4000 -32.2354 -0.0945
48.4200 -32.2487 -0.0972
48.4400 -32.2621 -0.0984
48.4600 -32.2754 -0.0970
48.4800 -32.2888 -0.0974
48.5000 -32.3021 -0.0974
48.5200 -32.3154 -0.0969
48.5400 -32.3288 -0.0947
48.5600 -32.3421 -0.0972
48.5800 -32.3554 -0.0979
48.6000 -32.3687 -0.0962
48.6200 -32.3820 -0.0965
48.6400 -32.3953 -0.0946
48.6600 -32.4086 -0.0950
48.6800 -32.4220 -0.0970
48.7000 -32.4353 -0.0962
48.7200 -32.4487 -0.0966
48.7400 -32.4621 -0.0979
48.7600 -32.4754 -0.0953
48.7800 -32.4888 -0.0970
48.8000 -32.5021 -0.0978
48.8200 -32.5155 -0.0968
48.8400 -32.5288 -0.0978
48.8600 -32.5421 -0.0987
48.8800 -32.5554 -0.0947
48.9000 -32.5687 -0.0967
48.9200 -32.5821 -0.0980
48.9400 -32.5954 -0.0943
48.9600 -32.6087 -0.0951
48.9800 -32.6220 -0.0973
49.0000 -32.6354 -0.0944
49.0200 -32.6487 -0.0949
49.0400 -32.6620 -0.0965
49.0600 -32.6754 -0.0948
49.0800 -32.6888 -0.0960
49.1000 -32.7021 -0.0995
49.1200 -32.7155 -0.0963
49.1400 -32.7288 -0.0956
49.1600 -32.7421 -0.0963
49.1800 -32.7554 -0.0951
49.2000 -32.7688 -0.0984
49.2200 -32.7821 -0.0983
49.2400 -32.7954 -0.0970
49.2600 -32.8087 -0.0972
49.2800 -32.8221 -0.0962
49.3000 -32.8354 -0.0941
49.3200 -32.8487 -0.0953
49.3400 -32.8620 -0.0946
49.3600 -32.8754 -0.0943
49.3800 -32.8887 -0.0936
49.4000 -32.9020 -0.0973
49.4200 -32.9154 -0.0952
49.4400 -32.9287 -0.0945
49.4600 -32.9421 -0.0972
49.4800 -32.9554 -0.0941
49.5000 -32.9688 -0.0958
49.5200 -32.9821 -0.0957
49.5400 -32.9954 -0.0955
49.5600 -33.0088 -0.0968
49.5800 -33.0221 -0.0977
49.6000 -33.0354 -0.0938
49.6200 -33.0488 -0.0958
49.6400 -33.0621 -0.0930
49.6600 -33.0754 -0.0944
49.6800 -33.0887 -0.0937
49.7000 -33.1020 -0.0971
49.7200 -33.1154 -0.0937
49.7400 -33.1287 -0.0955
49.7600 -33.1420 -0.0957
49.7800 -33.1554 -0.0970
49.8000 -33.1687 -0.0953
49.8200 -33.1821 -0.0987
49.8400 -33.1954 -0.0947
49.8600 -33.2088 -0.0962
49.8800 -33.2221 -0.0966
49.9000 -33.2355 -0.0963
49.9200 -33.2488 -0.0951
49.9400 -33.2621 -0.0980
49.9600 -33.2754 -0.0962
49.9800 -33.2888 -0.0965
50.0000 -33.3021 -0.0983
50.0200 -33.3154 -0.0964
50.0400 -33.3287 -0.0971
50.0600 -33.3420 -0.1002
50.0800 -33.3554 -0.0980
50.1000 -33.3687 -0.0988
50.1200 -33.3820 -0.0995
50.1400 -33.3954 -0.0989
50.1600 -33.4087 -0.0978
50.1800 -33.4221 -0.0993
50.2000 -33.4354 -0.0978
50.2200 -33.4487 -0.0981
50.2400 -33.4621 -0.0989
50.2600 -33.4754 -0.0952
50.2800 -33.4888 -0.0971
50.3000 -33.5021 -0.0997
50.3200 -33.5154 -0.0990
50.3400 -33.5288 -0.0986
50.3600 -33.5421 -0.0982
50.3800 -33.5554 -0.0937
50.4000 -33.5687 -0.0952
50.4200 -33.5820 -0.0968
50.4400 -33.5954 -0.0983
50.4600 -33.6087 -0.0961
50.4800 -33.6220 -0.1009
50.5000 -33.6353 -0.0943
50.5200 -33.6487 -0.0957
50.5400 -33.6621 -0.0966
50.5600 -33.6754 -0.0964
50.5800 -33.6887 -0.0968
50.6000 -33.7020 -0.0989
50.6200 -33.7154 -0.0943
50.6400 -33.7288 -0.0979
50.6600 -33.7421 -0.0970
50.6800 -33.7554 -0.0979
50.7000 -33.7687 -0.0950
50.7200 -33.7821 -0.0983
50.7400 -33.7954 -0.0978
50.7600 -33.8087 -0.0954
50.7800 -33.8220 -0.0976
50.8000 -33.8354 -0.0965
50.8200 -33.8487 -0.0958
50.8400 -33.8620 -0.0968
50.8600 -33.8753 -0.0971
50.8800 -33.8887 -0.0935
50.9000 -33.9021 -0.0984
50.9200 -33.9155 -0.0959
50.9400 -33.9288 -0.0964
50.9600 -33.9421 -0.0964
50.9800 -33.9555 -0.0985
51.0000 -33.9688 -0.0981
51.0200 -33.9821 -0.1005
51.0400 -33.9954 -0.0977
51.0600 -34.0087 -0.0960
51.0800 -34.0220 -0.0976
51.1000 -34.0353 -0.0955
51.1200 -34.0486 -0.0967
51.1400 -34.0620 -0.1006
51.1600 -34.0754 -0.1003
51.1800 -34.0887 -0.0978
51.2000 -34.1021 -0.1000
51.2200 -34.1154 -0.0981
51.2400 -34.1288 -0.0972
51.2600 -34.1422 -0.0990
51.2800 -34.1555 -0.0987
51.3000 -34.1688 -0.0977
51.3200 -34.1821 -0.1002
51.3400 -34.1955 -0.0970
51.3600 -34.2088 -0.0962
51.3800 -34.2221 -0.0996
51.4000 -34.2354 -0.0994
51.4200 -34.2488 -0.0993
51.4400 -34.2621 -0.1000
51.4600 -34.2754 -0.0954
51.4800 -34.2887 -0.0964
51.5000 -34.3020 -0.0966
51.5200 -34.3154 -0.0978
51.5400 -34.3287 -0.0951
51.5600 -34.3421 -0.0983
51.5800 -34.3554 -0.0972
51.6000 -34.3687 -0.0947
51.6200 -34.3821 -0.0975
51.6400 -34.3955 -0.0962
51.6600 -34.4088 -0.0959
51.6800 -34.4221 -0.0979
51.7000 -34.4354 -0.0977
51.7200 -34.4488 -0.0979
51.7400 -34.4621 -0.0991
51.7600 -34.4754 -0.0982
51.7800 -34.4887 -0.0977
51.8000 -34.5021 -0.0965
51.8200 -34.5154 -0.0970
51.8400 -34.5286 -0.0961
51.8600 -34.5419 -0.1000
51.8800 -34.5553 -0.0976
51.9000 -34.5687 -0.0967
51.9200 -34.5820 -0.0979
51.9400 -34.5954 -0.0993
51.9600 -34.6087 -0.0970
51.9800 -34.6221 -0.0974
52.0000 -34.6355 -0.0953
52.0200 -34.6488 -0.0967
52.0400 -34.6621 -0.0982
52.0600 -34.6754 -0.0990
52.0800 -34.6888 -0.0949
52.1000 -34.7021 -0.0976
52.1200 -34.7154 -0.0964
52.1400 -34.7287 -0.0988
52.1600 -34.7421 -0.0972
52.1800 -34.7554 -0.0965
52.2000 -34.7687 -0.0948
52.2200 -34.7820 -0.0971
52.2400 -34.7954 -0.0988
52.2600 -34.8087 -0.0972
52.2800 -34.8221 -0.1005
52.3000 -34.8354 -0.0986
52.3200 -34.8487 -0.0961
52.3400 -34.8621 -0.0995
52.3600 -34.8755 -0.1007
52.3800 -34.8888 -0.0979
52.4000 -34.9021 -0.0981
52.4200 -34.9154 -0.0966
52.4400 -34.9288 -0.0969
52.4600 -34.9422 -0.0980
52.4800 -34.9554 -0.0986
52.5000 -34.9688 -0.0958
52.5200 -34.9821 -0.0964
52.5400 -34.9954 -0.0966
52.5600 -35.0087 -0.0987
52.5800 -35.0220 -0.0971
52.6000 -35.0353 -0.0976
52.6200 -35.0487 -0.0951
52.6400 -35.0621 -0.0973
52.6600 -35.0754 -0.0956
52.6800 -35.0887 -0.0968
52.7000 -35.1021 -0.0982
52.7200 -35.1155 -0.0978
52.7400 -35.1288 -0.0966
52.7600 -35.1421 -0.0966
52.7800 -35.1555 -0.0956
52.8000 -35.1688 -0.0964
52.8200 -35.1821 -0.0954
52.8400 -35.1954 -0.0974
52.8600 -35.2087 -0.0951
52.8800 -35.2221 -0.0959
52.9000 -35.2354 -0.0965
52.9200 -35.2487 -0.0982
52.9400 -35.2620 -0.0996
52.9600 -35.2753 -0.0974
52.9800 -35.2887 -0.0942
53.0000 -35.3020 -0.0965
53.0200 -35.3154 -0.0964
53.0400 -35.3287 -0.0950
53.0600 -35.3421 -0.0952
53.0800 -35.3555 -0.0944
53.1000 -35.3688 -0.0953
53.1200 -35.3821 -0.0960
53.1400 -35.3954 -0.0992
53.1600 -35.4088 -0.0975
53.1800 -35.4221 -0.1000
53.2000 -35.4354 -0.0995
53.2200 -35.4487 -0.0964
53.2400 -35.4620 -0.0966
53.2600 -35.4754 -0.0992
53.2800 -35.4887 -0.0974
53.3000 -35.5020 -0.0988
53.3200 -35.5153 -0.0990
53.3400 -35.5287 -0.0977
53.3600 -35.5421 -0.0975
53.3800 -35.5554 -0.0998
53.4000 -35.5687 -0.0981
53.4200 -35.5821 -0.1006
53.4400 -35.5954 -0.0992
53.4600 -35.6087 -0.0963
53.4800 -35.6220 -0.0983
53.5000 -35.6353 -0.0995
53.5200 -35.6487 -0.0965
53.5400 -35.6621 -0.0987
53.5600 -35.6754 -0.0981
53.5800 -35.6887 -0.0982
53.6000 -35.7021 -0.0988
53.6200 -35.7154 -0.0999
53.6400 -35.7288 -0.0974
53.6600 -35.7420 -0.0972
53.6800 -35.7554 -0.0993
53.7000 -35.7687 -0.0951
53.7200 -35.7820 -0.0966
53.7400 -35.7954 -0.0965
53.7600 -35.8087 -0.0966
53.7800 -35.8221 -0.0958
53.8000 -35.8355 -0.0972
53.8200 -35.8488 -0.0946
53.8400 -35.8621 -0.0974
53.8600 -35.8754 -0.0978
53.8800 -35.8888 -0.0958
53.9000 -35.9021 -0.0963
53.9200 -35.9154 -0.0978
53.9400 -35.9288 -0.0950
53.9600 -35.9421 -0.0952
53.9800 -35.9554 -0.0982
54.0000 -35.9687 -0.0976
54.0200 -35.9820 -0.1001
54.0400 -35.9953 -0.0980
54.0600 -36.0087 -0.0987
54.0800 -36.0221 -0.0967
54.1000 -36.0354 -0.1001
54.1200 -36.0487 -0.0967
54.1400 -36.0621 -0.0987
54.1600 -36.0754 -0.0990
54.1800 -36.0888 -0.0991
54.2000 -36.1021 -0.0970
54.2200 -36.1154 -0.0999
54.2400 -36.1288 -0.0964
54.2600 -36.1421 -0.0974
54.2800 -36.1554 -0.0967
54.3000 -36.1687 -0.0947
54.3200 -36.1821 -0.0966
54.3400 -36.1954 -0.0994
54.3600 -36.2087 -0.0964
54.3800 -36.2220 -0.0973
54.4000 -36.2353 -0.0980
54.4200 -36.2487 -0.0960
54.4400 -36.2621 -0.0962
54.4600 -36.2754 -0.1008
54.4800 -36.2887 -0.0968
54.5000 -36.3020 -0.0961
54.5200 -36.3154 -0.0979
54.5400 -36.3288 -0.0949
54.5600 -36.3421 -0.0949
54.5800 -36.3554 -0.0968
54.6000 -36.3688 -0.0960
54.6200 -36.3821 -0.0978
54.6400 -36.3954 -0.0990
54.6600 -36.4087 -0.0971
54.6800 -36.4221 -0.0994
54.7000 -36.4354 -0.0967
54.7200 -36.4487 -0.0968
54.7400 -36.4620 -0.0981
54.7600 -36.4753 -0.1020
54.7800 -36.4887 -0.0979
54.8000 -36.5021 -0.1002
54.8200 -36.5154 -0.0981
54.8400 -36.5287 -0.0994
54.8600 -36.5421 -0.0991
54.8800 -36.5555 -0.1004
54.9000 -36.5688 -0.0975
54.9200 -36.5821 -0.0994
54.9400 -36.5954 -0.0981
54.9600 -36.6087 -0.0990
54.9800 -36.6221 -0.0988
55.0000 -36.6354 -0.1007
55.0200 -36.6487 -0.0974
55.0400 -36.6621 -0.0994
55.0600 -36.6754 -0.1004
55.0800 -36.6887 -0.0986
55.1000 -36.7020 -0.1005
55.1200 -36.7154 -0.1009
55.1400 -36.7287 -0.0982
55.1600 -36.7421 -0.0990
55.1800 -36.7554 -0.0984
55.2000 -36.7687 -0.0978
55.2200 -36.7821 -0.0993
55.2400 -36.7954 -0.1007
55.2600 -36.8088 -0.0977
55.2800 -36.8221 -0.0996
55.3000 -36.8354 -0.0988
55.3200 -36.8487 -0.0983
55.3400 -36.8621 -0.0978
55.3600 -36.8754 -0.1000
55.3800 -36.8887 -0.0990
55.4000 -36.9020 -0.0997
55.4200 -36.9154 -0.0989
55.4400 -36.9287 -0.0983
55.4600 -36.9420 -0.1000
55.4800 -36.9554 -0.0983
55.5000 -36.9687 -0.0994
55.5200 -36.9821 -0.0987
55.5400 -36.9954 -0.1005
55.5600 -37.0087 -0.0989
55.5800 -37.0221 -0.1001
55.6000 -37.0354 -0.1002
55.6200 -37.0488 -0.1007
55.6400 -37.0621 -0.0984
55.6600 -37.0754 -0.1005
55.6800 -37.0887 -0.0979
55.7000 -37.1021 -0.0989
55.7200 -37.1154 -0.0984
55.7400 -37.1287 -0.0982
55.7600 -37.1421 -0.0986
55.7800 -37.1554 -0.0987
55.8000 -37.1688 -0.1003
55.8200 -37.1820 -0.0968
55.8400 -37.1954 -0.0982
55.8600 -37.2087 -0.0984
55.8800 -37.2220 -0.1001
55.9000 -37.2353 -0.0996
55.9200 -37.2486 -0.0989
55.9400 -37.2620 -0.0974
55.9600 -37.2754 -0.0988
55.9800 -37.2888 -0.0971
56.0000 -37.3021 -0.0968
56.0200 -37.3154 -0.0970
56.0400 -37.3288 -0.0972
56.0600 -37.3422 -0.0962
56.0800 -37.3555 -0.0974
56.1000 -37.3687 -0.0962
56.1200 -37.3820 -0.0976
56.1400 -37.3954 -0.0995
56.1600 -37.4087 -0.0991
56.1800 -37.4220 -0.0983
56.2000 -37.4353 -0.0972
56.2200 -37.4487 -0.0965
56.2400 -37.4621 -0.0980
56.2600 -37.4754 -0.1019
56.2800 -37.4887 -0.0985
56.3000 -37.5021 -0.1002
56.3200 -37.5154 -0.0982
56.3400 -37.5288 -0.1005
56.3600 -37.5421 -0.0981
56.3800 -37.5554 -0.0993
56.4000 -37.5688 -0.0968
56.4200 -37.5821 -0.0976
56.4400 -37.5954 -0.0975
56.4600 -37.6087 -0.0980
56.4800 -37.6221 -0.0986
56.5000 -37.6354 -0.1009
56.5200 -37.6487 -0.0993
56.5400 -37.6620 -0.0998
56.5600 -37.6753 -0.0982
56.5800 -37.6887 -0.0986
56.6000 -37.7020 -0.0990
56.6200 -37.7154 -0.0998
56.6400 -37.7287 -0.0972
56.6600 -37.7421 -0.0980
56.6800 -37.7554 -0.0975
56.7000 -37.7688 -0.0990
56.7200 -37.7821 -0.0990
56.7400 -37.7954 -0.0997
56.7600 -37.8088 -0.0968
56.7800 -37.8221 -0.0995
56.8000 -37.8355 -0.0972
56.8200 -37.8488 -0.0969
56.8400 -37.8621 -0.0990
56.8600 -37.8754 -0.0993
56.8800 -37.8887 -0.0997
56.9000 -37.9020 -0.0985
56.9200 -37.9153 -0.1010
56.9400 -37.9286 -0.0994
56.9600 -37.9420 -0.1015
56.9800 -37.9554 -0.1014
57.0000 -37.9687 -0.1012
57.0200 -37.9820 -0.1007
57.0400 -37.9954 -0.0999
57.0600 -38.0088 -0.0997
57.0800 -38.0221 -0.0991
57.1000 -38.0355 -0.0999
57.1200 -38.0488 -0.1002
57.1400 -38.0621 -0.0988
57.1600 -38.0754 -0.1013
57.1800 -38.0887 -0.1001
57.2000 -38.1021 -0.0988
57.2200 -38.1154 -0.0991
57.2400 -38.1288 -0.1000
57.2600 -38.1420 -0.0984
57.2800 -38.1553 -0.1017
57.3000 -38.1687 -0.0980
57.3200 -38.1820 -0.1012
57.3400 -38.1954 -0.0978
57.3600 -38.2087 -0.0994
57.3800 -38.2220 -0.0991
57.4000 -38.2354 -0.0995
57.4200 -38.2488 -0.0986
57.4400 -38.2621 -0.0977
57.4600 -38.2754 -0.0984
57.4800 -38.2887 -0.0981
57.5000 -38.3021 -0.0979
57.5200 -38.3155 -0.0996
57.5400 -38.3288 -0.0998
57.5600 -38.3421 -0.0974
57.5800 -38.3554 -0.0976
57.6000 -38.3688 -0.0989
57.6200 -38.3820 -0.0999
57.6400 -38.3953 -0.0993
57.6600 -38.4087 -0.0999
57.6800 -38.4220 -0.1002
57.7000 -38.4354 -0.0995
57.7200 -38.4487 -0.1005
57.7400 -38.4620 -0.0994
57.7600 -38.4754 -0.0999
57.7800 -38.4888 -0.0995
57.8000 -38.5021 -0.1002
57.8200 -38.5154 -0.1015
57.8400 -38.5287 -0.1000
57.8600 -38.5421 -0.0994
57.8800 -38.5555 -0.0998
57.9000 -38.5688 -0.1000
57.9200 -38.5821 -0.1006
57.9400 -38.5954 -0.0985
57.9600 -38.6088 -0.1004
57.9800 -38.6220 -0.1000
58.0000 -38.6353 -0.1000
58.0200 -38.6487 -0.1026
58.0400 -38.6620 -0.1030
58.0600 -38.6754 -0.1031
58.0800 -38.6887 -0.1014
58.1000 -38.7020 -0.1006
58.1200 -38.7154 -0.1004
58.1400 -38.7288 -0.0997
58.1600 -38.7421 -0.0994
58.1800 -38.7555 -0.0994
58.2000 -38.7688 -0.1005
58.2200 -38.7821 -0.0988
58.2400 -38.7955 -0.0989
58.2600 -38.8087 -0.0975
58.2800 -38.8220 -0.0991
58.3000 -38.8353 -0.0987
58.3200 -38.8486 -0.1014
58.3400 -38.8620 -0.1001
58.3600 -38.8753 -0.0999
58.3800 -38.8887 -0.1007
58.4000 -38.9020 -0.1008
58.4200 -38.9154 -0.0991
58.4400 -38.9287 -0.1000
58.4600 -38.9421 -0.1011
58.4800 -38.9554 -0.1002
58.5000 -38.9688 -0.1014
58.5200 -38.9821 -0.1006
58.5400 -38.9954 -0.1005
58.5600 -39.0087 -0.1001
58.5800 -39.0221 -0.1004
58.6000 -39.0355 -0.1005
58.6200 -39.0488 -0.1017
58.6400 -39.0621 -0.1023
58.6600 -39.0754 -0.1017
58.6800 -39.0888 -0.1015
58.7000 -39.1021 -0.1015
58.7200 -39.1154 -0.1019
58.7400 -39.1287 -0.1025
58.7600 -39.1420 -0.1005
58.7800 -39.1554 -0.1017
58.8000 -39.1687 -0.1018
58.8200 -39.1820 -0.1027
58.8400 -39.1954 -0.1016
58.8600 -39.2088 -0.1027
58.8800 -39.2221 -0.1032
58.9000 -39.2354 -0.1043
58.9200 -39.2487 -0.1008
58.9400 -39.2621 -0.1050
58.9600 -39.2754 -0.1012
58.9800 -39.2887 -0.1022
59.0000 -39.3021 -0.1013
59.0200 -39.3154 -0.1022
59.0400 -39.3288 -0.1012
59.0600 -39.3421 -0.1029
59.0800 -39.3554 -0.1005
59.1000 -39.3687 -0.1023
59.1200 -39.3820 -0.1002
59.1400 -39.3954 -0.1010
59.1600 -39.4087 -0.1002
59.1800 -39.4221 -0.1020
59.2000 -39.4354 -0.1015
59.2200 -39.4488 -0.1020
59.2400 -39.4621 -0.1020
59.2600 -39.4754 -0.1010
59.2800 -39.4887 -0.1024
59.3000 -39.5021 -0.1006
59.3200 -39.5154 -0.1015
59.3400 -39.5287 -0.1003
59.3600 -39.5420 -0.1004
59.3800 -39.5554 -0.1006
59.4000 -39.5687 -0.1032
59.4200 -39.5820 -0.1001
59.4400 -39.5953 -0.1012
59.4600 -39.6087 -0.1005
59.4800 -39.6221 -0.1022
59.5000 -39.6354 -0.0995
59.5200 -39.6487 -0.1018
59.5400 -39.6621 -0.1015
59.5600 -39.6754 -0.1009
59.5800 -39.6888 -0.1023
59.6000 -39.7021 -0.1018
59.6200 -39.7154 -0.1024
59.6400 -39.7287 -0.1022
59.6600 -39.7421 -0.1009
59.6800 -39.7555 -0.1009
59.7000 -39.7688 -0.1008
59.7200 -39.7821 -0.1037
59.7400 -39.7954 -0.1028
59.7600 -39.8087 -0.1042
59.7800 -39.8220 -0.1018
59.8000 -39.8353 -0.1021
59.8200 -39.8486 -0.1010
59.8400 -39.8620 -0.1022
59.8600 -39.8754 -0.1022
59.8800 -39.8887 -0.1039
59.9000 -39.9020 -0.1019
59.9200 -39.9154 -0.1032
59.9400 -39.9288 -0.1026
59.9600 -39.9421 -0.1044
59.9800 -39.9555 -0.1031
60.0000 -39.9688 -0.1036
60.0200 -39.9821 -0.1040
60.0400 -39.9955 -0.1018
60.0470 -40.0000 -0.0996
