Raw Data
Time Displacement Force
(s) (mm) (N)
0.0000 0.0000 0.5362
0.0200 0.0000 0.5538
0.0400 0.0010 0.5921
0.0600 0.0046 0.6106
0.0800 0.0101 0.6052
0.1000 0.0158 0.6401
0.1200 0.0219 0.6872
0.1400 0.0288 0.7120
0.1600 0.0362 0.7246
0.1800 0.0437 0.7392
0.2000 0.0508 0.7271
0.2200 0.0577 0.7285
0.2400 0.0643 0.7409
0.2600 0.0708 0.7319
0.2800 0.0775 0.7413
0.3000 0.0843 0.7408
0.3200 0.0910 0.7273
0.3400 0.0977 0.7413
0.3600 0.1044 0.7363
0.3800 0.1111 0.7305
0.4000 0.1178 0.7490
0.4200 0.1244 0.7297
0.4400 0.1310 0.7335
0.4600 0.1377 0.7413
0.4800 0.1444 0.7291
0.5000 0.1511 0.7369
0.5200 0.1577 0.7414
0.5400 0.1644 0.7230
0.5600 0.1711 0.7372
0.5800 0.1778 0.7351
0.6000 0.1844 0.7284
0.6200 0.1910 0.7392
0.6400 0.1976 0.7374
0.6600 0.2043 0.7271
0.6800 0.2111 0.7412
0.7000 0.2178 0.7307
0.7200 0.2244 0.7343
0.7400 0.2311 0.7373
0.7600 0.2378 0.7319
0.7800 0.2444 0.7368
0.8000 0.2510 0.7353
0.8200 0.2576 0.7343
0.8400 0.2643 0.7349
0.8600 0.2710 0.7329
0.8800 0.2777 0.7288
0.9000 0.2844 0.7338
0.9200 0.2911 0.7305
0.9400 0.2977 0.7317
0.9600 0.3044 0.7340
0.9800 0.3110 0.7319
1.0000 0.3176 0.7289
1.0200 0.3243 0.7314
1.0400 0.3310 0.7247
1.0600 0.3377 0.7326
1.0800 0.3444 0.7289
1.1000 0.3511 0.7245
1.1200 0.3578 0.7243
1.1400 0.3644 0.7261
1.1600 0.3710 0.7233
1.1800 0.3777 0.7266
1.2000 0.3844 0.7235
1.2200 0.3911 0.7191
1.2400 0.3978 0.7232
1.2600 0.4045 0.7247
1.2800 0.4111 0.7194
1.3000 0.4178 0.7231
1.3200 0.4244 0.7170
1.3400 0.4310 0.7149
1.3600 0.4377 0.7236
1.3800 0.4444 0.7155
1.4000 0.4511 0.7147
1.4200 0.4578 0.7144
1.4400 0.4644 0.7166
1.4600 0.4711 0.7141
1.4800 0.4778 0.7106
1.5000 0.4844 0.7101
1.5200 0.4910 0.7168
1.5400 0.4976 0.7073
1.5600 0.5043 0.7120
1.5800 0.5110 0.7101
1.6000 0.5177 0.7039
1.6200 0.5244 0.7098
1.6400 0.5311 0.7108
1.6600 0.5378 0.6988
1.6800 0.5444 0.7132
1.7000 0.5509 0.7055
1.7200 0.5576 0.7004
1.7400 0.5643 0.7096
1.7600 0.5710 0.7056
1.7800 0.5777 0.6982
1.8000 0.5844 0.7081
1.8200 0.5911 0.6980
1.8400 0.5977 0.6913
1.8600 0.6044 0.7105
1.8800 0.6110 0.6942
1.9000 0.6176 0.6951
1.9200 0.6243 0.7049
1.9400 0.6311 0.6907
1.9600 0.6377 0.6911
1.9800 0.6444 0.7001
2.0000 0.6511 0.6900
2.0200 0.6578 0.6875
2.0400 0.6644 0.6908
2.0600 0.6710 0.6868
2.0800 0.6776 0.6851
2.1000 0.6843 0.6915
2.1200 0.6910 0.6798
2.1400 0.6977 0.6802
2.1600 0.7044 0.6862
2.1800 0.7111 0.6791
2.2000 0.7178 0.6761
2.2200 0.7244 0.6815
2.2400 0.7310 0.6835
2.2600 0.7377 0.6747
2.2800 0.7443 0.6776
2.3000 0.7511 0.6760
2.3200 0.7577 0.6702
2.3400 0.7644 0.6763
2.3600 0.7711 0.6733
2.3800 0.7778 0.6611
2.4000 0.7844 0.6752
2.4200 0.7910 0.6775
2.4400 0.7976 0.6594
2.4600 0.8043 0.6695
2.4800 0.8110 0.6773
2.5000 0.8177 0.6550
2.5200 0.8244 0.6718
2.5400 0.8311 0.6703
2.5600 0.8377 0.6583
2.5800 0.8444 0.6658
2.6000 0.8510 0.6637
2.6200 0.8576 0.6518
2.6400 0.8643 0.6707
2.6600 0.8710 0.6626
2.6800 0.8777 0.6434
2.7000 0.8844 0.6648
2.7200 0.8911 0.6616
2.7400 0.8978 0.6466
2.7600 0.9044 0.6570
2.7800 0.9110 0.6555
2.8000 0.9176 0.6456
2.8200 0.9243 0.6603
2.8400 0.9311 0.6551
2.8600 0.9378 0.6383
2.8800 0.9444 0.6565
2.9000 0.9511 0.6522
2.9200 0.9578 0.6324
2.9400 0.9644 0.6533
2.9600 0.9710 0.6510
2.9800 0.9777 0.6356
3.0000 0.9843 0.6488
3.0200 0.9910 0.6520
3.0400 0.9977 0.6284
3.0600 1.0044 0.6509
3.0800 1.0111 0.6423
3.1000 1.0177 0.6351
3.1200 1.0244 0.6440
3.1400 1.0310 0.6407
3.1600 1.0376 0.6318
3.1800 1.0443 0.6429
3.2000 1.0510 0.6385
3.2200 1.0577 0.6332
3.2400 1.0644 0.6430
3.2600 1.0711 0.6411
3.2800 1.0778 0.6320
3.3000 1.0844 0.6422
3.3200 1.0910 0.6372
3.3400 1.0977 0.6331
3.3600 1.1044 0.6388
3.3800 1.1111 0.6307
3.4000 1.1178 0.6283
3.4200 1.1245 0.6351
3.4400 1.1311 0.6378
3.4600 1.1378 0.6272
3.4800 1.1444 0.6330
3.5000 1.1510 0.6312
3.5200 1.1577 0.6323
3.5400 1.1643 0.6292
3.5600 1.1711 0.6322
3.5800 1.1778 0.6319
3.6000 1.1844 0.6226
3.6200 1.1911 0.6288
3.6400 1.1978 0.6321
3.6600 1.2044 0.6214
3.6800 1.2110 0.6253
3.7000 1.2176 0.6310
3.7200 1.2243 0.6250
3.7400 1.2310 0.6227
3.7600 1.2377 0.6256
3.7800 1.2444 0.6205
3.8000 1.2511 0.6265
3.8200 1.2578 0.6263
3.8400 1.2644 0.6143
3.8600 1.2710 0.6275
3.8800 1.2776 0.6212
3.9000 1.2843 0.6132
3.9200 1.2910 0.6239
3.9400 1.2977 0.6162
3.9600 1.3044 0.6116
3.9800 1.3110 0.6203
4.0000 1.3177 0.6161
4.0200 1.3244 0.6098
4.0400 1.3310 0.6181
4.0600 1.3377 0.6107
4.0800 1.3443 0.6053
4.1000 1.3510 0.6226
4.1200 1.3577 0.6024
4.1400 1.3644 0.6096
4.1600 1.3711 0.6180
4.1800 1.3778 0.5989
4.2000 1.3845 0.6027
4.2200 1.3911 0.6197
4.2400 1.3977 0.6038
4.2600 1.4043 0.6032
4.2800 1.4111 0.6087
4.3000 1.4178 0.6005
4.3200 1.4244 0.6048
4.3400 1.4311 0.6047
4.3600 1.4378 0.5968
4.3800 1.4444 0.6017
4.4000 1.4510 0.6024
4.4200 1.4576 0.5991
4.4400 1.4643 0.6034
4.4600 1.4710 0.5988
4.4800 1.4777 0.5973
4.5000 1.4844 0.5960
4.5200 1.4910 0.5982
4.5400 1.4977 0.5979
4.5600 1.5044 0.5949
4.5800 1.5110 0.5916
4.6000 1.5177 0.5979
4.6200 1.5243 0.5871
4.6400 1.5310 0.5951
4.6600 1.5377 0.5925
4.6800 1.5444 0.5866
4.7000 1.5511 0.5919
4.7200 1.5578 0.5907
4.7400 1.5645 0.5849
4.7600 1.5711 0.5905
4.7800 1.5777 0.5878
4.8000 1.5843 0.5795
4.8200 1.5910 0.5844
4.8400 1.5977 0.5863
4.8600 1.6044 0.5841
4.8800 1.6111 0.5849
4.9000 1.6178 0.5794
4.9200 1.6244 0.5821
4.9400 1.6310 0.5851
4.9600 1.6376 0.5763
4.9800 1.6443 0.5816
5.0000 1.6510 0.5797
5.0200 1.6577 0.5747
5.0400 1.6644 0.5816
5.0600 1.6711 0.5781
5.0800 1.6778 0.5725
5.1000 1.6845 0.5840
5.1200 1.6911 0.5663
5.1400 1.6977 0.5718
5.1600 1.7043 0.5856
5.1800 1.7110 0.5676
5.2000 1.7177 0.5685
5.2200 1.7244 0.5825
5.2400 1.7311 0.5632
5.2600 1.7378 0.5707
5.2800 1.7445 0.5754
5.3000 1.7510 0.5595
5.3200 1.7576 0.5716
5.3400 1.7643 0.5728
5.3600 1.7710 0.5561
5.3800 1.7777 0.5711
5.4000 1.7844 0.5721
5.4200 1.7911 0.5502
5.4400 1.7977 0.5727
5.4600 1.8044 0.5664
5.4800 1.8110 0.5522
5.5000 1.8177 0.5759
5.5200 1.8243 0.5627
5.5400 1.8310 0.5491
5.5600 1.8377 0.5708
5.5800 1.8444 0.5593
5.6000 1.8511 0.5566
5.6200 1.8578 0.5668
5.6400 1.8645 0.5577
5.6600 1.8711 0.5532
5.6800 1.8777 0.5630
5.7000 1.8843 0.5580
5.7200 1.8910 0.5553
5.7400 1.8977 0.5587
5.7600 1.9044 0.5523
5.7800 1.9111 0.5510
5.8000 1.9178 0.5566
5.8200 1.9245 0.5520
5.8400 1.9311 0.5501
5.8600 1.9377 0.5557
5.8800 1.9443 0.5550
5.9000 1.9510 0.5510
5.9200 1.9578 0.5532
5.9400 1.9644 0.5536
5.9600 1.9711 0.5447
5.9800 1.9778 0.5536
6.0000 1.9844 0.5547
6.0200 1.9910 0.5472
6.0400 1.9976 0.5478
6.0600 2.0043 0.5567
6.0800 2.0110 0.5386
6.1000 2.0177 0.5480
6.1200 2.0244 0.5523
6.1400 2.0310 0.5402
6.1600 2.0377 0.5455
6.1800 2.0444 0.5469
6.2000 2.0510 0.5359
6.2200 2.0577 0.5466
6.2400 2.0643 0.5469
6.2600 2.0710 0.5325
6.2800 2.0777 0.5431
6.3000 2.0844 0.5474
6.3200 2.0911 0.5291
6.3400 2.0978 0.5438
6.3600 2.1045 0.5480
6.3800 2.1111 0.5257
6.4000 2.1177 0.5425
6.4200 2.1243 0.5450
6.4400 2.1311 0.5258
6.4600 2.1378 0.5417
6.4800 2.1445 0.5411
6.5000 2.1511 0.5218
6.5200 2.1578 0.5450
6.5400 2.1644 0.5363
6.5600 2.1711 0.5214
6.5800 2.1777 0.5396
6.6000 2.1843 0.5415
6.6200 2.1910 0.5176
6.6400 2.1977 0.5406
6.6600 2.2044 0.5355
6.6800 2.2111 0.5169
6.7000 2.2177 0.5365
6.7200 2.2244 0.5326
6.7400 2.2311 0.5164
6.7600 2.2377 0.5341
6.7800 2.2443 0.5297
6.8000 2.2510 0.5209
6.8200 2.2577 0.5264
6.8400 2.2644 0.5275
6.8600 2.2711 0.5168
6.8800 2.2778 0.5315
6.9000 2.2845 0.5237
6.9200 2.2911 0.5129
6.9400 2.2977 0.5276
6.9600 2.3043 0.5167
6.9800 2.3110 0.5177
7.0000 2.3177 0.5273
7.0200 2.3244 0.5180
7.0400 2.3311 0.5113
7.0600 2.3378 0.5295
7.0800 2.3445 0.5118
7.1000 2.3511 0.5136
7.1200 2.3577 0.5260
7.1400 2.3644 0.5137
7.1600 2.3710 0.5096
7.1800 2.3777 0.5236
7.2000 2.3844 0.5139
7.2200 2.3911 0.5110
7.2400 2.3978 0.5170
7.2600 2.4045 0.5085
7.2800 2.4111 0.5086
7.3000 2.4177 0.5237
7.3200 2.4243 0.5099
7.3400 2.4310 0.5055
7.3600 2.4377 0.5164
7.3800 2.4444 0.5078
7.4000 2.4511 0.5006
7.4200 2.4578 0.5182
7.4400 2.4644 0.5071
7.4600 2.4710 0.5001
7.4800 2.4776 0.5140
7.5000 2.4843 0.5040
7.5200 2.4910 0.5009
7.5400 2.4977 0.5107
7.5600 2.5044 0.4982
7.5800 2.5110 0.4956
7.6000 2.5177 0.5126
7.6200 2.5244 0.4966
7.6400 2.5310 0.4989
7.6600 2.5377 0.5102
7.6800 2.5443 0.4966
7.7000 2.5510 0.4971
7.7200 2.5577 0.5028
7.7400 2.5644 0.4960
7.7600 2.5711 0.5034
7.7800 2.5778 0.4964
7.8000 2.5845 0.4962
7.8200 2.5911 0.4947
7.8400 2.5977 0.4951
7.8600 2.6043 0.4964
7.8800 2.6110 0.4938
7.9000 2.6177 0.4953
7.9200 2.6244 0.4976
7.9400 2.6311 0.4904
7.9600 2.6378 0.4922
7.9800 2.6445 0.4974
8.0000 2.6511 0.4905
8.0200 2.6577 0.4942
8.0400 2.6643 0.4911
8.0600 2.6710 0.4876
8.0800 2.6777 0.4971
8.1000 2.6844 0.4878
8.1200 2.6911 0.4843
8.1400 2.6977 0.4965
8.1600 2.7044 0.4863
8.1800 2.7111 0.4840
8.2000 2.7177 0.4898
8.2200 2.7243 0.4864
8.2400 2.7310 0.4902
8.2600 2.7377 0.4889
8.2800 2.7444 0.4822
8.3000 2.7510 0.4911
8.3200 2.7577 0.4858
8.3400 2.7644 0.4822
8.3600 2.7710 0.4855
8.3800 2.7777 0.4856
8.4000 2.7843 0.4813
8.4200 2.7910 0.4789
8.4400 2.7977 0.4732
8.4600 2.8044 0.4918
8.4800 2.8111 0.4836
8.5000 2.8178 0.4707
8.5200 2.8245 0.4851
8.5400 2.8311 0.4797
8.5600 2.8377 0.4729
8.5800 2.8443 0.4866
8.6000 2.8510 0.4799
8.6200 2.8577 0.4739
8.6400 2.8645 0.4824
8.6600 2.8711 0.4716
8.6800 2.8778 0.4756
8.7000 2.8844 0.4847
8.7200 2.8911 0.4710
8.7400 2.8977 0.4679
8.7600 2.9043 0.4815
8.7800 2.9110 0.4682
8.8000 2.9177 0.4705
8.8200 2.9244 0.4787
8.8400 2.9311 0.4679
8.8600 2.9377 0.4712
8.8800 2.9444 0.4735
8.9000 2.9511 0.4638
8.9200 2.9577 0.4715
8.9400 2.9643 0.4726
8.9600 2.9709 0.4638
8.9800 2.9777 0.4723
9.0000 2.9844 0.4656
9.0200 2.9911 0.4579
9.0400 2.9978 0.4723
9.0600 3.0044 0.4672
9.0800 3.0111 0.4622
9.1000 3.0177 0.4690
9.1200 3.0243 0.4596
9.1400 3.0310 0.4637
9.1600 3.0377 0.4650
9.1800 3.0444 0.4557
9.2000 3.0511 0.4684
9.2200 3.0577 0.4657
9.2400 3.0644 0.4491
9.2600 3.0711 0.4635
9.2800 3.0777 0.4644
9.3000 3.0843 0.4566
9.3200 3.0910 0.4611
9.3400 3.0977 0.4551
9.3600 3.1044 0.4485
9.3800 3.1111 0.4712
9.4000 3.1178 0.4514
9.4200 3.1245 0.4495
9.4400 3.1311 0.4595
9.4600 3.1377 0.4464
9.4800 3.1443 0.4472
9.5000 3.1510 0.4669
9.5200 3.1577 0.4492
9.5400 3.1644 0.4463
9.5600 3.1711 0.4547
9.5800 3.1778 0.4388
9.6000 3.1844 0.4513
9.6200 3.1911 0.4590
9.6400 3.1977 0.4329
9.6600 3.2043 0.4492
9.6800 3.2110 0.4594
9.7000 3.2176 0.4264
9.7200 3.2243 0.4476
9.7400 3.2310 0.4614
9.7600 3.2377 0.4342
9.7800 3.2444 0.4377
9.8000 3.2511 0.4498
9.8200 3.2577 0.4333
9.8400 3.2643 0.4414
9.8600 3.2710 0.4475
9.8800 3.2777 0.4303
9.9000 3.2844 0.4352
9.9200 3.2911 0.4425
9.9400 3.2978 0.4272
9.9600 3.3045 0.4402
9.9800 3.3112 0.4455
10.0000 3.3178 0.4195
10.0200 3.3243 0.4282
10.0400 3.3310 0.4466
10.0600 3.3377 0.4277
10.0800 3.3444 0.4320
10.1000 3.3511 0.4424
10.1200 3.3578 0.4128
10.1400 3.3644 0.4315
10.1600 3.3711 0.4458
10.1800 3.3777 0.4141
10.2000 3.3843 0.4307
10.2200 3.3910 0.4396
10.2400 3.3977 0.4131
10.2600 3.4044 0.4324
10.2800 3.4110 0.4417
10.3000 3.4177 0.4135
10.3200 3.4244 0.4289
10.3400 3.4311 0.4374
10.3600 3.4377 0.4106
10.3800 3.4443 0.4406
10.4000 3.4509 0.4344
10.4200 3.4576 0.4104
10.4400 3.4643 0.4376
10.4600 3.4710 0.4299
10.4800 3.4777 0.4116
10.5000 3.4844 0.4413
10.5200 3.4911 0.4237
10.5400 3.4977 0.4117
10.5600 3.5043 0.4401
10.5800 3.5110 0.4216
10.6000 3.5177 0.4116
10.6200 3.5244 0.4387
10.6400 3.5311 0.4197
10.6600 3.5378 0.4113
10.6800 3.5445 0.4362
10.7000 3.5511 0.4185
10.7200 3.5578 0.4180
10.7400 3.5644 0.4283
10.7600 3.5710 0.4202
10.7800 3.5777 0.4171
10.8000 3.5844 0.4319
10.8200 3.5911 0.4169
10.8400 3.5978 0.4111
10.8600 3.6045 0.4321
10.8800 3.6111 0.4162
10.9000 3.6177 0.4075
10.9200 3.6243 0.4282
10.9400 3.6310 0.4180
10.9600 3.6376 0.4101
10.9800 3.6444 0.4199
11.0000 3.6511 0.4166
11.0200 3.6577 0.4047
11.0400 3.6644 0.4256
11.0600 3.6711 0.4131
11.0800 3.6777 0.3998
11.1000 3.6843 0.4278
11.1200 3.6909 0.4104
11.1400 3.6976 0.4002
11.1600 3.7044 0.4237
11.1800 3.7111 0.4101
11.2000 3.7177 0.3992
11.2200 3.7244 0.4184
11.2400 3.7311 0.4064
11.2600 3.7378 0.3980
11.2800 3.7444 0.4176
11.3000 3.7510 0.4112
11.3200 3.7577 0.3973
11.3400 3.7644 0.4106
11.3600 3.7711 0.4033
11.3800 3.7778 0.4048
11.4000 3.7845 0.4087
11.4200 3.7912 0.4040
11.4400 3.7978 0.3935
11.4600 3.8043 0.4054
11.4800 3.8110 0.4138
11.5000 3.8177 0.4038
11.5200 3.8244 0.3967
11.5400 3.8311 0.3988
11.5600 3.8378 0.4026
11.5800 3.8445 0.4026
11.6000 3.8511 0.3997
11.6200 3.8577 0.4024
11.6400 3.8644 0.3976
11.6600 3.8710 0.3975
11.6800 3.8777 0.3999
11.7000 3.8844 0.4077
11.7200 3.8911 0.3989
11.7400 3.8977 0.3847
11.7600 3.9044 0.3948
11.7800 3.9111 0.4029
11.8000 3.9177 0.4007
11.8200 3.9243 0.3913
11.8400 3.9309 0.3880
11.8600 3.9376 0.3961
11.8800 3.9443 0.3975
11.9000 3.9510 0.3920
11.9200 3.9577 0.3996
11.9400 3.9644 0.3843
11.9600 3.9711 0.3938
11.9800 3.9777 0.3942
12.0000 3.9843 0.3867
12.0200 3.9910 0.3952
12.0400 3.9977 0.3933
12.0600 4.0044 0.3827
12.0800 4.0111 0.3949
12.1000 4.0178 0.3906
12.1200 4.0245 0.3843
12.1400 4.0311 0.3940
12.1600 4.0378 0.3856
12.1800 4.0444 0.3807
12.2000 4.0510 0.3908
12.2200 4.0577 0.3860
12.2400 4.0644 0.3811
12.2600 4.0711 0.3931
12.2800 4.0778 0.3905
12.3000 4.0844 0.3726
12.3200 4.0911 0.3830
12.3400 4.0977 0.3963
12.3600 4.1043 0.3862
12.3800 4.1110 0.3827
12.4000 4.1176 0.3787
12.4200 4.1244 0.3766
12.4400 4.1311 0.3920
12.4600 4.1377 0.3922
12.4800 4.1444 0.3688
12.5000 4.1511 0.3813
12.5200 4.1578 0.3773
12.5400 4.1643 0.3712
12.5600 4.1709 0.3966
12.5800 4.1776 0.3865
12.6000 4.1843 0.3472
12.6200 4.1910 0.3718
12.6400 4.1977 0.4024
12.6600 4.2044 0.3792
12.6800 4.2111 0.3702
12.7000 4.2177 0.3649
12.7200 4.2243 0.3719
12.7400 4.2310 0.3843
12.7600 4.2377 0.3780
12.7800 4.2444 0.3752
12.8000 4.2511 0.3745
12.8200 4.2578 0.3543
12.8400 4.2644 0.3630
12.8600 4.2711 0.4032
12.8800 4.2778 0.3813
12.9000 4.2844 0.3426
12.9200 4.2910 0.3664
12.9400 4.2977 0.3769
12.9600 4.3044 0.3816
12.9800 4.3111 0.3731
13.0000 4.3178 0.3618
13.0200 4.3245 0.3553
13.0400 4.3312 0.3639
13.0600 4.3378 0.3712
13.0800 4.3444 0.3764
13.1000 4.3510 0.3683
13.1200 4.3576 0.3586
13.1400 4.3644 0.3605
13.1600 4.3711 0.3649
13.1800 4.3777 0.3727
13.2000 4.3844 0.3757
13.2200 4.3911 0.3521
13.2400 4.3977 0.3485
13.2600 4.4044 0.3631
13.2800 4.4110 0.3663
13.3000 4.4176 0.3682
13.3200 4.4243 0.3616
13.3400 4.4310 0.3475
13.3600 4.4377 0.3524
13.3800 4.4444 0.3667
13.4000 4.4511 0.3662
13.4200 4.4577 0.3573
13.4400 4.4644 0.3513
13.4600 4.4710 0.3519
13.4800 4.4777 0.3514
13.5000 4.4844 0.3562
13.5200 4.4911 0.3676
13.5400 4.4977 0.3686
13.5600 4.5044 0.3268
13.5800 4.5111 0.3358
13.6000 4.5178 0.3850
13.6200 4.5244 0.3660
13.6400 4.5310 0.3328
13.6600 4.5376 0.3633
13.6800 4.5444 0.3411
13.7000 4.5511 0.3296
13.7200 4.5578 0.3830
13.7400 4.5644 0.3567
13.7600 4.5711 0.3268
13.7800 4.5778 0.3506
13.8000 4.5844 0.3356
13.8200 4.5910 0.3565
13.8400 4.5977 0.3785
13.8600 4.6044 0.3247
13.8800 4.6111 0.3250
13.9000 4.6177 0.3546
13.9200 4.6244 0.3503
13.9400 4.6311 0.3476
13.9600 4.6378 0.3562
13.9800 4.6444 0.3200
14.0000 4.6509 0.3310
14.0200 4.6576 0.3625
14.0400 4.6643 0.3466
14.0600 4.6710 0.3267
14.0800 4.6777 0.3494
14.1000 4.6844 0.3369
14.1200 4.6911 0.3247
14.1400 4.6977 0.3551
14.1600 4.7043 0.3461
14.1800 4.7110 0.3217
14.2000 4.7176 0.3421
14.2200 4.7244 0.3408
14.2400 4.7311 0.3267
14.2600 4.7378 0.3496
14.2800 4.7445 0.3340
14.3000 4.7511 0.3198
14.3200 4.7578 0.3505
14.3400 4.7644 0.3349
14.3600 4.7711 0.3248
14.3800 4.7777 0.3551
14.4000 4.7844 0.3262
14.4200 4.7911 0.3197
14.4400 4.7978 0.3537
14.4600 4.8045 0.3307
14.4800 4.8111 0.3204
14.5000 4.8178 0.3537
14.5200 4.8244 0.3240
14.5400 4.8310 0.3230
14.5600 4.8376 0.3571
14.5800 4.8443 0.3313
14.6000 4.8510 0.3159
14.6200 4.8577 0.3508
14.6400 4.8644 0.3241
14.6600 4.8711 0.3258
14.6800 4.8777 0.3489
14.7000 4.8844 0.3186
14.7200 4.8910 0.3199
14.7400 4.8976 0.3559
14.7600 4.9043 0.3234
14.7800 4.9111 0.3182
14.8000 4.9178 0.3536
14.8200 4.9244 0.3158
14.8400 4.9311 0.3201
14.8600 4.9378 0.3478
14.8800 4.9444 0.3196
14.9000 4.9510 0.3254
14.9200 4.9577 0.3441
14.9400 4.9644 0.3198
14.9600 4.9711 0.3274
14.9800 4.9778 0.3403
15.0000 4.9844 0.3200
15.0200 4.9911 0.3251
15.0400 4.9978 0.3370
15.0600 5.0044 0.3192
15.0800 5.0110 0.3294
15.1000 5.0176 0.3294
15.1200 5.0243 0.3270
15.1400 5.0311 0.3233
15.1600 5.0378 0.3252
15.1800 5.0445 0.3227
15.2000 5.0511 0.3235
15.2200 5.0578 0.3208
15.2400 5.0644 0.3162
15.2600 5.0710 0.3238
15.2800 5.0776 0.3278
15.3000 5.0843 0.3208
15.3200 5.0911 0.3202
15.3400 5.0977 0.3194
15.3600 5.1044 0.3215
15.3800 5.1111 0.3220
15.4000 5.1177 0.3163
15.4200 5.1244 0.3194
15.4400 5.1310 0.3224
15.4600 5.1376 0.3183
15.4800 5.1443 0.3097
15.5000 5.1510 0.3254
15.5200 5.1577 0.3147
15.5400 5.1644 0.3169
15.5600 5.1711 0.3190
15.5800 5.1778 0.3137
15.6000 5.1844 0.3138
15.6200 5.1910 0.3195
15.6400 5.1976 0.3105
15.6600 5.2043 0.3146
15.6800 5.2111 0.3183
15.7000 5.2178 0.3056
15.7200 5.2245 0.3066
15.7400 5.2311 0.3205
15.7600 5.2378 0.3085
15.7800 5.2444 0.3061
15.8000 5.2510 0.3187
15.8200 5.2577 0.3089
15.8400 5.2644 0.3046
15.8600 5.2711 0.3129
15.8800 5.2778 0.3096
15.9000 5.2844 0.3049
15.9200 5.2911 0.3107
15.9400 5.2978 0.3049
15.9600 5.3044 0.3047
15.9800 5.3110 0.3117
16.0000 5.3176 0.3092
16.0200 5.3243 0.3015
16.0400 5.3310 0.3102
16.0600 5.3377 0.3045
16.0800 5.3444 0.3064
16.1000 5.3511 0.3043
16.1200 5.3578 0.3004
16.1400 5.3644 0.3029
16.1600 5.3710 0.3083
16.1800 5.3776 0.2970
16.2000 5.3843 0.3000
16.2200 5.3910 0.3059
16.2400 5.3977 0.2935
16.2600 5.4044 0.2970
16.2800 5.4111 0.3059
16.3000 5.4177 0.2924
16.3200 5.4244 0.2942
16.3400 5.4310 0.3020
16.3600 5.4377 0.2970
16.3800 5.4443 0.2994
16.4000 5.4511 0.3015
16.4200 5.4578 0.2901
16.4400 5.4644 0.2878
16.4600 5.4711 0.3048
16.4800 5.4778 0.2891
16.5000 5.4845 0.2866
16.5200 5.4911 0.3004
16.5400 5.4977 0.2881
16.5600 5.5043 0.2848
16.5800 5.5110 0.3046
16.6000 5.5178 0.2853
16.6200 5.5244 0.2813
16.6400 5.5311 0.3016
16.6600 5.5378 0.2792
16.6800 5.5444 0.2822
16.7000 5.5510 0.3045
16.7200 5.5576 0.2768
16.7400 5.5643 0.2789
16.7600 5.5711 0.3004
16.7800 5.5778 0.2814
16.8000 5.5844 0.2763
16.8200 5.5911 0.2965
16.8400 5.5978 0.2714
16.8600 5.6044 0.2772
16.8800 5.6110 0.3050
16.9000 5.6176 0.2694
16.9200 5.6243 0.2766
16.9400 5.6310 0.2972
16.9600 5.6377 0.2726
16.9800 5.6444 0.2754
17.0000 5.6511 0.2987
17.0200 5.6578 0.2664
17.0400 5.6644 0.2681
17.0600 5.6710 0.2954
17.0800 5.6777 0.2753
17.1000 5.6843 0.2727
17.1200 5.6910 0.2942
17.1400 5.6978 0.2629
17.1600 5.7044 0.2757
17.1800 5.7111 0.2898
17.2000 5.7178 0.2664
17.2200 5.7244 0.2741
17.2400 5.7310 0.2944
17.2600 5.7376 0.2651
17.2800 5.7443 0.2752
17.3000 5.7511 0.2928
17.3200 5.7578 0.2621
17.3400 5.7644 0.2739
17.3600 5.7711 0.2890
17.3800 5.7778 0.2675
17.4000 5.7844 0.2734
17.4200 5.7910 0.2871
17.4400 5.7977 0.2658
17.4600 5.8043 0.2765
17.4800 5.8110 0.2883
17.5000 5.8177 0.2617
17.5200 5.8244 0.2733
17.5400 5.8311 0.2882
17.5600 5.8378 0.2599
17.5800 5.8444 0.2789
17.6000 5.8510 0.2805
17.6200 5.8576 0.2592
17.6400 5.8643 0.2736
17.6600 5.8710 0.2886
17.6800 5.8777 0.2616
17.7000 5.8844 0.2708
17.7200 5.8911 0.2804
17.7400 5.8978 0.2618
17.7600 5.9044 0.2719
17.7800 5.9110 0.2777
17.8000 5.9177 0.2598
17.8200 5.9243 0.2743
17.8400 5.9311 0.2687
17.8600 5.9378 0.2620
17.8800 5.9445 0.2792
17.9000 5.9511 0.2654
17.9200 5.9578 0.2582
17.9400 5.9644 0.2742
17.9600 5.9710 0.2669
17.9800 5.9777 0.2640
18.0000 5.9843 0.2755
18.0200 5.9910 0.2555
18.0400 5.9978 0.2592
18.0600 6.0044 0.2713
18.0800 6.0111 0.2666
18.1000 6.0178 0.2599
18.1200 6.0244 0.2634
18.1400 6.0311 0.2588
18.1600 6.0376 0.2634
18.1800 6.0443 0.2685
18.2000 6.0510 0.2602
18.2200 6.0577 0.2524
18.2400 6.0644 0.2668
18.2600 6.0711 0.2630
18.2800 6.0778 0.2589
18.3000 6.0844 0.2648
18.3200 6.0910 0.2594
18.3400 6.0976 0.2515
18.3600 6.1043 0.2647
18.3800 6.1110 0.2604
18.4000 6.1177 0.2466
18.4200 6.1244 0.2577
18.4400 6.1311 0.2582
18.4600 6.1377 0.2526
18.4800 6.1444 0.2583
18.5000 6.1510 0.2609
18.5200 6.1577 0.2446
18.5400 6.1643 0.2555
18.5600 6.1710 0.2586
18.5800 6.1777 0.2461
18.6000 6.1844 0.2528
18.6200 6.1911 0.2578
18.6400 6.1978 0.2405
18.6600 6.2045 0.2536
18.6800 6.2111 0.2607
18.7000 6.2177 0.2417
18.7200 6.2243 0.2462
18.7400 6.2310 0.2639
18.7600 6.2378 0.2409
18.7800 6.2444 0.2391
18.8000 6.2511 0.2545
18.8200 6.2578 0.2388
18.8400 6.2644 0.2411
18.8600 6.2710 0.2583
18.8800 6.2776 0.2405
18.9000 6.2843 0.2345
18.9200 6.2910 0.2503
18.9400 6.2977 0.2382
18.9600 6.3044 0.2420
18.9800 6.3110 0.2511
19.0000 6.3177 0.2352
19.0200 6.3244 0.2322
19.0400 6.3310 0.2503
19.0600 6.3376 0.2364
19.0800 6.3443 0.2431
19.1000 6.3510 0.2433
19.1200 6.3577 0.2246
19.1400 6.3644 0.2413
19.1600 6.3711 0.2538
19.1800 6.3778 0.2194
19.2000 6.3845 0.2387
19.2200 6.3911 0.2417
19.2400 6.3977 0.2239
19.2600 6.4043 0.2399
19.2800 6.4110 0.2432
19.3000 6.4177 0.2188
19.3200 6.4244 0.2324
19.3400 6.4311 0.2364
19.3600 6.4378 0.2243
19.3800 6.4445 0.2411
19.4000 6.4511 0.2306
19.4200 6.4577 0.2170
19.4400 6.4643 0.2391
19.4600 6.4710 0.2336
19.4800 6.4777 0.2205
19.5000 6.4844 0.2336
19.5200 6.4911 0.2230
19.5400 6.4978 0.2245
19.5600 6.5045 0.2306
19.5800 6.5111 0.2224
19.6000 6.5177 0.2202
19.6200 6.5243 0.2314
19.6400 6.5310 0.2217
19.6600 6.5377 0.2179
19.6800 6.5444 0.2294
19.7000 6.5511 0.2257
19.7200 6.5578 0.2159
19.7400 6.5645 0.2285
19.7600 6.5711 0.2206
19.7800 6.5776 0.2204
19.8000 6.5843 0.2305
19.8200 6.5910 0.2194
19.8400 6.5977 0.2084
19.8600 6.6044 0.2310
19.8800 6.6111 0.2237
19.9000 6.6177 0.2076
19.9200 6.6244 0.2256
19.9400 6.6310 0.2169
19.9600 6.6377 0.2123
19.9800 6.6443 0.2317
20.0000 6.6510 0.2196
20.0200 6.6577 0.2065
20.0400 6.6644 0.2316
20.0600 6.6711 0.2184
20.0800 6.6778 0.2050
20.1000 6.6845 0.2265
20.1200 6.6911 0.2189
20.1400 6.6977 0.2076
20.1600 6.7043 0.2290
20.1800 6.7110 0.2148
20.2000 6.7177 0.2092
20.2200 6.7244 0.2203
20.2400 6.7311 0.2165
20.2600 6.7378 0.2131
20.2800 6.7445 0.2158
20.3000 6.7511 0.2115
20.3200 6.7577 0.2130
20.3400 6.7643 0.2162
20.3600 6.7710 0.2160
20.3800 6.7777 0.2122
20.4000 6.7844 0.2125
20.4200 6.7911 0.2101
20.4400 6.7978 0.2134
20.4600 6.8044 0.2116
20.4800 6.8111 0.2128
20.5000 6.8177 0.2166
20.5200 6.8243 0.2044
20.5400 6.8310 0.2070
20.5600 6.8377 0.2159
20.5800 6.8444 0.2125
20.6000 6.8510 0.1989
20.6200 6.8577 0.2083
20.6400 6.8644 0.2112
20.6600 6.8711 0.2078
20.6800 6.8777 0.2031
20.7000 6.8843 0.2114
20.7200 6.8910 0.2021
20.7400 6.8977 0.2042
20.7600 6.9044 0.2101
20.7800 6.9111 0.2047
20.8000 6.9178 0.2047
20.8200 6.9245 0.2067
20.8400 6.9311 0.1989
20.8600 6.9377 0.2042
20.8800 6.9443 0.2107
20.9000 6.9510 0.2006
20.9200 6.9578 0.2001
20.9400 6.9645 0.2085
20.9600 6.9711 0.2048
20.9800 6.9778 0.2031
21.0000 6.9844 0.2038
21.0200 6.9910 0.2013
21.0400 6.9977 0.2085
21.0600 7.0043 0.1995
21.0800 7.0110 0.2028
21.1000 7.0177 0.2075
21.1200 7.0244 0.2019
21.1400 7.0311 0.2001
21.1600 7.0377 0.2095
21.1800 7.0444 0.1979
21.2000 7.0511 0.1962
21.2200 7.0577 0.2084
21.2400 7.0643 0.1996
21.2600 7.0710 0.1973
21.2800 7.0777 0.2065
21.3000 7.0844 0.1930
21.3200 7.0911 0.2044
21.3400 7.0978 0.2127
21.3600 7.1044 0.1892
21.3800 7.1111 0.1967
21.4000 7.1177 0.2046
21.4200 7.1243 0.1948
21.4400 7.1310 0.2082
21.4600 7.1377 0.2040
21.4800 7.1444 0.1798
21.5000 7.1511 0.1992
21.5200 7.1578 0.2108
21.5400 7.1645 0.1899
21.5600 7.1711 0.1947
21.5800 7.1777 0.2018
21.6000 7.1844 0.1924
21.6200 7.1910 0.2004
21.6400 7.1977 0.1949
21.6600 7.2044 0.1919
21.6800 7.2111 0.1960
21.7000 7.2178 0.1930
21.7200 7.2245 0.1953
21.7400 7.2311 0.2005
21.7600 7.2377 0.1871
21.7800 7.2443 0.1920
21.8000 7.2510 0.1933
21.8200 7.2577 0.1939
21.8400 7.2644 0.1940
21.8600 7.2711 0.1893
21.8800 7.2778 0.1894
21.9000 7.2844 0.2004
21.9200 7.2911 0.1884
21.9400 7.2977 0.1916
21.9600 7.3043 0.1984
21.9800 7.3109 0.1850
22.0000 7.3176 0.1916
22.0200 7.3244 0.1956
22.0400 7.3310 0.1813
22.0600 7.3377 0.1861
22.0800 7.3444 0.1984
22.1000 7.3511 0.1759
22.1200 7.3577 0.1901
22.1400 7.3643 0.1959
22.1600 7.3710 0.1789
22.1800 7.3777 0.1921
22.2000 7.3844 0.1918
22.2200 7.3911 0.1693
22.2400 7.3978 0.1971
22.2600 7.4045 0.1889
22.2800 7.4111 0.1692
22.3000 7.4177 0.1949
22.3200 7.4243 0.1875
22.3400 7.4310 0.1753
22.3600 7.4377 0.1989
22.3800 7.4444 0.1780
22.4000 7.4511 0.1746
22.4200 7.4578 0.1969
22.4400 7.4645 0.1756
22.4600 7.4711 0.1740
22.4800 7.4777 0.1952
22.5000 7.4843 0.1730
22.5200 7.4910 0.1758
22.5400 7.4977 0.1902
22.5600 7.5044 0.1683
22.5800 7.5111 0.1806
22.6000 7.5177 0.1826
22.6200 7.5244 0.1733
22.6400 7.5311 0.1832
22.6600 7.5377 0.1790
22.6800 7.5443 0.1671
22.7000 7.5510 0.1851
22.7200 7.5577 0.1762
22.7400 7.5644 0.1676
22.7600 7.5711 0.1766
22.7800 7.5777 0.1736
22.8000 7.5844 0.1652
22.8200 7.5911 0.1766
22.8400 7.5977 0.1682
22.8600 7.6043 0.1701
22.8800 7.6110 0.1744
22.9000 7.6177 0.1651
22.9200 7.6244 0.1673
22.9400 7.6311 0.1686
22.9600 7.6378 0.1618
22.9800 7.6445 0.1678
23.0000 7.6511 0.1605
23.0200 7.6577 0.1699
23.0400 7.6643 0.1665
23.0600 7.6710 0.1562
23.0800 7.6777 0.1745
23.1000 7.6844 0.1627
23.1200 7.6911 0.1526
23.1400 7.6978 0.1658
23.1600 7.7044 0.1616
23.1800 7.7111 0.1530
23.2000 7.7177 0.1677
23.2200 7.7243 0.1531
23.2400 7.7310 0.1552
23.2600 7.7377 0.1652
23.2800 7.7444 0.1553
23.3000 7.7510 0.1553
23.3200 7.7577 0.1632
23.3400 7.7644 0.1463
23.3600 7.7711 0.1572
23.3800 7.7777 0.1615
23.4000 7.7843 0.1490
23.4200 7.7909 0.1551
23.4400 7.7977 0.1569
23.4600 7.8044 0.1469
23.4800 7.8111 0.1549
23.5000 7.8177 0.1541
23.5200 7.8244 0.1397
23.5400 7.8311 0.1557
23.5600 7.8377 0.1487
23.5800 7.8443 0.1457
23.6000 7.8510 0.1544
23.6200 7.8577 0.1444
23.6400 7.8644 0.1458
23.6600 7.8711 0.1543
23.6800 7.8778 0.1446
23.7000 7.8844 0.1443
23.7200 7.8911 0.1491
23.7400 7.8977 0.1480
23.7600 7.9043 0.1395
23.7800 7.9110 0.1458
23.8000 7.9177 0.1461
23.8200 7.9244 0.1472
23.8400 7.9311 0.1381
23.8600 7.9378 0.1444
23.8800 7.9445 0.1437
23.9000 7.9511 0.1460
23.9200 7.9577 0.1488
23.9400 7.9643 0.1360
23.9600 7.9710 0.1312
23.9800 7.9777 0.1547
24.0000 7.9844 0.1444
24.0200 7.9911 0.1254
24.0400 7.9978 0.1476
24.0600 8.0044 0.1394
24.0800 8.0111 0.1329
24.1000 8.0177 0.1434
24.1200 8.0243 0.1448
24.1400 8.0309 0.1312
24.1600 8.0376 0.1398
24.1800 8.0444 0.1390
24.2000 8.0510 0.1372
24.2200 8.0577 0.1362
24.2400 8.0644 0.1317
24.2600 8.0710 0.1384
24.2800 8.0777 0.1438
24.3000 8.0843 0.1280
24.3200 8.0910 0.1356
24.3400 8.0977 0.1419
24.3600 8.1044 0.1326
24.3800 8.1111 0.1333
24.4000 8.1178 0.1398
24.4200 8.1245 0.1185
24.4400 8.1312 0.1342
24.4600 8.1378 0.1451
24.4800 8.1444 0.1271
24.5000 8.1510 0.1297
24.5200 8.1577 0.1372
24.5400 8.1644 0.1303
24.5600 8.1711 0.1314
24.5800 8.1778 0.1332
24.6000 8.1845 0.1334
24.6200 8.1911 0.1264
24.6400 8.1977 0.1244
24.6600 8.2043 0.1395
24.6800 8.2110 0.1315
24.7000 8.2176 0.1280
24.7200 8.2243 0.1327
24.7400 8.2310 0.1314
24.7600 8.2377 0.1302
24.7800 8.2444 0.1339
24.8000 8.2511 0.1270
24.8200 8.2577 0.1305
24.8400 8.2643 0.1331
24.8600 8.2709 0.1260
24.8800 8.2776 0.1294
24.9000 8.2843 0.1356
24.9200 8.2910 0.1250
24.9400 8.2977 0.1350
24.9600 8.3044 0.1347
24.9800 8.3111 0.1183
25.0000 8.3177 0.1306
25.0200 8.3243 0.1382
25.0400 8.3310 0.1246
25.0600 8.3377 0.1301
25.0800 8.3444 0.1374
25.1000 8.3511 0.1189
25.1200 8.3578 0.1327
25.1400 8.3645 0.1349
25.1600 8.3712 0.1209
25.1800 8.3778 0.1268
25.2000 8.3844 0.1307
25.2200 8.3910 0.1259
25.2400 8.3977 0.1310
25.2600 8.4044 0.1288
25.2800 8.4111 0.1194
25.3000 8.4178 0.1356
25.3200 8.4244 0.1299
25.3400 8.4311 0.1148
25.3600 8.4378 0.1375
25.3800 8.4444 0.1274
25.4000 8.4510 0.1221
25.4200 8.4576 0.1378
25.4400 8.4644 0.1276
25.4600 8.4711 0.1237
25.4800 8.4777 0.1344
25.5000 8.4844 0.1253
25.5200 8.4911 0.1245
25.5400 8.4977 0.1302
25.5600 8.5043 0.1258
25.5800 8.5109 0.1233
25.6000 8.5176 0.1271
25.6200 8.5243 0.1277
25.6400 8.5311 0.1257
25.6600 8.5377 0.1255
25.6800 8.5444 0.1243
25.7000 8.5511 0.1318
25.7200 8.5578 0.1202
25.7400 8.5644 0.1268
25.7600 8.5710 0.1290
25.7800 8.5777 0.1200
25.8000 8.5844 0.1300
25.8200 8.5911 0.1313
25.8400 8.5978 0.1149
25.8600 8.6045 0.1334
25.8800 8.6112 0.1254
25.9000 8.6178 0.1108
25.9200 8.6244 0.1355
25.9400 8.6310 0.1276
25.9600 8.6377 0.1101
25.9800 8.6444 0.1417
26.0000 8.6511 0.1163
26.0200 8.6578 0.1080
26.0400 8.6645 0.1409
26.0600 8.6711 0.1171
26.0800 8.6777 0.1091
26.1000 8.6844 0.1423
26.1200 8.6910 0.1131
26.1400 8.6977 0.1039
26.1600 8.7044 0.1484
26.1800 8.7111 0.1077
26.2000 8.7177 0.1036
26.2200 8.7244 0.1423
26.2400 8.7311 0.1061
26.2600 8.7377 0.1079
26.2800 8.7443 0.1388
26.3000 8.7509 0.1041
26.3200 8.7576 0.1155
26.3400 8.7643 0.1323
26.3600 8.7710 0.1048
26.3800 8.7777 0.1132
26.4000 8.7844 0.1332
26.4200 8.7911 0.1062
26.4400 8.7978 0.1076
26.4600 8.8044 0.1303
26.4800 8.8110 0.1098
26.5000 8.8177 0.1116
26.5200 8.8244 0.1270
26.5400 8.8311 0.1046
26.5600 8.8378 0.1070
26.5800 8.8445 0.1255
26.6000 8.8511 0.1075
26.6200 8.8578 0.1060
26.6400 8.8644 0.1217
26.6600 8.8710 0.1101
26.6800 8.8777 0.1085
26.7000 8.8844 0.1212
26.7200 8.8911 0.1028
26.7400 8.8978 0.1080
26.7600 8.9044 0.1167
26.7800 8.9111 0.1054
26.8000 8.9178 0.1040
26.8200 8.9244 0.1169
26.8400 8.9310 0.1034
26.8600 8.9376 0.1056
26.8800 8.9443 0.1175
26.9000 8.9510 0.1026
26.9200 8.9577 0.0976
26.9400 8.9644 0.1114
26.9600 8.9711 0.1047
26.9800 8.9778 0.0978
27.0000 8.9844 0.1106
27.0200 8.9910 0.1092
27.0400 8.9976 0.1005
27.0600 9.0043 0.1068
27.0800 9.0111 0.1072
27.1000 9.0177 0.0985
27.1200 9.0244 0.1029
27.1400 9.0311 0.0981
27.1600 9.0377 0.0996
27.1800 9.0443 0.1009
27.2000 9.0510 0.0998
27.2200 9.0576 0.0962
27.2400 9.0644 0.0973
27.2600 9.0711 0.0966
27.2800 9.0778 0.0977
27.3000 9.0844 0.0937
27.3200 9.0911 0.1019
27.3400 9.0978 0.0928
27.3600 9.1044 0.0901
27.3800 9.1110 0.0977
27.4000 9.1177 0.0954
27.4200 9.1244 0.0897
27.4400 9.1311 0.1013
27.4600 9.1378 0.0849
27.4800 9.1445 0.0883
27.5000 9.1512 0.1015
27.5200 9.1578 0.0850
27.5400 9.1644 0.0865
27.5600 9.1710 0.1055
27.5800 9.1776 0.0799
27.6000 9.1843 0.0847
27.6200 9.1910 0.1044
27.6400 9.1977 0.0737
27.6600 9.2044 0.0851
27.6800 9.2111 0.0995
27.7000 9.2177 0.0746
27.7200 9.2244 0.0830
27.7400 9.2310 0.1054
27.7600 9.2376 0.0727
27.7800 9.2443 0.0829
27.8000 9.2510 0.0946
27.8200 9.2577 0.0707
27.8400 9.2644 0.0886
27.8600 9.2711 0.0948
27.8800 9.2777 0.0626
27.9000 9.2844 0.0873
27.9200 9.2910 0.0920
27.9400 9.2977 0.0729
27.9600 9.3044 0.0839
27.9800 9.3111 0.0853
28.0000 9.3177 0.0640
28.0200 9.3244 0.0841
28.0400 9.3311 0.0869
28.0600 9.3378 0.0665
28.0800 9.3444 0.0857
28.1000 9.3510 0.0810
28.1200 9.3576 0.0670
28.1400 9.3643 0.0882
28.1600 9.3711 0.0838
28.1800 9.3778 0.0631
28.2000 9.3844 0.0783
28.2200 9.3911 0.0754
28.2400 9.3978 0.0673
28.2600 9.4044 0.0787
28.2800 9.4110 0.0791
28.3000 9.4177 0.0648
28.3200 9.4244 0.0777
28.3400 9.4311 0.0720
28.3600 9.4377 0.0651
28.3800 9.4444 0.0768
28.4000 9.4511 0.0755
28.4200 9.4578 0.0628
28.4400 9.4644 0.0678
28.4600 9.4710 0.0778
28.4800 9.4776 0.0674
28.5000 9.4843 0.0667
28.5200 9.4910 0.0733
28.5400 9.4977 0.0629
28.5600 9.5044 0.0623
28.5800 9.5111 0.0741
28.6000 9.5177 0.0610
28.6200 9.5243 0.0653
28.6400 9.5309 0.0718
28.6600 9.5376 0.0614
28.6800 9.5444 0.0642
28.7000 9.5511 0.0763
28.7200 9.5578 0.0567
28.7400 9.5645 0.0647
28.7600 9.5711 0.0735
28.7800 9.5778 0.0577
28.8000 9.5844 0.0624
28.8200 9.5911 0.0678
28.8400 9.5977 0.0597
28.8600 9.6044 0.0646
28.8800 9.6111 0.0598
28.9000 9.6178 0.0585
28.9200 9.6244 0.0636
28.9400 9.6311 0.0579
28.9600 9.6378 0.0569
28.9800 9.6444 0.0686
29.0000 9.6510 0.0622
29.0200 9.6576 0.0579
29.0400 9.6643 0.0587
29.0600 9.6710 0.0554
29.0800 9.6777 0.0620
29.1000 9.6844 0.0582
29.1200 9.6911 0.0544
29.1400 9.6977 0.0598
29.1600 9.7044 0.0527
29.1800 9.7110 0.0503
29.2000 9.7176 0.0671
29.2200 9.7243 0.0519
29.2400 9.7311 0.0498
29.2600 9.7378 0.0660
29.2800 9.7444 0.0467
29.3000 9.7511 0.0514
29.3200 9.7578 0.0709
29.3400 9.7644 0.0390
29.3600 9.7710 0.0560
29.3800 9.7777 0.0636
29.4000 9.7844 0.0378
29.4200 9.7911 0.0587
29.4400 9.7978 0.0637
29.4600 9.8044 0.0304
29.4800 9.8111 0.0594
29.5000 9.8178 0.0625
29.5200 9.8245 0.0268
29.5400 9.8310 0.0577
29.5600 9.8376 0.0648
29.5800 9.8443 0.0302
29.6000 9.8511 0.0586
29.6200 9.8578 0.0573
29.6400 9.8645 0.0266
29.6600 9.8711 0.0606
29.6800 9.8778 0.0497
29.7000 9.8844 0.0283
29.7200 9.8910 0.0594
29.7400 9.8976 0.0484
29.7600 9.9043 0.0256
29.7800 9.9110 0.0645
29.8000 9.9178 0.0465
29.8200 9.9244 0.0287
29.8400 9.9311 0.0578
29.8600 9.9378 0.0419
29.8800 9.9444 0.0302
29.9000 9.9510 0.0594
29.9200 9.9576 0.0434
29.9400 9.9643 0.0304
29.9600 9.9710 0.0548
29.9800 9.9777 0.0393
30.0000 9.9844 0.0275
30.0200 9.9911 0.0544
30.0400 9.9978 0.0417
30.0600 10.0044 0.0290
30.0800 10.0110 0.0501
30.1000 10.0176 0.0409
30.1200 10.0243 0.0287
30.1400 10.0311 0.0445
30.1600 10.0378 0.0425
30.1800 10.0445 0.0257
30.2000 10.0511 0.0429
30.2200 10.0578 0.0387
30.2400 10.0644 0.0232
30.2600 10.0710 0.0451
30.2800 10.0777 0.0445
30.3000 10.0844 0.0230
30.3200 10.0911 0.0384
30.3400 10.0978 0.0370
30.3600 10.1044 0.0280
30.3800 10.1111 0.0405
30.4000 10.1178 0.0354
30.4200 10.1244 0.0172
30.4400 10.1310 0.0473
30.4600 10.1376 0.0358
30.4800 10.1443 0.0151
30.5000 10.1510 0.0475
30.5200 10.1577 0.0358
30.5400 10.1644 0.0118
30.5600 10.1711 0.0410
30.5800 10.1778 0.0323
30.6000 10.1844 0.0175
30.6200 10.1910 0.0417
30.6400 10.1976 0.0284
30.6600 10.2043 0.0176
30.6800 10.2110 0.0405
30.7000 10.2177 0.0257
30.7200 10.2244 0.0129
30.7400 10.2311 0.0395
30.7600 10.2377 0.0195
30.7800 10.2444 0.0182
30.8000 10.2510 0.0315
30.8200 10.2577 0.0233
30.8400 10.2643 0.0228
30.8600 10.2711 0.0300
30.8800 10.2777 0.0180
30.9000 10.2844 0.0247
30.9200 10.2911 0.0366
30.9400 10.2978 0.0205
30.9600 10.3045 0.0176
30.9800 10.3111 0.0311
31.0000 10.3177 0.0179
31.0200 10.3244 0.0228
31.0400 10.3311 0.0243
31.0600 10.3378 0.0200
31.0800 10.3444 0.0193
31.1000 10.3511 0.0240
31.1200 10.3578 0.0238
31.1400 10.3644 0.0208
31.1600 10.3710 0.0214
31.1800 10.3776 0.0164
31.2000 10.3843 0.0225
31.2200 10.3910 0.0239
31.2400 10.3977 0.0202
31.2600 10.4044 0.0137
31.2800 10.4111 0.0235
31.3000 10.4177 0.0237
31.3200 10.4244 0.0184
31.3400 10.4310 0.0193
31.3600 10.4377 0.0259
31.3800 10.4443 0.0153
31.4000 10.4510 0.0185
31.4200 10.4577 0.0158
31.4400 10.4644 0.0226
31.4600 10.4710 0.0177
31.4800 10.4777 0.0209
31.5000 10.4844 0.0131
31.5200 10.4910 0.0168
31.5400 10.4976 0.0284
31.5600 10.5043 0.0109
31.5800 10.5110 0.0159
31.6000 10.5177 0.0244
31.6200 10.5244 0.0156
31.6400 10.5311 0.0176
31.6600 10.5378 0.0181
31.6800 10.5444 0.0132
31.7000 10.5510 0.0209
31.7200 10.5577 0.0227
31.7400 10.5643 0.0131
31.7600 10.5711 0.0136
31.7800 10.5778 0.0249
31.8000 10.5845 0.0133
31.8200 10.5911 0.0188
31.8400 10.5978 0.0142
31.8600 10.6044 0.0125
31.8800 10.6111 0.0210
31.9000 10.6177 0.0144
31.9200 10.6243 0.0125
31.9400 10.6310 0.0216
31.9600 10.6377 0.0109
31.9800 10.6444 0.0114
32.0000 10.6510 0.0213
32.0200 10.6577 0.0140
32.0400 10.6644 0.0093
32.0600 10.6710 0.0167
32.0800 10.6776 0.0146
32.1000 10.6843 0.0138
32.1200 10.6910 0.0161
32.1400 10.6977 0.0131
32.1600 10.7044 0.0130
32.1800 10.7111 0.0144
32.2000 10.7178 0.0136
32.2200 10.7244 0.0086
32.2400 10.7310 0.0158
32.2600 10.7377 0.0089
32.2800 10.7443 0.0093
32.3000 10.7510 0.0152
32.3200 10.7578 0.0117
32.3400 10.7645 0.0109
32.3600 10.7711 0.0110
32.3800 10.7778 0.0049
32.4000 10.7845 0.0140
32.4200 10.7911 0.0078
32.4400 10.7977 0.0045
32.4600 10.8043 0.0096
32.4800 10.8110 0.0097
32.5000 10.8177 0.0003
32.5200 10.8244 0.0102
32.5400 10.8311 0.0130
32.5600 10.8378 -0.0014
32.5800 10.8445 0.0106
32.6000 10.8511 0.0056
32.6200 10.8577 0.0007
32.6400 10.8643 0.0147
32.6600 10.8710 0.0023
32.6800 10.8777 -0.0054
32.7000 10.8844 0.0129
32.7200 10.8911 0.0010
32.7400 10.8978 -0.0030
32.7600 10.9045 0.0085
32.7800 10.9110 -0.0040
32.8000 10.9176 -0.0045
32.8200 10.9243 0.0137
32.8400 10.9310 -0.0063
32.8600 10.9377 -0.0048
32.8800 10.9444 0.0058
32.9000 10.9511 -0.0051
32.9200 10.9577 -0.0055
32.9400 10.9644 0.0109
32.9600 10.9710 -0.0101
32.9800 10.9777 -0.0069
33.0000 10.9843 0.0089
33.0200 10.9910 -0.0099
33.0400 10.9977 -0.0053
33.0600 11.0044 0.0087
33.0800 11.0111 -0.0135
33.1000 11.0178 -0.0044
33.1200 11.0245 0.0073
33.1400 11.0311 -0.0124
33.1600 11.0377 -0.0068
33.1800 11.0443 0.0059
33.2000 11.0510 -0.0092
33.2200 11.0577 -0.0126
33.2400 11.0645 -0.0001
33.2600 11.0711 -0.0085
33.2800 11.0778 -0.0052
33.3000 11.0844 -0.0091
33.3200 11.0910 -0.0164
33.3400 11.0976 -0.0137
33.3600 11.1043 0.0038
33.3800 11.1110 -0.0147
33.4000 11.1177 -0.0174
33.4200 11.1244 -0.0028
33.4400 11.1310 -0.0151
33.4600 11.1377 -0.0175
33.4800 11.1444 -0.0037
33.5000 11.1510 -0.0117
33.5200 11.1577 -0.0180
33.5400 11.1643 -0.0105
33.5600 11.1710 -0.0115
33.5800 11.1777 -0.0215
33.6000 11.1844 -0.0044
33.6200 11.1911 -0.0161
33.6400 11.1978 -0.0271
33.6600 11.2045 -0.0063
33.6800 11.2111 -0.0103
33.7000 11.2177 -0.0271
33.7200 11.2243 -0.0066
33.7400 11.2310 -0.0134
33.7600 11.2377 -0.0318
33.7800 11.2444 -0.0030
33.8000 11.2511 -0.0193
33.8200 11.2578 -0.0293
33.8400 11.2644 -0.0063
33.8600 11.2711 -0.0215
33.8800 11.2777 -0.0323
33.9000 11.2843 -0.0047
33.9200 11.2910 -0.0249
33.9400 11.2977 -0.0335
33.9600 11.3044 -0.0086
33.9800 11.3111 -0.0233
34.0000 11.3178 -0.0368
34.0200 11.3245 -0.0094
34.0400 11.3311 -0.0231
34.0600 11.3377 -0.0320
34.0800 11.3443 -0.0126
34.1000 11.3510 -0.0224
34.1200 11.3577 -0.0295
34.1400 11.3644 -0.0150
34.1600 11.3711 -0.0279
34.1800 11.3778 -0.0266
34.2000 11.3845 -0.0212
34.2200 11.3911 -0.0335
34.2400 11.3977 -0.0270
34.2600 11.4043 -0.0207
34.2800 11.4110 -0.0278
34.3000 11.4177 -0.0323
34.3200 11.4244 -0.0230
34.3400 11.4311 -0.0262
34.3600 11.4377 -0.0333
34.3800 11.4444 -0.0247
34.4000 11.4511 -0.0261
34.4200 11.4577 -0.0367
34.4400 11.4643 -0.0246
34.4600 11.4710 -0.0245
34.4800 11.4777 -0.0340
34.5000 11.4844 -0.0306
34.5200 11.4911 -0.0231
34.5400 11.4978 -0.0413
34.5600 11.5045 -0.0270
34.5800 11.5111 -0.0269
34.6000 11.5177 -0.0424
34.6200 11.5243 -0.0246
34.6400 11.5310 -0.0321
34.6600 11.5377 -0.0425
34.6800 11.5444 -0.0274
34.7000 11.5511 -0.0303
34.7200 11.5578 -0.0404
34.7400 11.5645 -0.0278
34.7600 11.5711 -0.0374
34.7800 11.5777 -0.0386
34.8000 11.5843 -0.0297
34.8200 11.5910 -0.0363
34.8400 11.5977 -0.0415
34.8600 11.6044 -0.0315
34.8800 11.6111 -0.0434
34.9000 11.6178 -0.0297
34.9200 11.6244 -0.0350
34.9400 11.6311 -0.0472
34.9600 11.6377 -0.0339
34.9800 11.6443 -0.0365
35.0000 11.6510 -0.0407
35.0200 11.6577 -0.0369
35.0400 11.6643 -0.0486
35.0600 11.6710 -0.0367
35.0800 11.6777 -0.0314
35.1000 11.6844 -0.0495
35.1200 11.6911 -0.0425
35.1400 11.6977 -0.0394
35.1600 11.7043 -0.0547
35.1800 11.7110 -0.0361
35.2000 11.7177 -0.0398
35.2200 11.7244 -0.0539
35.2400 11.7311 -0.0333
35.2600 11.7378 -0.0514
35.2800 11.7445 -0.0530
35.3000 11.7511 -0.0321
35.3200 11.7577 -0.0506
35.3400 11.7643 -0.0538
35.3600 11.7710 -0.0330
35.3800 11.7777 -0.0591
35.4000 11.7845 -0.0568
35.4200 11.7911 -0.0271
35.4400 11.7978 -0.0568
35.4600 11.8044 -0.0580
35.4800 11.8111 -0.0364
35.5000 11.8177 -0.0618
35.5200 11.8243 -0.0497
35.5400 11.8310 -0.0387
35.5600 11.8377 -0.0656
35.5800 11.8444 -0.0520
35.6000 11.8511 -0.0401
35.6200 11.8577 -0.0669
35.6400 11.8644 -0.0481
35.6600 11.8711 -0.0437
35.6800 11.8777 -0.0738
35.7000 11.8843 -0.0475
35.7200 11.8909 -0.0422
35.7400 11.8977 -0.0736
35.7600 11.9044 -0.0482
35.7800 11.9111 -0.0477
35.8000 11.9178 -0.0737
35.8200 11.9244 -0.0451
35.8400 11.9311 -0.0542
35.8600 11.9377 -0.0696
35.8800 11.9443 -0.0502
35.9000 11.9510 -0.0511
35.9200 11.9577 -0.0724
35.9400 11.9644 -0.0552
35.9600 11.9711 -0.0521
35.9800 11.9777 -0.0685
36.0000 11.9844 -0.0597
36.0200 11.9911 -0.0567
36.0400 11.9977 -0.0698
36.0600 12.0044 -0.0549
36.0800 12.0110 -0.0571
36.1000 12.0177 -0.0709
36.1200 12.0244 -0.0596
36.1400 12.0311 -0.0546
36.1600 12.0378 -0.0756
36.1800 12.0445 -0.0630
36.2000 12.0511 -0.0527
36.2200 12.0577 -0.0810
36.2400 12.0643 -0.0567
36.2600 12.0710 -0.0578
36.2800 12.0777 -0.0737
36.3000 12.0844 -0.0593
36.3200 12.0911 -0.0610
36.3400 12.0978 -0.0782
36.3600 12.1044 -0.0561
36.3800 12.1111 -0.0630
36.4000 12.1177 -0.0806
36.4200 12.1243 -0.0613
36.4400 12.1309 -0.0569
36.4600 12.1376 -0.0808
36.4800 12.1444 -0.0602
36.5000 12.1510 -0.0618
36.5200 12.1577 -0.0753
36.5400 12.1644 -0.0588
36.5600 12.1711 -0.0699
36.5800 12.1777 -0.0743
36.6000 12.1843 -0.0589
36.6200 12.1910 -0.0671
36.6400 12.1977 -0.0690
36.6600 12.2044 -0.0675
36.6800 12.2111 -0.0680
36.7000 12.2178 -0.0672
36.7200 12.2245 -0.0687
36.7400 12.2312 -0.0663
36.7600 12.2378 -0.0643
36.7800 12.2443 -0.0720
36.8000 12.2510 -0.0685
36.8200 12.2577 -0.0562
36.8400 12.2644 -0.0790
36.8600 12.2711 -0.0650
36.8800 12.2778 -0.0603
36.9000 12.2845 -0.0819
36.9200 12.2911 -0.0593
36.9400 12.2977 -0.0612
36.9600 12.3043 -0.0839
36.9800 12.3110 -0.0597
37.0000 12.3177 -0.0623
37.0200 12.3244 -0.0829
37.0400 12.3311 -0.0636
37.0600 12.3377 -0.0638
37.0800 12.3444 -0.0829
37.1000 12.3511 -0.0626
37.1200 12.3578 -0.0688
37.1400 12.3644 -0.0814
37.1600 12.3710 -0.0637
37.1800 12.3777 -0.0715
37.2000 12.3844 -0.0817
37.2200 12.3910 -0.0662
37.2400 12.3977 -0.0692
37.2600 12.4044 -0.0875
37.2800 12.4111 -0.0659
37.3000 12.4177 -0.0649
37.3200 12.4243 -0.0815
37.3400 12.4310 -0.0718
37.3600 12.4377 -0.0676
37.3800 12.4444 -0.0869
37.4000 12.4511 -0.0720
37.4200 12.4578 -0.0704
37.4400 12.4645 -0.0809
37.4600 12.4711 -0.0800
37.4800 12.4777 -0.0667
37.5000 12.4843 -0.0841
37.5200 12.4910 -0.0785
37.5400 12.4977 -0.0666
37.5600 12.5044 -0.0869
37.5800 12.5111 -0.0824
37.6000 12.5178 -0.0628
37.6200 12.5244 -0.0924
37.6400 12.5311 -0.0875
37.6600 12.5377 -0.0633
37.6800 12.5443 -0.0934
37.7000 12.5510 -0.0810
37.7200 12.5577 -0.0633
37.7400 12.5644 -0.0981
37.7600 12.5710 -0.0845
37.7800 12.5777 -0.0661
37.8000 12.5844 -0.0983
37.8200 12.5911 -0.0828
37.8400 12.5977 -0.0676
37.8600 12.6043 -0.0991
37.8800 12.6109 -0.0852
37.9000 12.6176 -0.0663
37.9200 12.6244 -0.1034
37.9400 12.6311 -0.0839
37.9600 12.6377 -0.0758
37.9800 12.6444 -0.1020
38.0000 12.6511 -0.0851
38.0200 12.6577 -0.0759
38.0400 12.6643 -0.1051
38.0600 12.6710 -0.0880
38.0800 12.6777 -0.0809
38.1000 12.6844 -0.0981
38.1200 12.6911 -0.0903
38.1400 12.6977 -0.0890
38.1600 12.7044 -0.0979
38.1800 12.7111 -0.0872
38.2000 12.7178 -0.0899
38.2200 12.7244 -0.0961
38.2400 12.7310 -0.0851
38.2600 12.7376 -0.0926
38.2800 12.7444 -0.0961
38.3000 12.7511 -0.0960
38.3200 12.7578 -0.0866
38.3400 12.7644 -0.0973
38.3600 12.7711 -0.0991
38.3800 12.7778 -0.0853
38.4000 12.7843 -0.0983
38.4200 12.7910 -0.1080
38.4400 12.7977 -0.0780
38.4600 12.8044 -0.1012
38.4800 12.8111 -0.1133
38.5000 12.8178 -0.0773
38.5200 12.8244 -0.1046
38.5400 12.8311 -0.1179
38.5600 12.8377 -0.0765
38.5800 12.8443 -0.1099
38.6000 12.8509 -0.1112
38.6200 12.8576 -0.0808
38.6400 12.8643 -0.1103
38.6600 12.8710 -0.1114
38.6800 12.8777 -0.0810
38.7000 12.8844 -0.1139
38.7200 12.8911 -0.1089
38.7400 12.8977 -0.0894
38.7600 12.9043 -0.1182
38.7800 12.9110 -0.1076
38.8000 12.9176 -0.0924
38.8200 12.9244 -0.1151
38.8400 12.9311 -0.1104
38.8600 12.9378 -0.0931
38.8800 12.9445 -0.1169
38.9000 12.9512 -0.1074
38.9200 12.9578 -0.1022
38.9400 12.9644 -0.1154
38.9600 12.9710 -0.1111
38.9800 12.9777 -0.1053
39.0000 12.9844 -0.1120
39.0200 12.9911 -0.1147
39.0400 12.9978 -0.1090
39.0600 13.0045 -0.1078
39.0800 13.0111 -0.1145
39.1000 13.0178 -0.1126
39.1200 13.0244 -0.1127
39.1400 13.0310 -0.1165
39.1600 13.0377 -0.1086
39.1800 13.0443 -0.1087
39.2000 13.0510 -0.1175
39.2200 13.0577 -0.1147
39.2400 13.0644 -0.1092
39.2600 13.0711 -0.1229
39.2800 13.0777 -0.1138
39.3000 13.0843 -0.1047
39.3200 13.0909 -0.1200
39.3400 13.0976 -0.1167
39.3600 13.1043 -0.1092
39.3800 13.1110 -0.1269
39.4000 13.1177 -0.1107
39.4200 13.1244 -0.1151
39.4400 13.1311 -0.1258
39.4600 13.1377 -0.1157
39.4800 13.1443 -0.1169
39.5000 13.1510 -0.1267
39.5200 13.1577 -0.1097
39.5400 13.1644 -0.1166
39.5600 13.1711 -0.1289
39.5800 13.1778 -0.1147
39.6000 13.1844 -0.1151
39.6200 13.1911 -0.1252
39.6400 13.1978 -0.1122
39.6600 13.2044 -0.1211
39.6800 13.2110 -0.1192
39.7000 13.2177 -0.1119
39.7200 13.2244 -0.1200
39.7400 13.2311 -0.1243
39.7600 13.2378 -0.1191
39.7800 13.2445 -0.1194
39.8000 13.2511 -0.1309
39.8200 13.2578 -0.1140
39.8400 13.2644 -0.1212
39.8600 13.2710 -0.1252
39.8800 13.2776 -0.1175
39.9000 13.2844 -0.1177
39.9200 13.2911 -0.1231
39.9400 13.2978 -0.1229
39.9600 13.3044 -0.1209
39.9800 13.3111 -0.1264
40.0000 13.3177 -0.1243
40.0200 13.3243 -0.1158
40.0400 13.3309 -0.1294
40.0600 13.3376 -0.1206
40.0800 13.3443 -0.1222
40.1000 13.3511 -0.1283
40.1200 13.3577 -0.1205
40.1400 13.3644 -0.1212
40.1600 13.3711 -0.1292
40.1800 13.3778 -0.1277
40.2000 13.3844 -0.1240
40.2200 13.3910 -0.1290
40.2400 13.3977 -0.1200
40.2600 13.4044 -0.1323
40.2800 13.4111 -0.1359
40.3000 13.4178 -0.1180
40.3200 13.4245 -0.1260
40.3400 13.4311 -0.1307
40.3600 13.4378 -0.1217
40.3800 13.4444 -0.1319
40.4000 13.4510 -0.1323
40.4200 13.4577 -0.1242
40.4400 13.4644 -0.1272
40.4600 13.4711 -0.1329
40.4800 13.4778 -0.1227
40.5000 13.4845 -0.1377
40.5200 13.4911 -0.1279
40.5400 13.4978 -0.1223
40.5600 13.5044 -0.1337
40.5800 13.5110 -0.1325
40.6000 13.5177 -0.1268
40.6200 13.5244 -0.1363
40.6400 13.5311 -0.1299
40.6600 13.5377 -0.1312
40.6800 13.5444 -0.1346
40.7000 13.5511 -0.1266
40.7200 13.5577 -0.1363
40.7400 13.5644 -0.1360
40.7600 13.5709 -0.1250
40.7800 13.5776 -0.1345
40.8000 13.5843 -0.1402
40.8200 13.5910 -0.1243
40.8400 13.5977 -0.1402
40.8600 13.6044 -0.1330
40.8800 13.6111 -0.1246
40.9000 13.6178 -0.1411
40.9200 13.6244 -0.1416
40.9400 13.6310 -0.1214
40.9600 13.6376 -0.1417
40.9800 13.6444 -0.1400
41.0000 13.6511 -0.1250
41.0200 13.6578 -0.1416
41.0400 13.6645 -0.1404
41.0600 13.6711 -0.1289
41.0800 13.6778 -0.1464
41.1000 13.6844 -0.1377
41.1200 13.6910 -0.1300
41.1400 13.6977 -0.1501
41.1600 13.7044 -0.1430
41.1800 13.7111 -0.1304
41.2000 13.7178 -0.1469
41.2200 13.7244 -0.1449
41.2400 13.7311 -0.1288
41.2600 13.7378 -0.1473
41.2800 13.7444 -0.1451
41.3000 13.7510 -0.1292
41.3200 13.7576 -0.1462
41.3400 13.7643 -0.1518
41.3600 13.7710 -0.1313
41.3800 13.7777 -0.1507
41.4000 13.7844 -0.1451
41.4200 13.7911 -0.1313
41.4400 13.7978 -0.1542
41.4600 13.8044 -0.1547
41.4800 13.8110 -0.1315
41.5000 13.8176 -0.1592
41.5200 13.8243 -0.1522
41.5400 13.8310 -0.1333
41.5600 13.8377 -0.1574
41.5800 13.8444 -0.1541
41.6000 13.8511 -0.1326
41.6200 13.8577 -0.1632
41.6400 13.8644 -0.1521
41.6600 13.8710 -0.1298
41.6800 13.8777 -0.1682
41.7000 13.8844 -0.1504
41.7200 13.8911 -0.1390
41.7400 13.8978 -0.1701
41.7600 13.9044 -0.1492
41.7800 13.9111 -0.1414
41.8000 13.9178 -0.1700
41.8200 13.9244 -0.1501
41.8400 13.9310 -0.1423
41.8600 13.9377 -0.1681
41.8800 13.9444 -0.1475
41.9000 13.9511 -0.1413
41.9200 13.9578 -0.1746
41.9400 13.9645 -0.1446
41.9600 13.9712 -0.1472
41.9800 13.9778 -0.1742
42.0000 13.9844 -0.1496
42.0200 13.9910 -0.1476
42.0400 13.9976 -0.1728
42.0600 14.0043 -0.1459
42.0800 14.0111 -0.1537
42.1000 14.0177 -0.1773
42.1200 14.0244 -0.1462
42.1400 14.0311 -0.1505
42.1600 14.0378 -0.1793
42.1800 14.0444 -0.1492
42.2000 14.0510 -0.1546
42.2200 14.0576 -0.1770
42.2400 14.0643 -0.1491
42.2600 14.0710 -0.1560
42.2800 14.0777 -0.1719
42.3000 14.0844 -0.1590
42.3200 14.0910 -0.1555
42.3400 14.0977 -0.1681
42.3600 14.1044 -0.1599
42.3800 14.1110 -0.1582
42.4000 14.1177 -0.1603
42.4200 14.1243 -0.1680
42.4400 14.1311 -0.1593
42.4600 14.1378 -0.1633
42.4800 14.1444 -0.1660
42.5000 14.1511 -0.1561
42.5200 14.1578 -0.1673
42.5400 14.1644 -0.1760
42.5600 14.1710 -0.1514
42.5800 14.1777 -0.1652
42.6000 14.1844 -0.1774
42.6200 14.1911 -0.1508
42.6400 14.1978 -0.1706
42.6600 14.2044 -0.1770
42.6800 14.2111 -0.1484
42.7000 14.2178 -0.1719
42.7200 14.2244 -0.1791
42.7400 14.2310 -0.1509
42.7600 14.2377 -0.1709
42.7800 14.2443 -0.1826
42.8000 14.2510 -0.1574
42.8200 14.2577 -0.1722
42.8400 14.2644 -0.1783
42.8600 14.2711 -0.1565
42.8800 14.2778 -0.1781
42.9000 14.2844 -0.1740
42.9200 14.2910 -0.1614
42.9400 14.2976 -0.1735
42.9600 14.3043 -0.1779
42.9800 14.3110 -0.1614
43.0000 14.3177 -0.1739
43.0200 14.3244 -0.1765
43.0400 14.3311 -0.1639
43.0600 14.3377 -0.1759
43.0800 14.3443 -0.1783
43.1000 14.3510 -0.1679
43.1200 14.3576 -0.1697
43.1400 14.3643 -0.1753
43.1600 14.3710 -0.1732
43.1800 14.3778 -0.1776
43.2000 14.3845 -0.1765
43.2200 14.3911 -0.1710
43.2400 14.3978 -0.1761
43.2600 14.4045 -0.1796
43.2800 14.4111 -0.1719
43.3000 14.4177 -0.1770
43.3200 14.4244 -0.1756
43.3400 14.4311 -0.1738
43.3600 14.4378 -0.1756
43.3800 14.4444 -0.1845
43.4000 14.4511 -0.1722
43.4200 14.4578 -0.1773
43.4400 14.4644 -0.1860
43.4600 14.4710 -0.1720
43.4800 14.4776 -0.1706
43.5000 14.4843 -0.1870
43.5200 14.4910 -0.1699
43.5400 14.4977 -0.1767
43.5600 14.5044 -0.1870
43.5800 14.5111 -0.1769
43.6000 14.5177 -0.1776
43.6200 14.5244 -0.1902
43.6400 14.5310 -0.1700
43.6600 14.5376 -0.1792
43.6800 14.5443 -0.1896
43.7000 14.5510 -0.1706
43.7200 14.5577 -0.1855
43.7400 14.5644 -0.1897
43.7600 14.5711 -0.1716
43.7800 14.5778 -0.1858
43.8000 14.5844 -0.1850
43.8200 14.5910 -0.1755
43.8400 14.5977 -0.1938
43.8600 14.6044 -0.1757
43.8800 14.6111 -0.1774
43.9000 14.6178 -0.1922
43.9200 14.6245 -0.1818
43.9400 14.6311 -0.1782
43.9600 14.6378 -0.1959
43.9800 14.6445 -0.1819
44.0000 14.6510 -0.1866
44.0200 14.6576 -0.1878
44.0400 14.6643 -0.1832
44.0600 14.6710 -0.1915
44.0800 14.6777 -0.1900
44.1000 14.6844 -0.1830
44.1200 14.6911 -0.1903
44.1400 14.6978 -0.1871
44.1600 14.7044 -0.1879
44.1800 14.7110 -0.1946
44.2000 14.7176 -0.1855
44.2200 14.7243 -0.1889
44.2400 14.7310 -0.2030
44.2600 14.7378 -0.1899
44.2800 14.7444 -0.1942
44.3000 14.7511 -0.1999
44.3200 14.7578 -0.1857
44.3400 14.7644 -0.1957
44.3600 14.7710 -0.2015
44.3800 14.7776 -0.1925
44.4000 14.7843 -0.1951
44.4200 14.7910 -0.1982
44.4400 14.7977 -0.1922
44.4600 14.8044 -0.2005
44.4800 14.8111 -0.2005
44.5000 14.8178 -0.1925
44.5200 14.8244 -0.2003
44.5400 14.8310 -0.2041
44.5600 14.8376 -0.1914
44.5800 14.8443 -0.2009
44.6000 14.8511 -0.2019
44.6200 14.8578 -0.1971
44.6400 14.8645 -0.1998
44.6600 14.8711 -0.2028
44.6800 14.8778 -0.2006
44.7000 14.8844 -0.2056
44.7200 14.8910 -0.2015
44.7400 14.8977 -0.2017
44.7600 14.9043 -0.2053
44.7800 14.9111 -0.2034
44.8000 14.9178 -0.2033
44.8200 14.9244 -0.2043
44.8400 14.9311 -0.2096
44.8600 14.9378 -0.1996
44.8800 14.9444 -0.2032
44.9000 14.9511 -0.2087
44.9200 14.9577 -0.2063
44.9400 14.9643 -0.2050
44.9600 14.9710 -0.2091
44.9800 14.9777 -0.2005
45.0000 14.9844 -0.2072
45.0200 14.9911 -0.2111
45.0400 14.9978 -0.2045
45.0600 15.0044 -0.2032
45.0800 15.0110 -0.2162
45.1000 15.0176 -0.1994
45.1200 15.0243 -0.2048
45.1400 15.0310 -0.2176
45.1600 15.0377 -0.2031
45.1800 15.0444 -0.2045
45.2000 15.0511 -0.2191
45.2200 15.0577 -0.2066
45.2400 15.0644 -0.2071
45.2600 15.0710 -0.2219
45.2800 15.0777 -0.1985
45.3000 15.0843 -0.2131
45.3200 15.0910 -0.2217
45.3400 15.0977 -0.2005
45.3600 15.1044 -0.2145
45.3800 15.1111 -0.2224
45.4000 15.1178 -0.2041
45.4200 15.1245 -0.2146
45.4400 15.1311 -0.2220
45.4600 15.1377 -0.2060
45.4800 15.1443 -0.2112
45.5000 15.1510 -0.2200
45.5200 15.1577 -0.2042
45.5400 15.1644 -0.2189
45.5600 15.1711 -0.2182
45.5800 15.1778 -0.2060
45.6000 15.1844 -0.2177
45.6200 15.1910 -0.2176
45.6400 15.1976 -0.2108
45.6600 15.2043 -0.2161
45.6800 15.2110 -0.2192
45.7000 15.2177 -0.2152
45.7200 15.2244 -0.2146
45.7400 15.2311 -0.2161
45.7600 15.2378 -0.2203
45.7800 15.2444 -0.2176
45.8000 15.2510 -0.2215
45.8200 15.2576 -0.2177
45.8400 15.2643 -0.2145
45.8600 15.2710 -0.2191
45.8800 15.2777 -0.2201
45.9000 15.2844 -0.2170
45.9200 15.2911 -0.2218
45.9400 15.2977 -0.2180
45.9600 15.3044 -0.2202
45.9800 15.3111 -0.2210
46.0000 15.3177 -0.2253
46.0200 15.3243 -0.2189
46.0400 15.3310 -0.2244
46.0600 15.3377 -0.2227
46.0800 15.3444 -0.2190
46.1000 15.3511 -0.2266
46.1200 15.3578 -0.2229
46.1400 15.3645 -0.2228
46.1600 15.3711 -0.2247
46.1800 15.3777 -0.2228
46.2000 15.3843 -0.2286
46.2200 15.3910 -0.2209
46.2400 15.3978 -0.2201
46.2600 15.4045 -0.2303
46.2800 15.4111 -0.2247
46.3000 15.4178 -0.2212
46.3200 15.4245 -0.2295
46.3400 15.4311 -0.2284
46.3600 15.4377 -0.2195
46.3800 15.4443 -0.2283
46.4000 15.4510 -0.2269
46.4200 15.4577 -0.2262
46.4400 15.4644 -0.2270
46.4600 15.4710 -0.2240
46.4800 15.4777 -0.2247
46.5000 15.4844 -0.2362
46.5200 15.4910 -0.2213
46.5400 15.4976 -0.2258
46.5600 15.5043 -0.2320
46.5800 15.5110 -0.2274
46.6000 15.5177 -0.2305
46.6200 15.5244 -0.2336
46.6400 15.5311 -0.2283
46.6600 15.5378 -0.2270
46.6800 15.5444 -0.2351
46.7000 15.5511 -0.2340
46.7200 15.5577 -0.2320
46.7400 15.5643 -0.2335
46.7600 15.5710 -0.2303
46.7800 15.5778 -0.2283
46.8000 15.5845 -0.2420
46.8200 15.5911 -0.2340
46.8400 15.5978 -0.2269
46.8600 15.6044 -0.2417
46.8800 15.6111 -0.2304
46.9000 15.6177 -0.2275
46.9200 15.6243 -0.2505
46.9400 15.6310 -0.2251
46.9600 15.6377 -0.2289
46.9800 15.6444 -0.2534
47.0000 15.6511 -0.2235
47.0200 15.6578 -0.2315
47.0400 15.6645 -0.2582
47.0600 15.6711 -0.2173
47.0800 15.6777 -0.2383
47.1000 15.6843 -0.2537
47.1200 15.6910 -0.2195
47.1400 15.6977 -0.2461
47.1600 15.7044 -0.2518
47.1800 15.7111 -0.2141
47.2000 15.7178 -0.2497
47.2200 15.7245 -0.2523
47.2400 15.7311 -0.2184
47.2600 15.7376 -0.2515
47.2800 15.7443 -0.2488
47.3000 15.7510 -0.2191
47.3200 15.7577 -0.2579
47.3400 15.7644 -0.2465
47.3600 15.7711 -0.2231
47.3800 15.7777 -0.2607
47.4000 15.7844 -0.2425
47.4200 15.7910 -0.2340
47.4400 15.7977 -0.2586
47.4600 15.8043 -0.2390
47.4800 15.8110 -0.2354
47.5000 15.8177 -0.2611
47.5200 15.8244 -0.2396
47.5400 15.8311 -0.2404
47.5600 15.8378 -0.2607
47.5800 15.8445 -0.2399
47.6000 15.8511 -0.2387
47.6200 15.8577 -0.2621
47.6400 15.8643 -0.2398
47.6600 15.8710 -0.2424
47.6800 15.8777 -0.2606
47.7000 15.8844 -0.2441
47.7200 15.8911 -0.2439
47.7400 15.8978 -0.2599
47.7600 15.9044 -0.2448
47.7800 15.9111 -0.2480
47.8000 15.9177 -0.2613
47.8200 15.9243 -0.2423
47.8400 15.9310 -0.2463
47.8600 15.9377 -0.2614
47.8800 15.9444 -0.2419
47.9000 15.9510 -0.2479
47.9200 15.9577 -0.2636
47.9400 15.9644 -0.2432
47.9600 15.9710 -0.2529
47.9800 15.9777 -0.2534
48.0000 15.9843 -0.2509
48.0200 15.9910 -0.2523
48.0400 15.9977 -0.2550
48.0600 16.0044 -0.2461
48.0800 16.0111 -0.2582
48.1000 16.0178 -0.2566
48.1200 16.0245 -0.2522
48.1400 16.0311 -0.2533
48.1600 16.0377 -0.2521
48.1800 16.0443 -0.2542
48.2000 16.0510 -0.2510
48.2200 16.0577 -0.2535
48.2400 16.0644 -0.2553
48.2600 16.0711 -0.2553
48.2800 16.0778 -0.2529
48.3000 16.0844 -0.2542
48.3200 16.0911 -0.2567
48.3400 16.0977 -0.2538
48.3600 16.1043 -0.2521
48.3800 16.1110 -0.2575
48.4000 16.1177 -0.2562
48.4200 16.1244 -0.2618
48.4400 16.1311 -0.2493
48.4600 16.1378 -0.2525
48.4800 16.1444 -0.2624
48.5000 16.1511 -0.2564
48.5200 16.1577 -0.2523
48.5400 16.1644 -0.2651
48.5600 16.1710 -0.2539
48.5800 16.1777 -0.2524
48.6000 16.1844 -0.2602
48.6200 16.1911 -0.2592
48.6400 16.1978 -0.2568
48.6600 16.2045 -0.2609
48.6800 16.2111 -0.2575
48.7000 16.2177 -0.2576
48.7200 16.2243 -0.2582
48.7400 16.2309 -0.2558
48.7600 16.2377 -0.2615
48.7800 16.2444 -0.2632
48.8000 16.2511 -0.2614
48.8200 16.2578 -0.2604
48.8400 16.2644 -0.2645
48.8600 16.2711 -0.2643
48.8800 16.2777 -0.2582
48.9000 16.2843 -0.2612
48.9200 16.2910 -0.2673
48.9400 16.2977 -0.2595
48.9600 16.3044 -0.2661
48.9800 16.3111 -0.2645
49.0000 16.3178 -0.2615
49.0200 16.3245 -0.2633
49.0400 16.3311 -0.2710
49.0600 16.3377 -0.2633
49.0800 16.3444 -0.2705
49.1000 16.3510 -0.2675
49.1200 16.3577 -0.2655
49.1400 16.3644 -0.2730
49.1600 16.3711 -0.2664
49.1800 16.3778 -0.2707
49.2000 16.3845 -0.2752
49.2200 16.3911 -0.2642
49.2400 16.3977 -0.2750
49.2600 16.4043 -0.2735
49.2800 16.4110 -0.2647
49.3000 16.4177 -0.2796
49.3200 16.4244 -0.2734
49.3400 16.4311 -0.2689
49.3600 16.4378 -0.2762
49.3800 16.4444 -0.2750
49.4000 16.4511 -0.2679
49.4200 16.4577 -0.2805
49.4400 16.4643 -0.2738
49.4600 16.4710 -0.2693
49.4800 16.4777 -0.2817
49.5000 16.4844 -0.2750
49.5200 16.4910 -0.2704
49.5400 16.4977 -0.2817
49.5600 16.5044 -0.2742
49.5800 16.5111 -0.2761
49.6000 16.5177 -0.2848
49.6200 16.5243 -0.2792
49.6400 16.5310 -0.2713
49.6600 16.5377 -0.2858
49.6800 16.5444 -0.2827
49.7000 16.5511 -0.2724
49.7200 16.5578 -0.2860
49.7400 16.5645 -0.2844
49.7600 16.5711 -0.2755
49.7800 16.5777 -0.2884
49.8000 16.5843 -0.2837
49.8200 16.5910 -0.2743
49.8400 16.5977 -0.2909
49.8600 16.6045 -0.2829
49.8800 16.6111 -0.2771
49.9000 16.6178 -0.2971
49.9200 16.6244 -0.2800
49.9400 16.6311 -0.2793
49.9600 16.6377 -0.2964
49.9800 16.6443 -0.2769
50.0000 16.6510 -0.2833
50.0200 16.6577 -0.2917
50.0400 16.6644 -0.2861
50.0600 16.6710 -0.2851
50.0800 16.6777 -0.2963
50.1000 16.6844 -0.2847
50.1200 16.6911 -0.2916
50.1400 16.6977 -0.2946
50.1600 16.7043 -0.2853
50.1800 16.7110 -0.2897
50.2000 16.7177 -0.2975
50.2200 16.7244 -0.2891
50.2400 16.7311 -0.2916
50.2600 16.7378 -0.2977
50.2800 16.7444 -0.2858
50.3000 16.7511 -0.2983
50.3200 16.7577 -0.3022
50.3400 16.7643 -0.2863
50.3600 16.7710 -0.2967
50.3800 16.7777 -0.3041
50.4000 16.7844 -0.2895
50.4200 16.7911 -0.2981
50.4400 16.7978 -0.2994
50.4600 16.8044 -0.2967
50.4800 16.8111 -0.2968
50.5000 16.8177 -0.3044
50.5200 16.8244 -0.2953
50.5400 16.8310 -0.3006
50.5600 16.8377 -0.3013
50.5800 16.8444 -0.2945
50.6000 16.8511 -0.2985
50.6200 16.8578 -0.3062
50.6400 16.8645 -0.2976
50.6600 16.8711 -0.2979
50.6800 16.8778 -0.3059
50.7000 16.8843 -0.2992
50.7200 16.8910 -0.2950
50.7400 16.8977 -0.3077
50.7600 16.9044 -0.2998
50.7800 16.9111 -0.3008
50.8000 16.9178 -0.3085
50.8200 16.9244 -0.2977
50.8400 16.9311 -0.3007
50.8600 16.9377 -0.3098
50.8800 16.9443 -0.2985
50.9000 16.9509 -0.2956
50.9200 16.9576 -0.3134
50.9400 16.9643 -0.3022
50.9600 16.9710 -0.2981
50.9800 16.9777 -0.3096
51.0000 16.9844 -0.3051
51.0200 16.9911 -0.3007
51.0400 16.9977 -0.3130
51.0600 17.0043 -0.3020
51.0800 17.0110 -0.3037
51.1000 17.0177 -0.3134
51.1200 17.0244 -0.3078
51.1400 17.0311 -0.3038
51.1600 17.0378 -0.3180
51.1800 17.0445 -0.3074
51.2000 17.0511 -0.3035
51.2200 17.0578 -0.3173
51.2400 17.0644 -0.3134
51.2600 17.0710 -0.3046
51.2800 17.0777 -0.3140
51.3000 17.0844 -0.3140
51.3200 17.0911 -0.3086
51.3400 17.0978 -0.3211
51.3600 17.1045 -0.3117
51.3800 17.1111 -0.3099
51.4000 17.1177 -0.3195
51.4200 17.1243 -0.3122
51.4400 17.1310 -0.3099
51.4600 17.1377 -0.3244
51.4800 17.1444 -0.3077
51.5000 17.1511 -0.3167
51.5200 17.1577 -0.3239
51.5400 17.1644 -0.3083
51.5600 17.1711 -0.3227
51.5800 17.1778 -0.3320
51.6000 17.1844 -0.3052
51.6200 17.1910 -0.3257
51.6400 17.1976 -0.3313
51.6600 17.2043 -0.3111
51.6800 17.2110 -0.3246
51.7000 17.2177 -0.3299
51.7200 17.2244 -0.3122
51.7400 17.2311 -0.3283
51.7600 17.2377 -0.3287
51.7800 17.2443 -0.3135
51.8000 17.2510 -0.3349
51.8200 17.2577 -0.3262
51.8400 17.2644 -0.3145
51.8600 17.2711 -0.3335
51.8800 17.2778 -0.3328
51.9000 17.2845 -0.3156
51.9200 17.2911 -0.3360
51.9400 17.2977 -0.3302
51.9600 17.3043 -0.3186
51.9800 17.3110 -0.3342
52.0000 17.3177 -0.3309
52.0200 17.3245 -0.3195
52.0400 17.3312 -0.3404
52.0600 17.3378 -0.3287
52.0800 17.3444 -0.3232
52.1000 17.3511 -0.3392
52.1200 17.3577 -0.3316
52.1400 17.3643 -0.3226
52.1600 17.3710 -0.3370
52.1800 17.3777 -0.3358
52.2000 17.3844 -0.3199
52.2200 17.3911 -0.3392
52.2400 17.3977 -0.3404
52.2600 17.4044 -0.3251
52.2800 17.4111 -0.3392
52.3000 17.4177 -0.3427
52.3200 17.4243 -0.3246
52.3400 17.4309 -0.3358
52.3600 17.4376 -0.3452
52.3800 17.4444 -0.3272
52.4000 17.4511 -0.3364
52.4200 17.4578 -0.3509
52.4400 17.4644 -0.3229
52.4600 17.4711 -0.3370
52.4800 17.4777 -0.3511
52.5000 17.4844 -0.3278
52.5200 17.4910 -0.3387
52.5400 17.4977 -0.3509
52.5600 17.5044 -0.3214
52.5800 17.5111 -0.3438
52.6000 17.5177 -0.3506
52.6200 17.5244 -0.3228
52.6400 17.5311 -0.3476
52.6600 17.5378 -0.3504
52.6800 17.5444 -0.3226
52.7000 17.5510 -0.3499
52.7200 17.5576 -0.3480
52.7400 17.5644 -0.3285
52.7600 17.5711 -0.3549
52.7800 17.5778 -0.3453
52.8000 17.5845 -0.3312
52.8200 17.5911 -0.3589
52.8400 17.5978 -0.3447
52.8600 17.6044 -0.3303
52.8800 17.6110 -0.3560
52.9000 17.6176 -0.3405
52.9200 17.6244 -0.3359
52.9400 17.6311 -0.3548
52.9600 17.6378 -0.3451
52.9800 17.6444 -0.3385
53.0000 17.6511 -0.3523
53.0200 17.6577 -0.3483
53.0400 17.6643 -0.3446
53.0600 17.6709 -0.3472
53.0800 17.6776 -0.3487
53.1000 17.6843 -0.3422
53.1200 17.6910 -0.3484
53.1400 17.6977 -0.3544
53.1600 17.7044 -0.3457
53.1800 17.7111 -0.3415
53.2000 17.7177 -0.3624
53.2200 17.7243 -0.3463
53.2400 17.7310 -0.3417
53.2600 17.7376 -0.3626
53.2800 17.7444 -0.3458
53.3000 17.7511 -0.3468
53.3200 17.7578 -0.3645
53.3400 17.7645 -0.3430
53.3600 17.7712 -0.3510
53.3800 17.7778 -0.3683
53.4000 17.7844 -0.3349
53.4200 17.7910 -0.3505
53.4400 17.7977 -0.3709
53.4600 17.8044 -0.3405
53.4800 17.8111 -0.3525
53.5000 17.8178 -0.3727
53.5200 17.8245 -0.3380
53.5400 17.8311 -0.3572
53.5600 17.8378 -0.3692
53.5800 17.8444 -0.3443
53.6000 17.8510 -0.3586
53.6200 17.8577 -0.3715
53.6400 17.8644 -0.3439
53.6600 17.8710 -0.3652
53.6800 17.8777 -0.3724
53.7000 17.8844 -0.3470
53.7200 17.8911 -0.3670
53.7400 17.8977 -0.3727
53.7600 17.9043 -0.3537
53.7800 17.9109 -0.3648
53.8000 17.9176 -0.3688
53.8200 17.9243 -0.3554
53.8400 17.9310 -0.3703
53.8600 17.9377 -0.3698
53.8800 17.9444 -0.3562
53.9000 17.9511 -0.3727
53.9200 17.9577 -0.3731
53.9400 17.9643 -0.3588
53.9600 17.9710 -0.3756
53.9800 17.9777 -0.3707
54.0000 17.9844 -0.3628
54.0200 17.9911 -0.3757
54.0400 17.9978 -0.3773
54.0600 18.0044 -0.3618
54.0800 18.0111 -0.3796
54.1000 18.0178 -0.3784
54.1200 18.0244 -0.3657
54.1400 18.0310 -0.3797
54.1600 18.0377 -0.3828
54.1800 18.0444 -0.3615
54.2000 18.0511 -0.3788
54.2200 18.0578 -0.3807
54.2400 18.0644 -0.3689
54.2600 18.0711 -0.3869
54.2800 18.0778 -0.3812
54.3000 18.0844 -0.3697
54.3200 18.0910 -0.3853
54.3400 18.0976 -0.3800
54.3600 18.1043 -0.3707
54.3800 18.1111 -0.3906
54.4000 18.1177 -0.3806
54.4200 18.1244 -0.3751
54.4400 18.1311 -0.3898
54.4600 18.1378 -0.3852
54.4800 18.1444 -0.3758
54.5000 18.1509 -0.3959
54.5200 18.1576 -0.3794
54.5400 18.1643 -0.3812
54.5600 18.1710 -0.3951
54.5800 18.1777 -0.3836
54.6000 18.1844 -0.3817
54.6200 18.1911 -0.3943
54.6400 18.1978 -0.3852
54.6600 18.2044 -0.3882
54.6800 18.2110 -0.3945
54.7000 18.2177 -0.3855
54.7200 18.2244 -0.3861
54.7400 18.2311 -0.4035
54.7600 18.2377 -0.3829
54.7800 18.2444 -0.3869
54.8000 18.2511 -0.4069
54.8200 18.2578 -0.3900
54.8400 18.2644 -0.3860
54.8600 18.2710 -0.4037
54.8800 18.2777 -0.3894
54.9000 18.2844 -0.3855
54.9200 18.2911 -0.4103
54.9400 18.2978 -0.3886
54.9600 18.3045 -0.3935
54.9800 18.3111 -0.4081
55.0000 18.3178 -0.3913
55.0200 18.3244 -0.3955
55.0400 18.3310 -0.4092
55.0600 18.3377 -0.3876
55.0800 18.3444 -0.3942
55.1000 18.3511 -0.4091
55.1200 18.3577 -0.3922
55.1400 18.3644 -0.3970
55.1600 18.3711 -0.4132
55.1800 18.3778 -0.3915
55.2000 18.3844 -0.4034
55.2200 18.3910 -0.4136
55.2400 18.3976 -0.3960
55.2600 18.4043 -0.4033
55.2800 18.4110 -0.4102
55.3000 18.4177 -0.3996
55.3200 18.4244 -0.4039
55.3400 18.4311 -0.4101
55.3600 18.4378 -0.4034
55.3800 18.4444 -0.4115
55.4000 18.4510 -0.4079
55.4200 18.4576 -0.4023
55.4400 18.4643 -0.4096
55.4600 18.4711 -0.4123
55.4800 18.4778 -0.4057
55.5000 18.4845 -0.4145
55.5200 18.4911 -0.4062
55.5400 18.4978 -0.4139
55.5600 18.5044 -0.4142
55.5800 18.5110 -0.4112
55.6000 18.5177 -0.4129
55.6200 18.5244 -0.4162
55.6400 18.5311 -0.4124
55.6600 18.5378 -0.4148
55.6800 18.5444 -0.4161
55.7000 18.5511 -0.4111
55.7200 18.5578 -0.4144
55.7400 18.5644 -0.4191
55.7600 18.5710 -0.4134
55.7800 18.5776 -0.4139
55.8000 18.5843 -0.4159
55.8200 18.5910 -0.4157
55.8400 18.5977 -0.4166
55.8600 18.6044 -0.4226
55.8800 18.6111 -0.4224
55.9000 18.6178 -0.4207
55.9200 18.6244 -0.4243
55.9400 18.6310 -0.4157
55.9600 18.6376 -0.4213
55.9800 18.6443 -0.4279
56.0000 18.6510 -0.4199
56.0200 18.6577 -0.4257
56.0400 18.6644 -0.4263
56.0600 18.6711 -0.4171
56.0800 18.6777 -0.4317
56.1000 18.6844 -0.4241
56.1200 18.6910 -0.4235
56.1400 18.6977 -0.4274
56.1600 18.7043 -0.4269
56.1800 18.7111 -0.4185
56.2000 18.7178 -0.4370
56.2200 18.7244 -0.4243
56.2400 18.7311 -0.4258
56.2600 18.7378 -0.4398
56.2800 18.7444 -0.4220
56.3000 18.7510 -0.4303
56.3200 18.7577 -0.4398
56.3400 18.7643 -0.4228
56.3600 18.7711 -0.4343
56.3800 18.7778 -0.4396
56.4000 18.7845 -0.4221
56.4200 18.7912 -0.4380
56.4400 18.7978 -0.4392
56.4600 18.8044 -0.4254
56.4800 18.8110 -0.4379
56.5000 18.8176 -0.4333
56.5200 18.8243 -0.4251
56.5400 18.8310 -0.4457
56.5600 18.8377 -0.4317
56.5800 18.8444 -0.4315
56.6000 18.8511 -0.4442
56.6200 18.8577 -0.4339
56.6400 18.8644 -0.4283
56.6600 18.8710 -0.4442
56.6800 18.8776 -0.4295
56.7000 18.8843 -0.4329
56.7200 18.8910 -0.4403
56.7400 18.8977 -0.4296
56.7600 18.9044 -0.4341
56.7800 18.9110 -0.4376
56.8000 18.9177 -0.4301
56.8200 18.9244 -0.4357
56.8400 18.9310 -0.4351
56.8600 18.9377 -0.4338
56.8800 18.9444 -0.4387
56.9000 18.9511 -0.4294
56.9200 18.9578 -0.4355
56.9400 18.9644 -0.4373
56.9600 18.9711 -0.4322
56.9800 18.9778 -0.4297
57.0000 18.9844 -0.4435
57.0200 18.9910 -0.4265
57.0400 18.9976 -0.4296
57.0600 19.0043 -0.4428
57.0800 19.0111 -0.4292
57.1000 19.0178 -0.4279
57.1200 19.0244 -0.4438
57.1400 19.0311 -0.4268
57.1600 19.0378 -0.4337
57.1800 19.0444 -0.4437
57.2000 19.0510 -0.4251
57.2200 19.0577 -0.4317
57.2400 19.0643 -0.4461
57.2600 19.0710 -0.4284
57.2800 19.0777 -0.4341
57.3000 19.0844 -0.4445
57.3200 19.0911 -0.4292
57.3400 19.0978 -0.4382
57.3600 19.1044 -0.4452
57.3800 19.1110 -0.4321
57.4000 19.1176 -0.4426
57.4200 19.1243 -0.4428
57.4400 19.1310 -0.4296
57.4600 19.1377 -0.4394
57.4800 19.1444 -0.4475
57.5000 19.1511 -0.4321
57.5200 19.1577 -0.4407
57.5400 19.1644 -0.4565
57.5600 19.1710 -0.4295
57.5800 19.1776 -0.4456
57.6000 19.1843 -0.4506
57.6200 19.1911 -0.4383
57.6400 19.1978 -0.4430
57.6600 19.2045 -0.4518
57.6800 19.2111 -0.4414
57.7000 19.2178 -0.4446
57.7200 19.2245 -0.4564
57.7400 19.2311 -0.4461
57.7600 19.2377 -0.4451
57.7800 19.2444 -0.4572
57.8000 19.2511 -0.4472
57.8200 19.2578 -0.4500
57.8400 19.2644 -0.4559
57.8600 19.2711 -0.4483
57.8800 19.2778 -0.4550
57.9000 19.2844 -0.4589
57.9200 19.2910 -0.4475
57.9400 19.2976 -0.4521
57.9600 19.3043 -0.4640
57.9800 19.3110 -0.4556
58.0000 19.3177 -0.4593
58.0200 19.3244 -0.4650
58.0400 19.3311 -0.4562
58.0600 19.3378 -0.4631
58.0800 19.3444 -0.4676
58.1000 19.3510 -0.4587
58.1200 19.3576 -0.4675
58.1400 19.3643 -0.4653
58.1600 19.3710 -0.4627
58.1800 19.3778 -0.4695
58.2000 19.3844 -0.4729
58.2200 19.3911 -0.4607
58.2400 19.3977 -0.4775
58.2600 19.4044 -0.4762
58.2800 19.4111 -0.4646
58.3000 19.4177 -0.4801
58.3200 19.4244 -0.4725
58.3400 19.4311 -0.4727
58.3600 19.4377 -0.4814
58.3800 19.4444 -0.4761
58.4000 19.4511 -0.4769
58.4200 19.4578 -0.4794
58.4400 19.4645 -0.4835
58.4600 19.4711 -0.4781
58.4800 19.4776 -0.4779
58.5000 19.4843 -0.4841
58.5200 19.4910 -0.4806
58.5400 19.4978 -0.4834
58.5600 19.5044 -0.4843
58.5800 19.5111 -0.4864
58.6000 19.5178 -0.4835
58.6200 19.5244 -0.4933
58.6400 19.5310 -0.4846
58.6600 19.5376 -0.4823
58.6800 19.5443 -0.4985
58.7000 19.5510 -0.4861
58.7200 19.5578 -0.4834
58.7400 19.5644 -0.5072
58.7600 19.5711 -0.4876
58.7800 19.5777 -0.4883
58.8000 19.5844 -0.5069
58.8200 19.5910 -0.4963
58.8400 19.5976 -0.4892
58.8600 19.6043 -0.5086
58.8800 19.6110 -0.4955
58.9000 19.6177 -0.4898
58.9200 19.6244 -0.5139
58.9400 19.6311 -0.4902
58.9600 19.6378 -0.4955
58.9800 19.6444 -0.5136
59.0000 19.6510 -0.4947
59.0200 19.6576 -0.4915
59.0400 19.6643 -0.5150
59.0600 19.6710 -0.4933
59.0800 19.6778 -0.4965
59.1000 19.6845 -0.5153
59.1200 19.6911 -0.4932
59.1400 19.6978 -0.4949
59.1600 19.7044 -0.5209
59.1800 19.7110 -0.4937
59.2000 19.7176 -0.4974
59.2200 19.7243 -0.5135
59.2400 19.7310 -0.4965
59.2600 19.7377 -0.5047
59.2800 19.7444 -0.5165
59.3000 19.7511 -0.4983
59.3200 19.7578 -0.5029
59.3400 19.7645 -0.5146
59.3600 19.7711 -0.5007
59.3800 19.7777 -0.5061
59.4000 19.7843 -0.5138
59.4200 19.7910 -0.4935
59.4400 19.7977 -0.5092
59.4600 19.8044 -0.5198
59.4800 19.8111 -0.4914
59.5000 19.8178 -0.5114
59.5200 19.8244 -0.5150
59.5400 19.8310 -0.4983
59.5600 19.8376 -0.5095
59.5800 19.8443 -0.5153
59.6000 19.8510 -0.4967
59.6200 19.8577 -0.5166
59.6400 19.8644 -0.5104
59.6600 19.8711 -0.5024
59.6800 19.8777 -0.5169
59.7000 19.8844 -0.5142
59.7200 19.8910 -0.5008
59.7400 19.8977 -0.5184
59.7600 19.9043 -0.5097
59.7800 19.9110 -0.5047
59.8000 19.9177 -0.5226
59.8200 19.9244 -0.5122
59.8400 19.9311 -0.5089
59.8600 19.9378 -0.5229
59.8800 19.9445 -0.5121
59.9000 19.9511 -0.5167
59.9200 19.9577 -0.5270
59.9400 19.9643 -0.5073
59.9600 19.9710 -0.5173
59.9800 19.9777 -0.5282
60.0000 19.9845 -0.5098
60.0200 19.9911 -0.5197
60.0400 19.9978 -0.5285
60.0600 20.0044 -0.5094
60.0800 20.0110 -0.5235
60.1000 20.0176 -0.5303
60.1200 20.0243 -0.5092
60.1400 20.0310 -0.5240
60.1600 20.0377 -0.5360
60.1800 20.0444 -0.5120
60.2000 20.0511 -0.5335
60.2200 20.0578 -0.5310
60.2400 20.0644 -0.5178
60.2600 20.0711 -0.5334
60.2800 20.0777 -0.5368
60.3000 20.0843 -0.5176
60.3200 20.0910 -0.5344
60.3400 20.0977 -0.5352
60.3600 20.1044 -0.5200
60.3800 20.1111 -0.5373
60.4000 20.1177 -0.5361
60.4200 20.1244 -0.5246
60.4400 20.1311 -0.5414
60.4600 20.1377 -0.5408
60.4800 20.1443 -0.5287
60.5000 20.1510 -0.5455
60.5200 20.1577 -0.5399
60.5400 20.1644 -0.5382
60.5600 20.1711 -0.5465
60.5800 20.1778 -0.5421
60.6000 20.1845 -0.5362
60.6200 20.1911 -0.5492
60.6400 20.1977 -0.5475
60.6600 20.2043 -0.5428
60.6800 20.2110 -0.5454
60.7000 20.2177 -0.5556
60.7200 20.2245 -0.5423
60.7400 20.2311 -0.5557
60.7600 20.2378 -0.5565
60.7800 20.2445 -0.5471
60.8000 20.2511 -0.5553
60.8200 20.2577 -0.5618
60.8400 20.2643 -0.5490
60.8600 20.2710 -0.5530
60.8800 20.2777 -0.5683
60.9000 20.2844 -0.5529
60.9200 20.2911 -0.5577
60.9400 20.2977 -0.5634
60.9600 20.3044 -0.5316
60.9800 20.3111 -0.4787
61.0000 20.3177 -0.4222
61.0200 20.3243 -0.3539
61.0400 20.3310 -0.3085
61.0600 20.3377 -0.2591
61.0800 20.3444 -0.2059
61.1000 20.3511 -0.1635
61.1200 20.3577 -0.1229
61.1400 20.3644 -0.0713
61.1600 20.3711 -0.0540
61.1800 20.3777 -0.0359
61.2000 20.3843 -0.0060
61.2200 20.3910 0.0072
61.2400 20.3978 0.0159
61.2600 20.4045 0.0463
61.2800 20.4111 0.0527
61.3000 20.4178 0.0757
61.3200 20.4245 0.1167
61.3400 20.4311 0.1264
61.3600 20.4377 0.1537
61.3800 20.4443 0.1949
61.4000 20.4510 0.2056
61.4200 20.4577 0.2321
61.4400 20.4644 0.2795
61.4600 20.4711 0.2847
61.4800 20.4778 0.3124
61.5000 20.4845 0.3628
61.5200 20.4911 0.3610
61.5400 20.4977 0.3859
61.5600 20.5043 0.4327
61.5800 20.5109 0.4324
61.6000 20.5177 0.4667
61.6200 20.5244 0.5077
61.6400 20.5311 0.5142
61.6600 20.5378 0.5462
61.6800 20.5444 0.5891
61.7000 20.5511 0.5899
61.7200 20.5576 0.6302
61.7400 20.5643 0.6691
61.7600 20.5709 0.6696
61.7800 20.5777 0.7043
61.8000 20.5844 0.7518
61.8200 20.5911 0.7461
61.8400 20.5977 0.7897
61.8600 20.6044 0.8296
61.8800 20.6110 0.8265
61.9000 20.6177 0.8690
61.9200 20.6243 0.9064
61.9400 20.6310 0.9043
61.9600 20.6377 0.9393
61.9800 20.6444 0.9588
62.0000 20.6511 0.9318
62.0200 20.6578 0.9467
62.0400 20.6645 0.9403
62.0600 20.6711 0.9155
62.0800 20.6777 0.9352
62.1000 20.6843 0.9399
62.1200 20.6910 0.9093
62.1400 20.6977 0.9275
62.1600 20.7044 0.9306
62.1800 20.7111 0.9046
62.2000 20.7178 0.9242
62.2200 20.7244 0.9333
62.2400 20.7311 0.9096
62.2600 20.7377 0.9309
62.2800 20.7443 0.9272
62.3000 20.7510 0.9136
62.3200 20.7577 0.9290
62.3400 20.7644 0.9318
62.3600 20.7710 0.9135
62.3800 20.7777 0.9253
62.4000 20.7844 0.9287
62.4200 20.7911 0.9135
62.4400 20.7977 0.9289
62.4600 20.8043 0.9353
62.4800 20.8110 0.9210
62.5000 20.8177 0.9308
62.5200 20.8244 0.9293
62.5400 20.8311 0.9202
62.5600 20.8378 0.9287
62.5800 20.8445 0.9303
62.6000 20.8511 0.9237
62.6200 20.8577 0.9274
62.6400 20.8643 0.9311
62.6600 20.8710 0.9256
62.6800 20.8777 0.9294
62.7000 20.8844 0.9266
62.7200 20.8911 0.9262
62.7400 20.8978 0.9214
62.7600 20.9045 0.9241
62.7800 20.9111 0.9200
62.8000 20.9177 0.9198
62.8200 20.9243 0.9207
62.8400 20.9310 0.9154
62.8600 20.9377 0.9157
62.8800 20.9444 0.9152
62.9000 20.9511 0.9129
62.9200 20.9577 0.9138
62.9400 20.9644 0.9091
62.9600 20.9711 0.9092
62.9800 20.9777 0.9071
63.0000 20.9844 0.8993
63.0200 20.9910 0.9148
63.0400 20.9977 0.9040
63.0600 21.0044 0.8996
63.0800 21.0111 0.9149
63.1000 21.0178 0.9043
63.1200 21.0245 0.8978
63.1400 21.0311 0.9171
63.1600 21.0377 0.8927
63.1800 21.0443 0.8981
63.2000 21.0509 0.9141
63.2200 21.0577 0.8894
63.2400 21.0644 0.8894
63.2600 21.0711 0.9078
63.2800 21.0778 0.8834
63.3000 21.0844 0.8921
63.3200 21.0911 0.9026
63.3400 21.0977 0.8789
63.3600 21.1043 0.8906
63.3800 21.1110 0.9027
63.4000 21.1177 0.8781
63.4200 21.1244 0.8892
63.4400 21.1311 0.8951
63.4600 21.1378 0.8795
63.4800 21.1444 0.8866
63.5000 21.1511 0.8867
63.5200 21.1577 0.8806
63.5400 21.1643 0.8821
63.5600 21.1710 0.8881
63.5800 21.1777 0.8773
63.6000 21.1844 0.8768
63.6200 21.1911 0.8828
63.6400 21.1978 0.8772
63.6600 21.2045 0.8743
63.6800 21.2111 0.8790
63.7000 21.2177 0.8744
63.7200 21.2243 0.8726
63.7400 21.2310 0.8752
63.7600 21.2377 0.8737
63.7800 21.2444 0.8616
63.8000 21.2511 0.8747
63.8200 21.2578 0.8658
63.8400 21.2644 0.8624
63.8600 21.2711 0.8730
63.8800 21.2777 0.8651
63.9000 21.2843 0.8600
63.9200 21.2910 0.8725
63.9400 21.2977 0.8630
63.9600 21.3043 0.8581
63.9800 21.3110 0.8707
64.0000 21.3177 0.8613
64.0200 21.3244 0.8583
64.0400 21.3311 0.8651
64.0600 21.3377 0.8604
64.0800 21.3443 0.8535
64.1000 21.3510 0.8632
64.1200 21.3577 0.8553
64.1400 21.3644 0.8467
64.1600 21.3711 0.8573
64.1800 21.3778 0.8543
64.2000 21.3845 0.8437
64.2200 21.3911 0.8551
64.2400 21.3977 0.8468
64.2600 21.4043 0.8468
64.2800 21.4110 0.8551
64.3000 21.4177 0.8472
64.3200 21.4244 0.8389
64.3400 21.4311 0.8487
64.3600 21.4378 0.8465
64.3800 21.4444 0.8402
64.4000 21.4511 0.8474
64.4200 21.4577 0.8444
64.4400 21.4643 0.8369
64.4600 21.4710 0.8452
64.4800 21.4777 0.8440
64.5000 21.4844 0.8337
64.5200 21.4910 0.8418
64.5400 21.4977 0.8398
64.5600 21.5044 0.8327
64.5800 21.5111 0.8403
64.6000 21.5177 0.8358
64.6200 21.5243 0.8360
64.6400 21.5309 0.8470
64.6600 21.5376 0.8327
64.6800 21.5444 0.8313
64.7000 21.5511 0.8435
64.7200 21.5578 0.8327
64.7400 21.5644 0.8303
64.7600 21.5711 0.8430
64.7800 21.5777 0.8261
64.8000 21.5843 0.8335
64.8200 21.5910 0.8374
64.8400 21.5977 0.8239
64.8600 21.6044 0.8272
64.8800 21.6111 0.8386
64.9000 21.6177 0.8178
64.9200 21.6244 0.8232
64.9400 21.6311 0.8347
64.9600 21.6378 0.8112
64.9800 21.6444 0.8187
65.0000 21.6510 0.8335
65.0200 21.6577 0.8172
65.0400 21.6644 0.8199
65.0600 21.6711 0.8266
65.0800 21.6778 0.8179
65.1000 21.6845 0.8142
65.1200 21.6911 0.8200
65.1400 21.6978 0.8127
65.1600 21.7044 0.8119
65.1800 21.7110 0.8204
65.2000 21.7177 0.8105
65.2200 21.7244 0.8099
65.2400 21.7311 0.8151
65.2600 21.7378 0.8110
65.2800 21.7444 0.8072
65.3000 21.7511 0.8168
65.3200 21.7577 0.8080
65.3400 21.7643 0.8096
65.3600 21.7709 0.8098
65.3800 21.7776 0.8075
65.4000 21.7843 0.8046
65.4200 21.7910 0.8099
65.4400 21.7977 0.8040
65.4600 21.8044 0.8048
65.4800 21.8111 0.8092
65.5000 21.8177 0.8014
65.5200 21.8243 0.7991
65.5400 21.8310 0.8087
65.5600 21.8377 0.8023
65.5800 21.8444 0.8030
65.6000 21.8511 0.8089
65.6200 21.8578 0.8029
65.6400 21.8645 0.8028
65.6600 21.8711 0.8063
65.6800 21.8778 0.8018
65.7000 21.8844 0.8029
65.7200 21.8910 0.8075
65.7400 21.8977 0.7981
65.7600 21.9044 0.8030
65.7800 21.9111 0.8013
65.8000 21.9178 0.8002
65.8200 21.9245 0.7980
65.8400 21.9311 0.7985
65.8600 21.9377 0.7973
65.8800 21.9443 0.7985
65.9000 21.9510 0.7985
65.9200 21.9577 0.7990
65.9400 21.9644 0.7941
65.9600 21.9711 0.7931
65.9800 21.9777 0.7967
66.0000 21.9844 0.7901
66.0200 21.9911 0.7921
66.0400 21.9978 0.7980
66.0600 22.0044 0.7858
66.0800 22.0110 0.7933
66.1000 22.0177 0.7968
66.1200 22.0243 0.7833
66.1400 22.0310 0.7895
66.1600 22.0377 0.7921
66.1800 22.0444 0.7799
66.2000 22.0511 0.7888
66.2200 22.0577 0.7915
66.2400 22.0643 0.7721
66.2600 22.0710 0.7891
66.2800 22.0777 0.7881
66.3000 22.0844 0.7716
66.3200 22.0911 0.7847
66.3400 22.0978 0.7891
66.3600 22.1045 0.7660
66.3800 22.1111 0.7870
66.4000 22.1178 0.7777
66.4200 22.1243 0.7659
66.4400 22.1310 0.7902
66.4600 22.1377 0.7751
66.4800 22.1444 0.7652
66.5000 22.1511 0.7874
66.5200 22.1578 0.7730
66.5400 22.1644 0.7641
66.5600 22.1711 0.7823
66.5800 22.1777 0.7700
66.6000 22.1844 0.7624
66.6200 22.1910 0.7796
66.6400 22.1977 0.7663
66.6600 22.2044 0.7638
66.6800 22.2110 0.7785
66.7000 22.2177 0.7612
66.7200 22.2244 0.7646
66.7400 22.2311 0.7720
66.7600 22.2377 0.7597
66.7800 22.2443 0.7610
66.8000 22.2509 0.7681
66.8200 22.2576 0.7553
66.8400 22.2643 0.7647
66.8600 22.2711 0.7622
66.8800 22.2778 0.7543
66.9000 22.2844 0.7605
66.9200 22.2911 0.7617
66.9400 22.2977 0.7521
66.9600 22.3044 0.7570
66.9800 22.3110 0.7612
67.0000 22.3177 0.7567
67.0200 22.3244 0.7446
67.0400 22.3311 0.7553
67.0600 22.3377 0.7559
67.0800 22.3444 0.7464
67.1000 22.3511 0.7509
67.1200 22.3578 0.7523
67.1400 22.3644 0.7447
67.1600 22.3710 0.7486
67.1800 22.3776 0.7537
67.2000 22.3844 0.7428
67.2200 22.3911 0.7492
67.2400 22.3978 0.7477
67.2600 22.4044 0.7406
67.2800 22.4111 0.7436
67.3000 22.4178 0.7489
67.3200 22.4244 0.7331
67.3400 22.4310 0.7447
67.3600 22.4377 0.7408
67.3800 22.4444 0.7360
67.4000 22.4511 0.7405
67.4200 22.4578 0.7457
67.4400 22.4644 0.7328
67.4600 22.4711 0.7386
67.4800 22.4777 0.7403
67.5000 22.4844 0.7307
67.5200 22.4909 0.7361
67.5400 22.4976 0.7430
67.5600 22.5043 0.7275
67.5800 22.5110 0.7320
67.6000 22.5177 0.7388
67.6200 22.5244 0.7258
67.6400 22.5311 0.7315
67.6600 22.5377 0.7365
67.6800 22.5444 0.7271
67.7000 22.5510 0.7308
67.7200 22.5576 0.7383
67.7400 22.5644 0.7246
67.7600 22.5711 0.7274
67.7800 22.5778 0.7316
67.8000 22.5845 0.7242
67.8200 22.5912 0.7213
67.8400 22.5978 0.7316
67.8600 22.6044 0.7204
67.8800 22.6110 0.7226
67.9000 22.6177 0.7273
67.9200 22.6244 0.7231
67.9400 22.6311 0.7151
67.9600 22.6378 0.7253
67.9800 22.6445 0.7203
68.0000 22.6511 0.7123
68.0200 22.6578 0.7246
68.0400 22.6644 0.7185
68.0600 22.6710 0.7067
68.0800 22.6777 0.7283
68.1000 22.6844 0.7176
68.1200 22.6910 0.7071
68.1400 22.6977 0.7249
68.1600 22.7044 0.7124
68.1800 22.7111 0.7070
68.2000 22.7177 0.7189
68.2200 22.7244 0.7121
68.2400 22.7310 0.7036
68.2600 22.7376 0.7199
68.2800 22.7443 0.7131
68.3000 22.7510 0.7063
68.3200 22.7577 0.7149
68.3400 22.7644 0.7139
68.3600 22.7711 0.7056
68.3800 22.7777 0.7106
68.4000 22.7844 0.7118
68.4200 22.7910 0.7110
68.4400 22.7976 0.7057
68.4600 22.8044 0.7091
68.4800 22.8111 0.7022
68.5000 22.8178 0.7047
68.5200 22.8244 0.7128
68.5400 22.8311 0.6995
68.5600 22.8378 0.7019
68.5800 22.8444 0.7115
68.6000 22.8510 0.6977
68.6200 22.8577 0.7022
68.6400 22.8644 0.7117
68.6600 22.8711 0.6942
68.6800 22.8778 0.6989
68.7000 22.8845 0.7091
68.7200 22.8911 0.6913
68.7400 22.8978 0.6987
68.7600 22.9044 0.7095
68.7800 22.9110 0.6881
68.8000 22.9176 0.6979
68.8200 22.9243 0.7094
68.8400 22.9311 0.6848
68.8600 22.9377 0.6944
68.8800 22.9444 0.7116
68.9000 22.9511 0.6808
68.9200 22.9578 0.6975
68.9400 22.9644 0.7033
68.9600 22.9710 0.6812
68.9800 22.9776 0.6975
69.0000 22.9843 0.7052
69.0200 22.9910 0.6742
69.0400 22.9977 0.6973
69.0600 23.0044 0.7015
69.0800 23.0111 0.6746
69.1000 23.0177 0.6912
69.1200 23.0244 0.7000
69.1400 23.0310 0.6732
69.1600 23.0376 0.6898
69.1800 23.0443 0.7013
69.2000 23.0510 0.6625
69.2200 23.0577 0.6921
69.2400 23.0644 0.6959
69.2600 23.0711 0.6652
69.2800 23.0778 0.6892
69.3000 23.0844 0.6937
69.3200 23.0910 0.6599
69.3400 23.0976 0.6911
69.3600 23.1044 0.6948
69.3800 23.1111 0.6590
69.4000 23.1178 0.6827
69.4200 23.1245 0.6907
69.4400 23.1311 0.6597
69.4600 23.1378 0.6868
69.4800 23.1444 0.6817
69.5000 23.1510 0.6598
69.5200 23.1577 0.6875
69.5400 23.1644 0.6777
69.5600 23.1711 0.6552
69.5800 23.1778 0.6850
69.6000 23.1844 0.6790
69.6200 23.1911 0.6522
69.6400 23.1978 0.6828
69.6600 23.2044 0.6792
69.6800 23.2110 0.6549
69.7000 23.2176 0.6861
69.7200 23.2243 0.6713
69.7400 23.2310 0.6514
69.7600 23.2377 0.6845
69.7800 23.2444 0.6679
69.8000 23.2511 0.6543
69.8200 23.2578 0.6771
69.8400 23.2644 0.6705
69.8600 23.2710 0.6510
69.8800 23.2776 0.6833
69.9000 23.2843 0.6655
69.9200 23.2911 0.6466
69.9400 23.2978 0.6750
69.9600 23.3045 0.6580
69.9800 23.3111 0.6504
70.0000 23.3178 0.6788
70.0200 23.3244 0.6545
70.0400 23.3310 0.6518
70.0600 23.3377 0.6734
70.0800 23.3444 0.6558
70.1000 23.3511 0.6460
70.1200 23.3578 0.6695
70.1400 23.3644 0.6560
70.1600 23.3711 0.6530
70.1800 23.3778 0.6655
70.2000 23.3844 0.6488
70.2200 23.3910 0.6529
70.2400 23.3976 0.6629
70.2600 23.4043 0.6526
70.2800 23.4110 0.6446
70.3000 23.4177 0.6629
70.3200 23.4244 0.6526
70.3400 23.4311 0.6448
70.3600 23.4378 0.6539
70.3800 23.4444 0.6517
70.4000 23.4510 0.6463
70.4200 23.4576 0.6558
70.4400 23.4643 0.6460
70.4600 23.4710 0.6459
70.4800 23.4777 0.6533
70.5000 23.4844 0.6464
70.5200 23.4911 0.6400
70.5400 23.4978 0.6507
70.5600 23.5044 0.6415
70.5800 23.5110 0.6404
70.6000 23.5176 0.6525
70.6200 23.5243 0.6430
70.6400 23.5311 0.6415
70.6600 23.5378 0.6439
70.6800 23.5444 0.6368
70.7000 23.5511 0.6391
70.7200 23.5578 0.6435
70.7400 23.5644 0.6348
70.7600 23.5710 0.6359
70.7800 23.5777 0.6418
70.8000 23.5844 0.6330
70.8200 23.5911 0.6351
70.8400 23.5978 0.6389
70.8600 23.6045 0.6274
70.8800 23.6111 0.6412
70.9000 23.6178 0.6348
70.9200 23.6245 0.6243
70.9400 23.6311 0.6397
70.9600 23.6376 0.6354
70.9800 23.6443 0.6199
71.0000 23.6510 0.6414
71.0200 23.6577 0.6324
71.0400 23.6644 0.6198
71.0600 23.6711 0.6375
71.0800 23.6778 0.6288
71.1000 23.6844 0.6222
71.1200 23.6910 0.6328
71.1400 23.6976 0.6286
71.1600 23.7043 0.6209
71.1800 23.7110 0.6347
71.2000 23.7177 0.6210
71.2200 23.7244 0.6176
71.2400 23.7310 0.6338
71.2600 23.7377 0.6214
71.2800 23.7444 0.6155
71.3000 23.7510 0.6269
71.3200 23.7577 0.6175
71.3400 23.7643 0.6230
71.3600 23.7710 0.6192
71.3800 23.7777 0.6193
71.4000 23.7844 0.6217
71.4200 23.7911 0.6203
71.4400 23.7978 0.6131
71.4600 23.8045 0.6164
71.4800 23.8110 0.6156
71.5000 23.8176 0.6189
71.5200 23.8243 0.6156
71.5400 23.8311 0.6105
71.5600 23.8378 0.6173
71.5800 23.8445 0.6119
71.6000 23.8511 0.6051
71.6200 23.8578 0.6186
71.6400 23.8644 0.6057
71.6600 23.8710 0.6073
71.6800 23.8777 0.6211
71.7000 23.8843 0.6018
71.7200 23.8910 0.6084
71.7400 23.8977 0.6200
71.7600 23.9044 0.5961
71.7800 23.9111 0.6079
71.8000 23.9178 0.6209
71.8200 23.9244 0.5906
71.8400 23.9310 0.6078
71.8600 23.9376 0.6155
71.8800 23.9443 0.5960
71.9000 23.9510 0.6074
71.9200 23.9577 0.6154
71.9400 23.9644 0.5855
71.9600 23.9710 0.6128
71.9800 23.9777 0.6074
72.0000 23.9844 0.5903
72.0200 23.9910 0.6143
72.0400 23.9976 0.6033
72.0600 24.0043 0.5946
72.0800 24.0110 0.6074
72.1000 24.0178 0.5965
72.1200 24.0245 0.5983
72.1400 24.0311 0.6074
72.1600 24.0378 0.5965
72.1800 24.0445 0.5921
72.2000 24.0511 0.6059
72.2200 24.0577 0.5931
72.2400 24.0644 0.5935
72.2600 24.0711 0.6058
72.2800 24.0778 0.5857
72.3000 24.0844 0.5973
72.3200 24.0911 0.5982
72.3400 24.0978 0.5852
72.3600 24.1044 0.5961
72.3800 24.1111 0.5990
72.4000 24.1177 0.5835
72.4200 24.1243 0.5979
72.4400 24.1310 0.5938
72.4600 24.1377 0.5882
72.4800 24.1444 0.5933
72.5000 24.1511 0.5911
72.5200 24.1577 0.5852
72.5400 24.1644 0.5914
72.5600 24.1710 0.5849
72.5800 24.1776 0.5892
72.6000 24.1843 0.5898
72.6200 24.1910 0.5850
72.6400 24.1977 0.5875
72.6600 24.2044 0.5832
72.6800 24.2111 0.5858
72.7000 24.2177 0.5894
72.7200 24.2244 0.5782
72.7400 24.2311 0.5863
72.7600 24.2377 0.5851
72.7800 24.2444 0.5721
72.8000 24.2511 0.5846
72.8200 24.2578 0.5766
72.8400 24.2644 0.5749
72.8600 24.2711 0.5876
72.8800 24.2778 0.5769
72.9000 24.2845 0.5706
72.9200 24.2911 0.5903
72.9400 24.2977 0.5663
72.9600 24.3043 0.5777
72.9800 24.3110 0.5850
73.0000 24.3178 0.5638
73.0200 24.3245 0.5718
73.0400 24.3311 0.5825
73.0600 24.3378 0.5645
73.0800 24.3444 0.5762
73.1000 24.3510 0.5784
73.1200 24.3576 0.5593
73.1400 24.3643 0.5771
73.1600 24.3710 0.5756
73.1800 24.3777 0.5555
73.2000 24.3844 0.5786
73.2200 24.3911 0.5735
73.2400 24.3977 0.5534
73.2600 24.4044 0.5740
73.2800 24.4111 0.5638
73.3000 24.4177 0.5580
73.3200 24.4243 0.5739
73.3400 24.4310 0.5597
73.3600 24.4377 0.5569
73.3800 24.4444 0.5747
73.4000 24.4511 0.5559
73.4200 24.4578 0.5608
73.4400 24.4644 0.5685
73.4600 24.4711 0.5563
73.4800 24.4777 0.5604
73.5000 24.4843 0.5682
73.5200 24.4910 0.5499
73.5400 24.4977 0.5647
73.5600 24.5045 0.5604
73.5800 24.5111 0.5480
73.6000 24.5178 0.5663
73.6200 24.5244 0.5531
73.6400 24.5311 0.5532
73.6600 24.5377 0.5635
73.6800 24.5443 0.5520
73.7000 24.5510 0.5541
73.7200 24.5578 0.5571
73.7400 24.5645 0.5496
73.7600 24.5711 0.5556
73.7800 24.5778 0.5549
73.8000 24.5845 0.5468
73.8200 24.5911 0.5554
73.8400 24.5977 0.5514
73.8600 24.6043 0.5448
73.8800 24.6110 0.5634
73.9000 24.6177 0.5442
73.9200 24.6244 0.5428
73.9400 24.6311 0.5615
73.9600 24.6378 0.5451
73.9800 24.6445 0.5400
74.0000 24.6511 0.5580
74.0200 24.6576 0.5405
74.0400 24.6643 0.5435
74.0600 24.6710 0.5539
74.0800 24.6777 0.5344
74.1000 24.6844 0.5428
74.1200 24.6911 0.5561
74.1400 24.6977 0.5328
74.1600 24.7044 0.5396
74.1800 24.7111 0.5538
74.2000 24.7177 0.5317
74.2200 24.7243 0.5374
74.2400 24.7310 0.5489
74.2600 24.7377 0.5319
74.2800 24.7444 0.5326
74.3000 24.7511 0.5459
74.3200 24.7578 0.5338
74.3400 24.7645 0.5329
74.3600 24.7711 0.5392
74.3800 24.7777 0.5328
74.4000 24.7843 0.5336
74.4200 24.7910 0.5406
74.4400 24.7977 0.5279
74.4600 24.8044 0.5277
74.4800 24.8111 0.5401
74.5000 24.8178 0.5341
74.5200 24.8244 0.5194
74.5400 24.8311 0.5415
74.5600 24.8377 0.5314
74.5800 24.8443 0.5234
74.6000 24.8510 0.5384
74.6200 24.8577 0.5306
74.6400 24.8644 0.5158
74.6600 24.8711 0.5412
74.6800 24.8778 0.5282
74.7000 24.8844 0.5145
74.7200 24.8911 0.5445
74.7400 24.8977 0.5267
74.7600 24.9043 0.5130
74.7800 24.9110 0.5404
74.8000 24.9177 0.5263
74.8200 24.9244 0.5167
74.8400 24.9311 0.5377
74.8600 24.9377 0.5204
74.8800 24.9444 0.5197
74.9000 24.9511 0.5355
74.9200 24.9577 0.5212
74.9400 24.9643 0.5200
74.9600 24.9710 0.5377
74.9800 24.9777 0.5174
75.0000 24.9844 0.5208
75.0200 24.9911 0.5324
75.0400 24.9978 0.5212
75.0600 25.0045 0.5161
75.0800 25.0111 0.5255
75.1000 25.0177 0.5227
75.1200 25.0243 0.5177
75.1400 25.0310 0.5260
75.1600 25.0377 0.5205
75.1800 25.0444 0.5129
75.2000 25.0511 0.5268
75.2200 25.0578 0.5207
75.2400 25.0645 0.5091
75.2600 25.0711 0.5291
75.2800 25.0777 0.5182
75.3000 25.0843 0.5068
75.3200 25.0910 0.5264
75.3400 25.0977 0.5167
75.3600 25.1044 0.5047
75.3800 25.1111 0.5234
75.4000 25.1177 0.5162
75.4200 25.1244 0.5038
75.4400 25.1311 0.5221
75.4600 25.1377 0.5165
75.4800 25.1443 0.5015
75.5000 25.1509 0.5255
75.5200 25.1576 0.5089
75.5400 25.1644 0.5008
75.5600 25.1710 0.5194
75.5800 25.1777 0.5093
75.6000 25.1844 0.5012
75.6200 25.1911 0.5154
75.6400 25.1977 0.5071
75.6600 25.2043 0.5006
75.6800 25.2110 0.5135
75.7000 25.2177 0.5072
75.7200 25.2244 0.5005
75.7400 25.2311 0.5111
75.7600 25.2378 0.4986
75.7800 25.2445 0.5011
75.8000 25.2511 0.5072
75.8200 25.2577 0.5025
75.8400 25.2643 0.5045
75.8600 25.2710 0.5005
75.8800 25.2777 0.5014
75.9000 25.2844 0.4962
75.9200 25.2911 0.5005
75.9400 25.2978 0.5007
75.9600 25.3045 0.4948
75.9800 25.3111 0.4919
76.0000 25.3177 0.5009
76.0200 25.3243 0.4957
76.0400 25.3310 0.4963
76.0600 25.3377 0.5023
76.0800 25.3444 0.4927
76.1000 25.3511 0.4915
76.1200 25.3578 0.5017
76.1400 25.3645 0.4885
76.1600 25.3711 0.4922
76.1800 25.3777 0.4994
76.2000 25.3842 0.4903
76.2200 25.3909 0.4889
76.2400 25.3977 0.4957
76.2600 25.4044 0.4854
76.2800 25.4111 0.4843
76.3000 25.4177 0.4956
76.3200 25.4244 0.4841
76.3400 25.4311 0.4863
76.3600 25.4377 0.4891
76.3800 25.4443 0.4834
76.4000 25.4510 0.4830
76.4200 25.4577 0.4933
76.4400 25.4644 0.4858
76.4600 25.4711 0.4759
76.4800 25.4778 0.4895
76.5000 25.4845 0.4861
76.5200 25.4911 0.4681
76.5400 25.4978 0.4955
76.5600 25.5044 0.4811
76.5800 25.5110 0.4698
76.6000 25.5177 0.4890
76.6200 25.5244 0.4765
76.6400 25.5311 0.4682
76.6600 25.5378 0.4911
76.6800 25.5445 0.4761
76.7000 25.5511 0.4697
76.7200 25.5577 0.4899
76.7400 25.5643 0.4737
76.7600 25.5710 0.4685
76.7800 25.5777 0.4888
76.8000 25.5844 0.4707
76.8200 25.5910 0.4634
76.8400 25.5977 0.4857
76.8600 25.6044 0.4754
76.8800 25.6111 0.4646
76.9000 25.6177 0.4824
76.9200 25.6243 0.4737
76.9400 25.6310 0.4599
76.9600 25.6377 0.4843
76.9800 25.6444 0.4693
77.0000 25.6511 0.4613
77.0200 25.6578 0.4801
77.0400 25.6645 0.4671
77.0600 25.6711 0.4553
77.0800 25.6777 0.4796
77.1000 25.6843 0.4699
77.1200 25.6910 0.4597
77.1400 25.6977 0.4768
77.1600 25.7044 0.4630
77.1800 25.7111 0.4555
77.2000 25.7178 0.4772
77.2200 25.7245 0.4590
77.2400 25.7311 0.4564
77.2600 25.7377 0.4704
77.2800 25.7443 0.4553
77.3000 25.7510 0.4571
77.3200 25.7577 0.4707
77.3400 25.7644 0.4554
77.3600 25.7711 0.4542
77.3800 25.7778 0.4688
77.4000 25.7845 0.4534
77.4200 25.7911 0.4554
77.4400 25.7978 0.4638
77.4600 25.8044 0.4544
77.4800 25.8110 0.4503
77.5000 25.8177 0.4610
77.5200 25.8244 0.4494
77.5400 25.8311 0.4524
77.5600 25.8377 0.4565
77.5800 25.8444 0.4541
77.6000 25.8511 0.4457
77.6200 25.8577 0.4511
77.6400 25.8643 0.4530
77.6600 25.8709 0.4484
77.6800 25.8776 0.4500
77.7000 25.8844 0.4503
77.7200 25.8911 0.4404
77.7400 25.8977 0.4474
77.7600 25.9044 0.4530
77.7800 25.9111 0.4384
77.8000 25.9177 0.4489
77.8200 25.9243 0.4503
77.8400 25.9310 0.4364
77.8600 25.9377 0.4507
77.8800 25.9444 0.4461
77.9000 25.9511 0.4298
77.9200 25.9578 0.4526
77.9400 25.9644 0.4402
77.9600 25.9711 0.4305
77.9800 25.9777 0.4511
78.0000 25.9844 0.4388
78.0200 25.9910 0.4311
78.0400 25.9977 0.4513
78.0600 26.0044 0.4356
78.0800 26.0111 0.4312
78.1000 26.0178 0.4449
78.1200 26.0245 0.4348
78.1400 26.0311 0.4293
78.1600 26.0377 0.4437
78.1800 26.0443 0.4305
78.2000 26.0510 0.4340
78.2200 26.0577 0.4412
78.2400 26.0644 0.4301
78.2600 26.0711 0.4319
78.2800 26.0778 0.4358
78.3000 26.0844 0.4306
78.3200 26.0911 0.4332
78.3400 26.0977 0.4333
78.3600 26.1043 0.4291
78.3800 26.1109 0.4308
78.4000 26.1176 0.4300
78.4200 26.1243 0.4248
78.4400 26.1310 0.4232
78.4600 26.1377 0.4322
78.4800 26.1444 0.4226
78.5000 26.1511 0.4246
78.5200 26.1577 0.4239
78.5400 26.1643 0.4272
78.5600 26.1710 0.4189
78.5800 26.1777 0.4215
78.6000 26.1844 0.4256
78.6200 26.1911 0.4203
78.6400 26.1978 0.4181
78.6600 26.2045 0.4247
78.6800 26.2111 0.4148
78.7000 26.2178 0.4183
78.7200 26.2244 0.4229
78.7400 26.2310 0.4164
78.7600 26.2377 0.4164
78.7800 26.2444 0.4169
78.8000 26.2511 0.4099
78.8200 26.2578 0.4152
78.8400 26.2644 0.4222
78.8600 26.2711 0.4089
78.8800 26.2777 0.4103
78.9000 26.2843 0.4145
78.9200 26.2910 0.4127
78.9400 26.2977 0.4129
78.9600 26.3044 0.4144
78.9800 26.3111 0.4100
79.0000 26.3177 0.4122
79.0200 26.3244 0.4106
79.0400 26.3311 0.4121
79.0600 26.3377 0.4060
79.0800 26.3443 0.4122
79.1000 26.3509 0.4096
79.1200 26.3576 0.4038
79.1400 26.3644 0.4113
79.1600 26.3711 0.4082
79.1800 26.3778 0.3979
79.2000 26.3845 0.4106
79.2200 26.3911 0.4090
79.2400 26.3978 0.3968
79.2600 26.4043 0.4080
79.2800 26.4110 0.4115
79.3000 26.4177 0.3961
79.3200 26.4244 0.4102
79.3400 26.4311 0.4065
79.3600 26.4378 0.3962
79.3800 26.4444 0.4098
79.4000 26.4511 0.3962
79.4200 26.4578 0.3979
79.4400 26.4644 0.4068
79.4600 26.4710 0.3998
79.4800 26.4777 0.3973
79.5000 26.4844 0.4064
79.5200 26.4911 0.3943
79.5400 26.4978 0.3963
79.5600 26.5045 0.4017
79.5800 26.5112 0.3930
79.6000 26.5178 0.3965
79.6200 26.5244 0.4049
79.6400 26.5310 0.3867
79.6600 26.5376 0.3977
79.6800 26.5443 0.4017
79.7000 26.5511 0.3907
79.7200 26.5578 0.3939
79.7400 26.5644 0.4012
79.7600 26.5711 0.3923
79.7800 26.5777 0.3944
79.8000 26.5843 0.4033
79.8200 26.5909 0.3920
79.8400 26.5976 0.3927
79.8600 26.6043 0.3986
79.8800 26.6110 0.3892
79.9000 26.6177 0.3895
79.9200 26.6244 0.4008
79.9400 26.6310 0.3904
79.9600 26.6377 0.3865
79.9800 26.6443 0.3948
80.0000 26.6510 0.3940
80.0200 26.6577 0.3904
80.0400 26.6644 0.3950
80.0600 26.6711 0.3876
80.0800 26.6778 0.3910
80.1000 26.6845 0.3931
80.1200 26.6911 0.3873
80.1400 26.6978 0.3873
80.1600 26.7044 0.3931
80.1800 26.7110 0.3888
80.2000 26.7177 0.3871
80.2200 26.7244 0.3895
80.2400 26.7311 0.3880
80.2600 26.7378 0.3845
80.2800 26.7445 0.3903
80.3000 26.7511 0.3851
80.3200 26.7578 0.3821
80.3400 26.7643 0.3920
80.3600 26.7710 0.3858
80.3800 26.7776 0.3844
80.4000 26.7844 0.3831
80.4200 26.7911 0.3861
80.4400 26.7977 0.3848
80.4600 26.8044 0.3839
80.4800 26.8111 0.3830
80.5000 26.8178 0.3825
80.5200 26.8244 0.3782
80.5400 26.8310 0.3840
80.5600 26.8376 0.3819
80.5800 26.8443 0.3787
80.6000 26.8510 0.3784
80.6200 26.8577 0.3821
80.6400 26.8644 0.3727
80.6600 26.8711 0.3839
80.6800 26.8777 0.3821
80.7000 26.8843 0.3686
80.7200 26.8910 0.3809
80.7400 26.8976 0.3794
80.7600 26.9044 0.3644
80.7800 26.9111 0.3815
80.8000 26.9178 0.3787
80.8200 26.9245 0.3613
80.8400 26.9311 0.3790
80.8600 26.9378 0.3809
80.8800 26.9444 0.3580
80.9000 26.9510 0.3778
80.9200 26.9577 0.3796
80.9400 26.9644 0.3498
80.9600 26.9711 0.3793
80.9800 26.9778 0.3738
81.0000 26.9844 0.3518
81.0200 26.9911 0.3751
81.0400 26.9978 0.3735
81.0600 27.0044 0.3478
81.0800 27.0110 0.3745
81.1000 27.0176 0.3698
81.1200 27.0243 0.3477
81.1400 27.0310 0.3695
81.1600 27.0377 0.3632
81.1800 27.0444 0.3455
81.2000 27.0511 0.3688
81.2200 27.0578 0.3590
81.2400 27.0643 0.3477
81.2600 27.0709 0.3663
81.2800 27.0776 0.3669
81.3000 27.0843 0.3416
81.3200 27.0911 0.3576
81.3400 27.0977 0.3646
81.3600 27.1044 0.3461
81.3800 27.1111 0.3578
81.4000 27.1178 0.3587
81.4200 27.1244 0.3423
81.4400 27.1310 0.3524
81.4600 27.1377 0.3656
81.4800 27.1444 0.3401
81.5000 27.1511 0.3475
81.5200 27.1577 0.3646
81.5400 27.1644 0.3362
81.5600 27.1711 0.3426
81.5800 27.1778 0.3664
81.6000 27.1844 0.3274
81.6200 27.1910 0.3451
81.6400 27.1977 0.3619
81.6600 27.2043 0.3277
81.6800 27.2111 0.3457
81.7000 27.2178 0.3672
81.7200 27.2245 0.3193
81.7400 27.2311 0.3430
81.7600 27.2378 0.3656
81.7800 27.2444 0.3194
81.8000 27.2510 0.3430
81.8200 27.2577 0.3612
81.8400 27.2644 0.3210
81.8600 27.2711 0.3403
81.8800 27.2778 0.3517
81.9000 27.2845 0.3249
81.9200 27.2911 0.3480
81.9400 27.2978 0.3453
81.9600 27.3044 0.3250
81.9800 27.3110 0.3428
82.0000 27.3176 0.3465
82.0200 27.3243 0.3299
82.0400 27.3310 0.3431
82.0600 27.3377 0.3345
82.0800 27.3444 0.3345
82.1000 27.3511 0.3417
82.1200 27.3577 0.3356
82.1400 27.3644 0.3322
82.1600 27.3710 0.3393
82.1800 27.3776 0.3308
82.2000 27.3843 0.3355
82.2200 27.3911 0.3351
82.2400 27.3978 0.3369
82.2600 27.4045 0.3304
82.2800 27.4112 0.3304
82.3000 27.4178 0.3362
82.3200 27.4244 0.3305
82.3400 27.4310 0.3318
82.3600 27.4376 0.3350
82.3800 27.4444 0.3311
82.4000 27.4511 0.3261
82.4200 27.4578 0.3394
82.4400 27.4645 0.3261
82.4600 27.4711 0.3312
82.4800 27.4778 0.3371
82.5000 27.4844 0.3208
82.5200 27.4910 0.3293
82.5400 27.4977 0.3424
82.5600 27.5043 0.3174
82.5800 27.5110 0.3305
82.6000 27.5177 0.3384
82.6200 27.5244 0.3207
82.6400 27.5311 0.3322
82.6600 27.5378 0.3372
82.6800 27.5444 0.3106
82.7000 27.5510 0.3333
82.7200 27.5576 0.3386
82.7400 27.5643 0.3134
82.7600 27.5710 0.3274
82.7800 27.5777 0.3391
82.8000 27.5844 0.3116
82.8200 27.5911 0.3293
82.8400 27.5978 0.3288
82.8600 27.6044 0.3120
82.8800 27.6110 0.3294
82.9000 27.6176 0.3252
82.9200 27.6244 0.3194
82.9400 27.6311 0.3293
82.9600 27.6378 0.3253
82.9800 27.6445 0.3079
83.0000 27.6511 0.3281
83.0200 27.6578 0.3232
83.0400 27.6644 0.3104
83.0600 27.6710 0.3289
83.0800 27.6777 0.3180
83.1000 27.6844 0.3106
83.1200 27.6911 0.3317
83.1400 27.6978 0.3145
83.1600 27.7044 0.3157
83.1800 27.7111 0.3252
83.2000 27.7178 0.3101
83.2200 27.7244 0.3146
83.2400 27.7310 0.3240
83.2600 27.7376 0.3070
83.2800 27.7443 0.3153
83.3000 27.7510 0.3239
83.3200 27.7577 0.3040
83.3400 27.7644 0.3191
83.3600 27.7711 0.3184
83.3800 27.7777 0.2997
83.4000 27.7844 0.3201
83.4200 27.7910 0.3136
83.4400 27.7976 0.3000
83.4600 27.8043 0.3176
83.4800 27.8110 0.3074
83.5000 27.8177 0.3012
83.5200 27.8244 0.3170
83.5400 27.8311 0.3081
83.5600 27.8377 0.2998
83.5800 27.8444 0.3187
83.6000 27.8510 0.2994
83.6200 27.8577 0.3058
83.6400 27.8644 0.3138
83.6600 27.8711 0.2983
83.6800 27.8777 0.3049
83.7000 27.8844 0.3119
83.7200 27.8911 0.3012
83.7400 27.8978 0.3032
83.7600 27.9044 0.3074
83.7800 27.9110 0.2981
83.8000 27.9177 0.3068
83.8200 27.9243 0.3110
83.8400 27.9311 0.2876
83.8600 27.9378 0.3069
83.8800 27.9445 0.3090
83.9000 27.9511 0.2913
83.9200 27.9578 0.3050
83.9400 27.9644 0.3004
83.9600 27.9710 0.2921
83.9800 27.9776 0.3014
84.0000 27.9843 0.2998
84.0200 27.9910 0.2935
84.0400 27.9977 0.3038
84.0600 28.0044 0.2979
84.0800 28.0111 0.2924
84.1000 28.0178 0.2972
84.1200 28.0244 0.2974
84.1400 28.0310 0.2888
84.1600 28.0376 0.2952
84.1800 28.0443 0.3005
84.2000 28.0510 0.2912
84.2200 28.0577 0.2864
84.2400 28.0644 0.3043
84.2600 28.0711 0.2905
84.2800 28.0778 0.2853
84.3000 28.0844 0.3013
84.3200 28.0910 0.2859
84.3400 28.0976 0.2859
84.3600 28.1043 0.3089
84.3800 28.1111 0.2837
84.4000 28.1178 0.2783
84.4200 28.1245 0.3105
84.4400 28.1312 0.2778
84.4600 28.1378 0.2804
84.4800 28.1444 0.3089
84.5000 28.1510 0.2774
84.5200 28.1577 0.2769
84.5400 28.1644 0.3086
84.5600 28.1711 0.2736
84.5800 28.1778 0.2812
84.6000 28.1844 0.3081
84.6200 28.1911 0.2700
84.6400 28.1978 0.2767
84.6600 28.2044 0.3107
84.6800 28.2110 0.2670
84.7000 28.2176 0.2784
84.7200 28.2243 0.3066
84.7400 28.2310 0.2660
84.7600 28.2377 0.2794
84.7800 28.2444 0.3048
84.8000 28.2511 0.2647
84.8200 28.2578 0.2786
84.8400 28.2644 0.3024
84.8600 28.2710 0.2631
84.8800 28.2776 0.2801
84.9000 28.2843 0.3030
84.9200 28.2910 0.2643
84.9400 28.2977 0.2752
84.9600 28.3044 0.2964
84.9800 28.3111 0.2678
85.0000 28.3178 0.2749
85.0200 28.3244 0.2911
85.0400 28.3310 0.2715
85.0600 28.3377 0.2683
85.0800 28.3443 0.2960
85.1000 28.3511 0.2684
85.1200 28.3578 0.2649
85.1400 28.3644 0.2896
85.1600 28.3711 0.2675
85.1800 28.3778 0.2641
85.2000 28.3844 0.2917
85.2200 28.3911 0.2628
85.2400 28.3977 0.2679
85.2600 28.4044 0.2898
85.2800 28.4110 0.2615
85.3000 28.4178 0.2622
85.3200 28.4245 0.2908
85.3400 28.4311 0.2557
85.3600 28.4378 0.2674
85.3800 28.4445 0.2924
85.4000 28.4510 0.2537
85.4200 28.4577 0.2675
85.4400 28.4643 0.2866
85.4600 28.4710 0.2534
85.4800 28.4777 0.2678
85.5000 28.4844 0.2824
85.5200 28.4911 0.2494
85.5400 28.4977 0.2714
85.5600 28.5044 0.2809
85.5800 28.5110 0.2455
85.6000 28.5176 0.2689
85.6200 28.5243 0.2819
85.6400 28.5310 0.2460
85.6600 28.5377 0.2689
85.6800 28.5444 0.2759
85.7000 28.5511 0.2473
85.7200 28.5577 0.2673
85.7400 28.5644 0.2768
85.7600 28.5711 0.2448
85.7800 28.5777 0.2645
85.8000 28.5843 0.2780
85.8200 28.5910 0.2435
85.8400 28.5977 0.2621
85.8600 28.6044 0.2730
85.8800 28.6111 0.2437
85.9000 28.6178 0.2583
85.9200 28.6245 0.2687
85.9400 28.6310 0.2494
85.9600 28.6376 0.2598
85.9800 28.6443 0.2679
86.0000 28.6510 0.2488
86.0200 28.6578 0.2531
86.0400 28.6645 0.2697
86.0600 28.6711 0.2459
86.0800 28.6778 0.2548
86.1000 28.6844 0.2612
86.1200 28.6910 0.2418
86.1400 28.6977 0.2515
86.1600 28.7043 0.2649
86.1800 28.7110 0.2404
86.2000 28.7177 0.2487
86.2200 28.7244 0.2578
86.2400 28.7311 0.2439
86.2600 28.7378 0.2428
86.2800 28.7444 0.2607
86.3000 28.7510 0.2394
86.3200 28.7576 0.2477
86.3400 28.7643 0.2600
86.3600 28.7710 0.2404
86.3800 28.7777 0.2430
86.4000 28.7844 0.2543
86.4200 28.7911 0.2425
86.4400 28.7977 0.2389
86.4600 28.8044 0.2502
86.4800 28.8110 0.2446
86.5000 28.8176 0.2444
86.5200 28.8243 0.2464
86.5400 28.8310 0.2438
86.5600 28.8377 0.2375
86.5800 28.8444 0.2465
86.6000 28.8511 0.2409
86.6200 28.8578 0.2359
86.6400 28.8645 0.2426
86.6600 28.8711 0.2415
86.6800 28.8777 0.2324
86.7000 28.8844 0.2453
86.7200 28.8911 0.2379
86.7400 28.8978 0.2331
86.7600 28.9045 0.2405
86.7800 28.9111 0.2386
86.8000 28.9178 0.2338
86.8200 28.9244 0.2371
86.8400 28.9310 0.2428
86.8600 28.9377 0.2361
86.8800 28.9443 0.2324
86.9000 28.9510 0.2403
86.9200 28.9577 0.2335
86.9400 28.9644 0.2287
86.9600 28.9711 0.2433
86.9800 28.9777 0.2303
87.0000 28.9844 0.2292
87.0200 28.9910 0.2367
87.0400 28.9976 0.2343
87.0600 29.0043 0.2268
87.0800 29.0110 0.2415
87.1000 29.0177 0.2285
87.1200 29.0244 0.2237
87.1400 29.0311 0.2409
87.1600 29.0377 0.2281
87.1800 29.0444 0.2163
87.2000 29.0511 0.2437
87.2200 29.0577 0.2287
87.2400 29.0644 0.2220
87.2600 29.0711 0.2391
87.2800 29.0777 0.2271
87.3000 29.0844 0.2235
87.3200 29.0911 0.2310
87.3400 29.0978 0.2234
87.3600 29.1045 0.2236
87.3800 29.1111 0.2282
87.4000 29.1177 0.2227
87.4200 29.1243 0.2254
87.4400 29.1310 0.2304
87.4600 29.1377 0.2281
87.4800 29.1445 0.2136
87.5000 29.1511 0.2259
87.5200 29.1578 0.2315
87.5400 29.1644 0.2132
87.5600 29.1710 0.2241
87.5800 29.1776 0.2372
87.6000 29.1843 0.2138
87.6200 29.1910 0.2258
87.6400 29.1977 0.2303
87.6600 29.2044 0.2090
87.6800 29.2111 0.2254
87.7000 29.2177 0.2301
87.7200 29.2244 0.2030
87.7400 29.2311 0.2272
87.7600 29.2377 0.2314
87.7800 29.2443 0.2061
87.8000 29.2510 0.2289
87.8200 29.2577 0.2249
87.8400 29.2644 0.2075
87.8600 29.2710 0.2290
87.8800 29.2777 0.2169
87.9000 29.2844 0.2030
87.9200 29.2911 0.2275
87.9400 29.2977 0.2170
87.9600 29.3043 0.2062
87.9800 29.3110 0.2297
88.0000 29.3178 0.2152
88.0200 29.3245 0.1999
88.0400 29.3311 0.2284
88.0600 29.3378 0.2066
88.0800 29.3444 0.2032
88.1000 29.3511 0.2250
88.1200 29.3577 0.2090
88.1400 29.3643 0.2001
88.1600 29.3710 0.2255
88.1800 29.3777 0.2062
88.2000 29.3844 0.1960
88.2200 29.3911 0.2207
88.2400 29.3978 0.2096
88.2600 29.4045 0.1954
88.2800 29.4111 0.2161
88.3000 29.4177 0.2037
88.3200 29.4243 0.1957
88.3400 29.4310 0.2181
88.3600 29.4377 0.2017
88.3800 29.4444 0.1929
88.4000 29.4511 0.2148
88.4200 29.4578 0.2005
88.4400 29.4644 0.1927
88.4600 29.4711 0.2147
88.4800 29.4776 0.2003
88.5000 29.4843 0.1950
88.5200 29.4909 0.2070
88.5400 29.4977 0.1969
88.5600 29.5044 0.1893
88.5800 29.5110 0.2109
88.6000 29.5177 0.1923
88.6200 29.5244 0.1916
88.6400 29.5311 0.2058
88.6600 29.5377 0.1928
88.6800 29.5443 0.1867
88.7000 29.5510 0.2104
88.7200 29.5577 0.1900
88.7400 29.5644 0.1836
88.7600 29.5711 0.2060
88.7800 29.5778 0.1913
88.8000 29.5845 0.1806
88.8200 29.5911 0.2034
88.8400 29.5977 0.1846
88.8600 29.6043 0.1875
88.8800 29.6110 0.2036
88.9000 29.6177 0.1831
88.9200 29.6244 0.1863
88.9400 29.6311 0.2003
88.9600 29.6378 0.1815
88.9800 29.6444 0.1778
89.0000 29.6510 0.2067
89.0200 29.6576 0.1835
89.0400 29.6643 0.1763
89.0600 29.6710 0.2011
89.0800 29.6777 0.1871
89.1000 29.6844 0.1743
89.1200 29.6911 0.1969
89.1400 29.6977 0.1841
89.1600 29.7044 0.1745
89.1800 29.7111 0.1940
89.2000 29.7177 0.1847
89.2200 29.7243 0.1727
89.2400 29.7310 0.2041
89.2600 29.7377 0.1775
89.2800 29.7444 0.1691
89.3000 29.7510 0.2015
89.3200 29.7577 0.1811
89.3400 29.7644 0.1700
89.3600 29.7711 0.1968
89.3800 29.7777 0.1766
89.4000 29.7843 0.1703
89.4200 29.7910 0.1979
89.4400 29.7977 0.1732
89.4600 29.8044 0.1689
89.4800 29.8111 0.1990
89.5000 29.8178 0.1734
89.5200 29.8245 0.1652
89.5400 29.8311 0.1977
89.5600 29.8377 0.1676
89.5800 29.8443 0.1700
89.6000 29.8510 0.1949
89.6200 29.8577 0.1683
89.6400 29.8644 0.1638
89.6600 29.8711 0.1950
89.6800 29.8778 0.1627
89.7000 29.8845 0.1683
89.7200 29.8911 0.1909
89.7400 29.8977 0.1608
89.7600 29.9043 0.1677
89.7800 29.9110 0.1910
89.8000 29.9177 0.1604
89.8200 29.9244 0.1723
89.8400 29.9311 0.1846
89.8600 29.9377 0.1581
89.8800 29.9444 0.1726
89.9000 29.9511 0.1782
89.9200 29.9577 0.1578
89.9400 29.9643 0.1735
89.9600 29.9710 0.1784
89.9800 29.9777 0.1570
90.0000 29.9844 0.1756
90.0200 29.9911 0.1712
90.0400 29.9977 0.1562
90.0600 30.0044 0.1722
90.0800 30.0111 0.1657
90.1000 30.0177 0.1579
90.1200 30.0243 0.1772
90.1400 30.0310 0.1595
90.1600 30.0377 0.1610
90.1800 30.0445 0.1739
90.2000 30.0511 0.1611
90.2200 30.0578 0.1588
90.2400 30.0645 0.1729
90.2600 30.0711 0.1527
90.2800 30.0777 0.1581
90.3000 30.0843 0.1732
90.3200 30.0910 0.1552
90.3400 30.0977 0.1572
90.3600 30.1044 0.1645
90.3800 30.1111 0.1536
90.4000 30.1178 0.1579
90.4200 30.1244 0.1675
90.4400 30.1311 0.1527
90.4600 30.1377 0.1564
90.4800 30.1443 0.1603
90.5000 30.1510 0.1558
90.5200 30.1577 0.1548
90.5400 30.1644 0.1655
90.5600 30.1710 0.1499
90.5800 30.1777 0.1539
90.6000 30.1844 0.1606
90.6200 30.1911 0.1469
90.6400 30.1977 0.1526
90.6600 30.2043 0.1625
90.6800 30.2109 0.1500
90.7000 30.2176 0.1494
90.7200 30.2244 0.1604
90.7400 30.2311 0.1494
90.7600 30.2377 0.1423
90.7800 30.2444 0.1630
90.8000 30.2511 0.1475
90.8200 30.2577 0.1426
90.8400 30.2643 0.1613
90.8600 30.2710 0.1500
90.8800 30.2777 0.1413
90.9000 30.2844 0.1611
90.9200 30.2911 0.1470
90.9400 30.2978 0.1339
90.9600 30.3045 0.1595
90.9800 30.3112 0.1456
91.0000 30.3178 0.1359
91.0200 30.3244 0.1611
91.0400 30.3310 0.1440
91.0600 30.3377 0.1355
91.0800 30.3444 0.1650
91.1000 30.3511 0.1356
91.1200 30.3578 0.1358
91.1400 30.3645 0.1659
91.1600 30.3711 0.1366
91.1800 30.3777 0.1348
91.2000 30.3843 0.1621
91.2200 30.3910 0.1338
91.2400 30.3977 0.1391
91.2600 30.4044 0.1532
91.2800 30.4110 0.1323
91.3000 30.4177 0.1378
91.3200 30.4244 0.1585
91.3400 30.4311 0.1284
91.3600 30.4377 0.1338
91.3800 30.4443 0.1559
91.4000 30.4510 0.1306
91.4200 30.4576 0.1350
91.4400 30.4644 0.1463
91.4600 30.4711 0.1301
91.4800 30.4777 0.1363
91.5000 30.4844 0.1425
91.5200 30.4911 0.1288
91.5400 30.4977 0.1402
91.5600 30.5043 0.1409
91.5800 30.5110 0.1310
91.6000 30.5177 0.1337
91.6200 30.5244 0.1376
91.6400 30.5311 0.1287
91.6600 30.5378 0.1359
91.6800 30.5445 0.1384
91.7000 30.5511 0.1300
91.7200 30.5577 0.1279
91.7400 30.5643 0.1375
91.7600 30.5710 0.1292
91.7800 30.5777 0.1258
91.8000 30.5844 0.1289
91.8200 30.5911 0.1309
91.8400 30.5978 0.1226
91.8600 30.6044 0.1332
91.8800 30.6111 0.1287
91.9000 30.6178 0.1206
91.9200 30.6244 0.1289
91.9400 30.6310 0.1294
91.9600 30.6377 0.1203
91.9800 30.6444 0.1292
92.0000 30.6511 0.1265
92.0200 30.6577 0.1187
92.0400 30.6644 0.1334
92.0600 30.6711 0.1165
92.0800 30.6777 0.1177
92.1000 30.6843 0.1322
92.1200 30.6909 0.1168
92.1400 30.6976 0.1176
92.1600 30.7043 0.1367
92.1800 30.7111 0.1097
92.2000 30.7177 0.1188
92.2200 30.7244 0.1320
92.2400 30.7311 0.1093
92.2600 30.7377 0.1156
92.2800 30.7443 0.1303
92.3000 30.7510 0.1075
92.3200 30.7577 0.1201
92.3400 30.7644 0.1226
92.3600 30.7711 0.1031
92.3800 30.7778 0.1214
92.4000 30.7844 0.1229
92.4200 30.7911 0.1023
92.4400 30.7978 0.1171
92.4600 30.8044 0.1196
92.4800 30.8110 0.1058
92.5000 30.8177 0.1189
92.5200 30.8244 0.1148
92.5400 30.8311 0.1072
92.5600 30.8378 0.1186
92.5800 30.8445 0.1150
92.6000 30.8512 0.1053
92.6200 30.8578 0.1184
92.6400 30.8644 0.1121
92.6600 30.8710 0.1095
92.6800 30.8777 0.1100
92.7000 30.8844 0.1125
92.7200 30.8911 0.1085
92.7400 30.8978 0.1086
92.7600 30.9044 0.1096
92.7800 30.9111 0.1093
92.8000 30.9177 0.1083
92.8200 30.9243 0.1106
92.8400 30.9310 0.1037
92.8600 30.9377 0.1081
92.8800 30.9443 0.1121
92.9000 30.9510 0.1062
92.9200 30.9577 0.1051
92.9400 30.9644 0.1084
92.9600 30.9711 0.1008
92.9800 30.9777 0.1020
93.0000 30.9844 0.1115
93.0200 30.9910 0.1014
93.0400 30.9977 0.1064
93.0600 31.0044 0.1104
93.0800 31.0111 0.0957
93.1000 31.0178 0.1102
93.1200 31.0245 0.1105
93.1400 31.0311 0.0895
93.1600 31.0378 0.1109
93.1800 31.0444 0.1087
93.2000 31.0510 0.0927
93.2200 31.0577 0.1090
93.2400 31.0644 0.1060
93.2600 31.0711 0.0891
93.2800 31.0778 0.1091
93.3000 31.0844 0.1023
93.3200 31.0911 0.0899
93.3400 31.0977 0.1066
93.3600 31.1043 0.1013
93.3800 31.1110 0.0928
93.4000 31.1176 0.1093
93.4200 31.1244 0.0955
93.4400 31.1311 0.0908
93.4600 31.1378 0.1092
93.4800 31.1444 0.0956
93.5000 31.1511 0.0908
93.5200 31.1578 0.1069
93.5400 31.1643 0.0969
93.5600 31.1709 0.0942
93.5800 31.1776 0.1043
93.6000 31.1843 0.0928
93.6200 31.1911 0.1003
93.6400 31.1978 0.0972
93.6600 31.2044 0.0932
93.6800 31.2111 0.1002
93.7000 31.2177 0.0936
93.7200 31.2243 0.0904
93.7400 31.2310 0.0998
93.7600 31.2377 0.0907
93.7800 31.2444 0.0943
93.8000 31.2511 0.0951
93.8200 31.2578 0.0887
93.8400 31.2644 0.0935
93.8600 31.2711 0.0958
93.8800 31.2778 0.0816
93.9000 31.2844 0.0978
93.9200 31.2910 0.0948
93.9400 31.2977 0.0830
93.9600 31.3044 0.0947
93.9800 31.3111 0.0897
94.0000 31.3178 0.0817
94.0200 31.3245 0.0986
94.0400 31.3311 0.0855
94.0600 31.3378 0.0780
94.0800 31.3444 0.0986
94.1000 31.3510 0.0829
94.1200 31.3576 0.0804
94.1400 31.3643 0.0958
94.1600 31.3711 0.0844
94.1800 31.3778 0.0810
94.2000 31.3844 0.0915
94.2200 31.3911 0.0849
94.2400 31.3977 0.0847
94.2600 31.4043 0.0824
94.2800 31.4109 0.0881
94.3000 31.4176 0.0831
94.3200 31.4243 0.0836
94.3400 31.4310 0.0797
94.3600 31.4377 0.0804
94.3800 31.4444 0.0815
94.4000 31.4511 0.0844
94.4200 31.4577 0.0777
94.4400 31.4644 0.0752
94.4600 31.4710 0.0930
94.4800 31.4777 0.0739
94.5000 31.4844 0.0702
94.5200 31.4911 0.0910
94.5400 31.4978 0.0710
94.5600 31.5045 0.0733
94.5800 31.5111 0.0900
94.6000 31.5178 0.0690
94.6200 31.5244 0.0783
94.6400 31.5310 0.0857
94.6600 31.5376 0.0699
94.6800 31.5444 0.0754
94.7000 31.5511 0.0873
94.7200 31.5578 0.0637
94.7400 31.5645 0.0726
94.7600 31.5711 0.0872
94.7800 31.5778 0.0660
94.8000 31.5844 0.0731
94.8200 31.5910 0.0825
94.8400 31.5976 0.0637
94.8600 31.6044 0.0746
94.8800 31.6111 0.0799
94.9000 31.6177 0.0627
94.9200 31.6244 0.0736
94.9400 31.6311 0.0816
94.9600 31.6377 0.0587
94.9800 31.6444 0.0724
95.0000 31.6510 0.0844
95.0200 31.6577 0.0604
95.0400 31.6644 0.0702
95.0600 31.6711 0.0749
95.0800 31.6777 0.0607
95.1000 31.6844 0.0686
95.1200 31.6911 0.0750
95.1400 31.6977 0.0617
95.1600 31.7044 0.0675
95.1800 31.7110 0.0698
95.2000 31.7176 0.0632
95.2200 31.7244 0.0626
95.2400 31.7311 0.0707
95.2600 31.7378 0.0626
95.2800 31.7445 0.0622
95.3000 31.7511 0.0624
95.3200 31.7578 0.0686
95.3400 31.7644 0.0568
95.3600 31.7710 0.0649
95.3800 31.7777 0.0669
95.4000 31.7844 0.0521
95.4200 31.7911 0.0622
95.4400 31.7978 0.0664
95.4600 31.8044 0.0538
95.4800 31.8111 0.0632
95.5000 31.8178 0.0576
95.5200 31.8244 0.0508
95.5400 31.8310 0.0629
95.5600 31.8377 0.0587
95.5800 31.8443 0.0496
95.6000 31.8510 0.0585
95.6200 31.8577 0.0575
95.6400 31.8644 0.0503
95.6600 31.8711 0.0574
95.6800 31.8778 0.0504
95.7000 31.8844 0.0515
95.7200 31.8910 0.0530
95.7400 31.8976 0.0571
95.7600 31.9043 0.0497
95.7800 31.9110 0.0510
95.8000 31.9177 0.0524
95.8200 31.9244 0.0484
95.8400 31.9311 0.0484
95.8600 31.9377 0.0572
95.8800 31.9444 0.0429
95.9000 31.9510 0.0451
95.9200 31.9577 0.0567
95.9400 31.9643 0.0436
95.9600 31.9710 0.0417
95.9800 31.9777 0.0559
96.0000 31.9844 0.0409
96.0200 31.9911 0.0419
96.0400 31.9978 0.0547
96.0600 32.0044 0.0360
96.0800 32.0110 0.0415
96.1000 32.0177 0.0561
96.1200 32.0243 0.0356
96.1400 32.0310 0.0442
96.1600 32.0377 0.0511
96.1800 32.0444 0.0330
96.2000 32.0511 0.0470
96.2200 32.0578 0.0467
96.2400 32.0644 0.0329
96.2600 32.0710 0.0416
96.2800 32.0777 0.0485
96.3000 32.0844 0.0338
96.3200 32.0911 0.0431
96.3400 32.0978 0.0419
96.3600 32.1044 0.0307
96.3800 32.1111 0.0421
96.4000 32.1178 0.0452
96.4200 32.1244 0.0280
96.4400 32.1310 0.0429
96.4600 32.1376 0.0441
96.4800 32.1443 0.0294
96.5000 32.1510 0.0411
96.5200 32.1577 0.0448
96.5400 32.1644 0.0288
96.5600 32.1710 0.0357
96.5800 32.1777 0.0424
96.6000 32.1844 0.0283
96.6200 32.1910 0.0373
96.6400 32.1976 0.0430
96.6600 32.2043 0.0308
96.6800 32.2110 0.0356
96.7000 32.2178 0.0383
96.7200 32.2245 0.0291
96.7400 32.2312 0.0349
96.7600 32.2378 0.0365
96.7800 32.2444 0.0291
96.8000 32.2510 0.0343
96.8200 32.2576 0.0410
96.8400 32.2644 0.0254
96.8600 32.2711 0.0298
96.8800 32.2778 0.0342
96.9000 32.2845 0.0267
96.9200 32.2911 0.0298
96.9400 32.2978 0.0364
96.9600 32.3044 0.0248
96.9800 32.3110 0.0289
97.0000 32.3176 0.0379
97.0200 32.3243 0.0262
97.0400 32.3310 0.0252
97.0600 32.3377 0.0338
97.0800 32.3444 0.0207
97.1000 32.3511 0.0260
97.1200 32.3578 0.0298
97.1400 32.3644 0.0196
97.1600 32.3710 0.0252
97.1800 32.3776 0.0291
97.2000 32.3843 0.0202
97.2200 32.3910 0.0220
97.2400 32.3977 0.0298
97.2600 32.4044 0.0201
97.2800 32.4111 0.0253
97.3000 32.4178 0.0223
97.3200 32.4244 0.0207
97.3400 32.4310 0.0210
97.3600 32.4376 0.0284
97.3800 32.4443 0.0158
97.4000 32.4511 0.0169
97.4200 32.4578 0.0225
97.4400 32.4645 0.0186
97.4600 32.4711 0.0108
97.4800 32.4778 0.0244
97.5000 32.4844 0.0206
97.5200 32.4911 0.0118
97.5400 32.4977 0.0228
97.5600 32.5044 0.0174
97.5800 32.5111 0.0081
97.6000 32.5178 0.0196
97.6200 32.5244 0.0153
97.6400 32.5311 0.0051
97.6600 32.5378 0.0248
97.6800 32.5444 0.0111
97.7000 32.5510 0.0050
97.7200 32.5576 0.0250
97.7400 32.5643 0.0161
97.7600 32.5710 0.0009
97.7800 32.5777 0.0295
97.8000 32.5844 0.0106
97.8200 32.5911 -0.0009
97.8400 32.5978 0.0235
97.8600 32.6044 0.0059
97.8800 32.6110 -0.0025
97.9000 32.6176 0.0293
97.9200 32.6243 0.0050
97.9400 32.6310 0.0010
97.9600 32.6377 0.0240
97.9800 32.6444 0.0013
98.0000 32.6511 0.0018
98.0200 32.6578 0.0257
98.0400 32.6644 -0.0033
98.0600 32.6710 0.0014
98.0800 32.6777 0.0209
98.1000 32.6843 -0.0018
98.1200 32.6910 0.0005
98.1400 32.6977 0.0149
98.1600 32.7044 -0.0029
98.1800 32.7111 -0.0015
98.2000 32.7178 0.0106
98.2200 32.7244 -0.0066
98.2400 32.7310 0.0019
98.2600 32.7377 0.0122
98.2800 32.7443 -0.0012
98.3000 32.7510 -0.0059
98.3200 32.7578 0.0106
98.3400 32.7645 -0.0045
98.3600 32.7711 -0.0011
98.3800 32.7778 0.0038
98.4000 32.7844 -0.0059
98.4200 32.7910 -0.0047
98.4400 32.7977 0.0029
98.4600 32.8043 -0.0031
98.4800 32.8111 -0.0066
98.5000 32.8178 -0.0003
98.5200 32.8244 -0.0034
98.5400 32.8311 -0.0108
98.5600 32.8378 -0.0010
98.5800 32.8444 -0.0032
98.6000 32.8510 -0.0125
98.6200 32.8576 -0.0003
98.6400 32.8643 -0.0019
98.6600 32.8710 -0.0131
98.6800 32.8777 -0.0025
98.7000 32.8844 -0.0048
98.7200 32.8911 -0.0137
98.7400 32.8978 -0.0025
98.7600 32.9044 -0.0111
98.7800 32.9110 -0.0121
98.8000 32.9176 -0.0070
98.8200 32.9243 -0.0036
98.8400 32.9311 -0.0174
98.8600 32.9378 -0.0120
98.8800 32.9445 -0.0036
98.9000 32.9511 -0.0141
98.9200 32.9578 -0.0128
98.9400 32.9644 -0.0049
98.9600 32.9710 -0.0153
98.9800 32.9777 -0.0095
99.0000 32.9843 -0.0077
99.0200 32.9911 -0.0186
99.0400 32.9978 -0.0143
99.0600 33.0044 -0.0063
99.0800 33.0111 -0.0214
99.1000 33.0178 -0.0139
99.1200 33.0244 -0.0052
99.1400 33.0310 -0.0254
99.1600 33.0376 -0.0171
99.1800 33.0443 -0.0047
99.2000 33.0510 -0.0253
99.2200 33.0577 -0.0202
99.2400 33.0644 -0.0029
99.2600 33.0711 -0.0276
99.2800 33.0778 -0.0208
99.3000 33.0844 -0.0098
99.3200 33.0910 -0.0238
99.3400 33.0976 -0.0194
99.3600 33.1043 -0.0084
99.3800 33.1110 -0.0281
99.4000 33.1177 -0.0228
99.4200 33.1244 -0.0172
99.4400 33.1311 -0.0256
99.4600 33.1377 -0.0273
99.4800 33.1444 -0.0143
99.5000 33.1510 -0.0255
99.5200 33.1577 -0.0241
99.5400 33.1643 -0.0193
99.5600 33.1710 -0.0291
99.5800 33.1777 -0.0292
99.6000 33.1844 -0.0193
99.6200 33.1911 -0.0265
99.6400 33.1978 -0.0317
99.6600 33.2045 -0.0226
99.6800 33.2111 -0.0253
99.7000 33.2177 -0.0379
99.7200 33.2243 -0.0160
99.7400 33.2310 -0.0279
99.7600 33.2377 -0.0425
99.7800 33.2445 -0.0186
99.8000 33.2512 -0.0340
99.8200 33.2578 -0.0374
99.8400 33.2645 -0.0186
99.8600 33.2711 -0.0358
99.8800 33.2777 -0.0398
99.9000 33.2843 -0.0174
99.9200 33.2910 -0.0413
99.9400 33.2977 -0.0376
99.9600 33.3044 -0.0227
99.9800 33.3111 -0.0428
100.0000 33.3178 -0.0358
100.0200 33.3244 -0.0228
100.0400 33.3311 -0.0486
100.0600 33.3376 -0.0283
100.0800 33.3443 -0.0270
100.1000 33.3510 -0.0475
100.1200 33.3577 -0.0343
100.1400 33.3644 -0.0299
100.1600 33.3710 -0.0483
100.1800 33.3777 -0.0313
100.2000 33.3844 -0.0326
100.2200 33.3911 -0.0478
100.2400 33.3977 -0.0304
100.2600 33.4044 -0.0375
100.2800 33.4110 -0.0460
100.3000 33.4177 -0.0318
100.3200 33.4244 -0.0360
100.3400 33.4311 -0.0458
100.3600 33.4378 -0.0370
100.3800 33.4445 -0.0430
100.4000 33.4511 -0.0473
100.4200 33.4577 -0.0387
100.4400 33.4643 -0.0375
100.4600 33.4710 -0.0505
100.4800 33.4777 -0.0379
100.5000 33.4845 -0.0441
100.5200 33.4911 -0.0462
100.5400 33.4978 -0.0402
100.5600 33.5044 -0.0462
100.5800 33.5110 -0.0506
100.6000 33.5177 -0.0387
100.6200 33.5243 -0.0454
100.6400 33.5310 -0.0525
100.6600 33.5377 -0.0451
100.6800 33.5444 -0.0440
100.7000 33.5511 -0.0523
100.7200 33.5578 -0.0416
100.7400 33.5645 -0.0506
100.7600 33.5711 -0.0500
100.7800 33.5777 -0.0471
100.8000 33.5843 -0.0513
100.8200 33.5910 -0.0482
100.8400 33.5977 -0.0536
100.8600 33.6044 -0.0499
100.8800 33.6111 -0.0496
100.9000 33.6177 -0.0513
100.9200 33.6244 -0.0540
100.9400 33.6310 -0.0475
100.9600 33.6376 -0.0523
100.9800 33.6443 -0.0580
101.0000 33.6510 -0.0505
101.0200 33.6577 -0.0507
101.0400 33.6644 -0.0597
101.0600 33.6711 -0.0515
101.0800 33.6778 -0.0543
101.1000 33.6845 -0.0604
101.1200 33.6911 -0.0495
101.1400 33.6977 -0.0555
101.1600 33.7044 -0.0612
101.1800 33.7111 -0.0474
101.2000 33.7178 -0.0595
101.2200 33.7244 -0.0644
101.2400 33.7311 -0.0401
101.2600 33.7378 -0.0662
101.2800 33.7444 -0.0620
101.3000 33.7511 -0.0407
101.3200 33.7577 -0.0692
101.3400 33.7643 -0.0598
101.3600 33.7710 -0.0426
101.3800 33.7777 -0.0763
101.4000 33.7844 -0.0564
101.4200 33.7910 -0.0453
101.4400 33.7977 -0.0741
101.4600 33.8044 -0.0599
101.4800 33.8110 -0.0470
101.5000 33.8176 -0.0766
101.5200 33.8243 -0.0540
101.5400 33.8310 -0.0499
101.5600 33.8377 -0.0782
101.5800 33.8444 -0.0532
101.6000 33.8511 -0.0526
101.6200 33.8577 -0.0757
101.6400 33.8644 -0.0526
101.6600 33.8711 -0.0624
101.6800 33.8777 -0.0719
101.7000 33.8844 -0.0539
101.7200 33.8910 -0.0620
101.7400 33.8977 -0.0701
101.7600 33.9044 -0.0587
101.7800 33.9111 -0.0667
101.8000 33.9178 -0.0659
101.8200 33.9245 -0.0586
101.8400 33.9311 -0.0727
101.8600 33.9377 -0.0646
101.8800 33.9443 -0.0609
101.9000 33.9510 -0.0722
101.9200 33.9577 -0.0661
101.9400 33.9644 -0.0649
101.9600 33.9711 -0.0765
101.9800 33.9778 -0.0589
102.0000 33.9844 -0.0670
102.0200 33.9910 -0.0788
102.0400 33.9976 -0.0653
102.0600 34.0043 -0.0625
102.0800 34.0110 -0.0778
102.1000 34.0177 -0.0617
102.1200 34.0244 -0.0747
102.1400 34.0311 -0.0790
102.1600 34.0377 -0.0644
102.1800 34.0444 -0.0732
102.2000 34.0511 -0.0793
102.2200 34.0577 -0.0659
102.2400 34.0643 -0.0783
102.2600 34.0710 -0.0807
102.2800 34.0777 -0.0616
102.3000 34.0844 -0.0801
102.3200 34.0910 -0.0823
102.3400 34.0978 -0.0698
102.3600 34.1045 -0.0807
102.3800 34.1111 -0.0822
102.4000 34.1177 -0.0736
102.4200 34.1243 -0.0851
102.4400 34.1310 -0.0826
102.4600 34.1377 -0.0751
102.4800 34.1444 -0.0829
102.5000 34.1511 -0.0834
102.5200 34.1578 -0.0783
102.5400 34.1645 -0.0915
102.5600 34.1711 -0.0866
102.5800 34.1777 -0.0783
102.6000 34.1843 -0.0862
102.6200 34.1910 -0.0899
102.6400 34.1977 -0.0827
102.6600 34.2044 -0.0887
102.6800 34.2111 -0.0829
102.7000 34.2178 -0.0832
102.7200 34.2245 -0.0980
102.7400 34.2311 -0.0880
102.7600 34.2377 -0.0832
102.7800 34.2443 -0.0957
102.8000 34.2510 -0.0883
102.8200 34.2577 -0.0869
102.8400 34.2644 -0.1007
102.8600 34.2711 -0.0885
102.8800 34.2778 -0.0820
102.9000 34.2845 -0.1013
102.9200 34.2911 -0.0882
102.9400 34.2977 -0.0901
102.9600 34.3043 -0.1015
102.9800 34.3109 -0.0851
103.0000 34.3176 -0.0944
103.0200 34.3244 -0.1010
103.0400 34.3311 -0.0924
103.0600 34.3377 -0.0938
103.0800 34.3444 -0.1013
103.1000 34.3511 -0.0913
103.1200 34.3577 -0.0974
103.1400 34.3643 -0.1001
103.1600 34.3710 -0.0922
103.1800 34.3777 -0.1005
103.2000 34.3844 -0.1016
103.2200 34.3911 -0.0905
103.2400 34.3978 -0.1014
103.2600 34.4045 -0.0999
103.2800 34.4112 -0.0969
103.3000 34.4178 -0.0983
103.3200 34.4244 -0.0982
103.3400 34.4310 -0.0975
103.3600 34.4377 -0.1061
103.3800 34.4444 -0.0997
103.4000 34.4511 -0.1026
103.4200 34.4578 -0.1072
103.4400 34.4645 -0.0972
103.4600 34.4711 -0.1049
103.4800 34.4777 -0.1036
103.5000 34.4843 -0.0975
103.5200 34.4910 -0.1091
103.5400 34.4977 -0.1050
103.5600 34.5044 -0.0957
103.5800 34.5111 -0.1142
103.6000 34.5178 -0.1016
103.6200 34.5244 -0.1007
103.6400 34.5311 -0.1119
103.6600 34.5377 -0.1048
103.6800 34.5443 -0.1017
103.7000 34.5510 -0.1142
103.7200 34.5577 -0.0965
103.7400 34.5644 -0.1100
103.7600 34.5711 -0.1150
103.7800 34.5777 -0.0944
103.8000 34.5844 -0.1126
103.8200 34.5911 -0.1165
103.8400 34.5977 -0.0973
103.8600 34.6043 -0.1130
103.8800 34.6110 -0.1179
103.9000 34.6177 -0.0995
103.9200 34.6244 -0.1142
103.9400 34.6311 -0.1151
103.9600 34.6377 -0.1025
103.9800 34.6444 -0.1219
104.0000 34.6511 -0.1139
104.0200 34.6577 -0.1040
104.0400 34.6643 -0.1227
104.0600 34.6710 -0.1062
104.0800 34.6777 -0.1142
104.1000 34.6844 -0.1220
104.1200 34.6911 -0.1098
104.1400 34.6978 -0.1153
104.1600 34.7045 -0.1173
104.1800 34.7111 -0.1101
104.2000 34.7177 -0.1241
104.2200 34.7243 -0.1167
104.2400 34.7310 -0.1098
104.2600 34.7377 -0.1193
104.2800 34.7444 -0.1177
104.3000 34.7511 -0.1113
104.3200 34.7577 -0.1245
104.3400 34.7644 -0.1160
104.3600 34.7711 -0.1153
104.3800 34.7777 -0.1312
104.4000 34.7843 -0.1155
104.4200 34.7909 -0.1147
104.4400 34.7976 -0.1287
104.4600 34.8044 -0.1160
104.4800 34.8111 -0.1137
104.5000 34.8177 -0.1328
104.5200 34.8244 -0.1197
104.5400 34.8311 -0.1139
104.5600 34.8377 -0.1327
104.5800 34.8443 -0.1197
104.6000 34.8510 -0.1117
104.6200 34.8577 -0.1362
104.6400 34.8644 -0.1219
104.6600 34.8711 -0.1212
104.6800 34.8778 -0.1321
104.7000 34.8845 -0.1302
104.7200 34.8911 -0.1169
104.7400 34.8977 -0.1299
104.7600 34.9043 -0.1249
104.7800 34.9110 -0.1204
104.8000 34.9177 -0.1304
104.8200 34.9244 -0.1248
104.8400 34.9311 -0.1271
104.8600 34.9378 -0.1358
104.8800 34.9445 -0.1214
104.9000 34.9511 -0.1297
104.9200 34.9577 -0.1359
104.9400 34.9643 -0.1248
104.9600 34.9710 -0.1289
104.9800 34.9776 -0.1346
105.0000 34.9844 -0.1267
105.0200 34.9911 -0.1314
105.0400 34.9978 -0.1411
105.0600 35.0045 -0.1261
105.0800 35.0111 -0.1346
105.1000 35.0177 -0.1335
105.1200 35.0243 -0.1271
105.1400 35.0309 -0.1367
105.1600 35.0376 -0.1383
105.1800 35.0444 -0.1289
105.2000 35.0511 -0.1337
105.2200 35.0577 -0.1393
105.2400 35.0644 -0.1300
105.2600 35.0711 -0.1373
105.2800 35.0777 -0.1440
105.3000 35.0843 -0.1300
105.3200 35.0910 -0.1381
105.3400 35.0977 -0.1421
105.3600 35.1044 -0.1352
105.3800 35.1111 -0.1419
105.4000 35.1178 -0.1387
105.4200 35.1245 -0.1351
105.4400 35.1311 -0.1452
105.4600 35.1378 -0.1395
105.4800 35.1444 -0.1346
105.5000 35.1510 -0.1447
105.5200 35.1577 -0.1362
105.5400 35.1644 -0.1340
105.5600 35.1711 -0.1499
105.5800 35.1778 -0.1421
105.6000 35.1845 -0.1310
105.6200 35.1911 -0.1506
105.6400 35.1977 -0.1403
105.6600 35.2043 -0.1347
105.6800 35.2109 -0.1469
105.7000 35.2176 -0.1459
105.7200 35.2243 -0.1344
105.7400 35.2310 -0.1499
105.7600 35.2377 -0.1430
105.7800 35.2444 -0.1382
105.8000 35.2511 -0.1536
105.8200 35.2577 -0.1446
105.8400 35.2643 -0.1318
105.8600 35.2710 -0.1536
105.8800 35.2776 -0.1430
105.9000 35.2844 -0.1401
105.9200 35.2911 -0.1504
105.9400 35.2978 -0.1393
105.9600 35.3045 -0.1413
105.9800 35.3111 -0.1614
106.0000 35.3178 -0.1484
106.0200 35.3244 -0.1400
106.0400 35.3310 -0.1575
106.0600 35.3377 -0.1447
106.0800 35.3444 -0.1467
106.1000 35.3511 -0.1610
106.1200 35.3578 -0.1486
106.1400 35.3645 -0.1398
106.1600 35.3711 -0.1653
106.1800 35.3777 -0.1484
106.2000 35.3843 -0.1485
106.2200 35.3910 -0.1601
106.2400 35.3977 -0.1440
106.2600 35.4044 -0.1495
106.2800 35.4111 -0.1656
106.3000 35.4177 -0.1480
106.3200 35.4244 -0.1523
106.3400 35.4311 -0.1641
106.3600 35.4378 -0.1524
106.3800 35.4444 -0.1562
106.4000 35.4510 -0.1649
106.4200 35.4577 -0.1481
106.4400 35.4644 -0.1553
106.4600 35.4711 -0.1638
106.4800 35.4777 -0.1560
106.5000 35.4844 -0.1575
106.5200 35.4911 -0.1650
106.5400 35.4978 -0.1568
106.5600 35.5043 -0.1571
106.5800 35.5109 -0.1679
106.6000 35.5176 -0.1582
106.6200 35.5243 -0.1606
106.6400 35.5310 -0.1611
106.6600 35.5377 -0.1651
106.6800 35.5444 -0.1651
106.7000 35.5511 -0.1619
106.7200 35.5577 -0.1675
106.7400 35.5643 -0.1629
106.7600 35.5710 -0.1638
106.7800 35.5777 -0.1719
106.8000 35.5844 -0.1591
106.8200 35.5911 -0.1679
106.8400 35.5977 -0.1660
106.8600 35.6044 -0.1662
106.8800 35.6111 -0.1744
106.9000 35.6178 -0.1698
106.9200 35.6244 -0.1600
106.9400 35.6310 -0.1719
106.9600 35.6377 -0.1665
106.9800 35.6444 -0.1663
107.0000 35.6511 -0.1808
107.0200 35.6578 -0.1685
107.0400 35.6645 -0.1578
107.0600 35.6711 -0.1856
107.0800 35.6778 -0.1736
107.1000 35.6843 -0.1565
107.1200 35.6910 -0.1896
107.1400 35.6977 -0.1696
107.1600 35.7044 -0.1637
107.1800 35.7111 -0.1851
107.2000 35.7178 -0.1737
107.2200 35.7244 -0.1674
107.2400 35.7311 -0.1842
107.2600 35.7377 -0.1708
107.2800 35.7444 -0.1714
107.3000 35.7510 -0.1851
107.3200 35.7577 -0.1719
107.3400 35.7643 -0.1699
107.3600 35.7710 -0.1895
107.3800 35.7777 -0.1759
107.4000 35.7844 -0.1698
107.4200 35.7911 -0.1867
107.4400 35.7977 -0.1791
107.4600 35.8044 -0.1717
107.4800 35.8110 -0.1855
107.5000 35.8177 -0.1823
107.5200 35.8244 -0.1792
107.5400 35.8311 -0.1859
107.5600 35.8378 -0.1809
107.5800 35.8445 -0.1787
107.6000 35.8511 -0.1872
107.6200 35.8578 -0.1866
107.6400 35.8644 -0.1758
107.6600 35.8710 -0.1898
107.6800 35.8777 -0.1845
107.7000 35.8844 -0.1772
107.7200 35.8911 -0.1982
107.7400 35.8978 -0.1922
107.7600 35.9044 -0.1738
107.7800 35.9111 -0.2006
107.8000 35.9177 -0.1848
107.8200 35.9243 -0.1751
107.8400 35.9310 -0.2029
107.8600 35.9376 -0.1838
107.8800 35.9443 -0.1783
107.9000 35.9510 -0.2026
107.9200 35.9577 -0.1853
107.9400 35.9644 -0.1861
107.9600 35.9711 -0.2003
107.9800 35.9778 -0.1891
108.0000 35.9844 -0.1926
108.0200 35.9910 -0.1957
108.0400 35.9976 -0.1861
108.0600 36.0043 -0.1936
108.0800 36.0111 -0.1988
108.1000 36.0178 -0.1956
108.1200 36.0244 -0.1939
108.1400 36.0311 -0.1933
108.1600 36.0378 -0.2003
108.1800 36.0444 -0.1947
108.2000 36.0510 -0.1969
108.2200 36.0577 -0.2021
108.2400 36.0644 -0.1958
108.2600 36.0711 -0.1964
108.2800 36.0778 -0.2101
108.3000 36.0844 -0.1924
108.3200 36.0911 -0.2008
108.3400 36.0978 -0.2074
108.3600 36.1044 -0.1939
108.3800 36.1110 -0.1995
108.4000 36.1177 -0.2122
108.4200 36.1244 -0.1921
108.4400 36.1311 -0.2080
108.4600 36.1378 -0.2084
108.4800 36.1445 -0.1923
108.5000 36.1511 -0.2149
108.5200 36.1578 -0.2063
108.5400 36.1644 -0.1896
108.5600 36.1710 -0.2146
108.5800 36.1776 -0.2083
108.6000 36.1843 -0.1925
108.6200 36.1911 -0.2177
108.6400 36.1978 -0.2072
108.6600 36.2044 -0.1916
108.6800 36.2111 -0.2197
108.7000 36.2177 -0.2094
108.7200 36.2243 -0.1916
108.7400 36.2309 -0.2227
108.7600 36.2376 -0.2068
108.7800 36.2443 -0.1980
108.8000 36.2510 -0.2220
108.8200 36.2577 -0.2091
108.8400 36.2644 -0.1980
108.8600 36.2711 -0.2238
108.8800 36.2777 -0.2090
108.9000 36.2844 -0.1993
108.9200 36.2910 -0.2179
108.9400 36.2977 -0.2163
108.9600 36.3044 -0.1995
108.9800 36.3111 -0.2129
109.0000 36.3178 -0.2230
109.0200 36.3245 -0.2043
109.0400 36.3312 -0.2032
109.0600 36.3378 -0.2282
109.0800 36.3444 -0.2120
109.1000 36.3510 -0.2088
109.1200 36.3577 -0.2255
109.1400 36.3644 -0.1990
109.1600 36.3711 -0.2105
109.1800 36.3778 -0.2382
109.2000 36.3844 -0.2011
109.2200 36.3911 -0.2050
109.2400 36.3978 -0.2415
109.2600 36.4044 -0.1981
109.2800 36.4110 -0.2179
109.3000 36.4176 -0.2425
109.3200 36.4243 -0.1877
109.3400 36.4310 -0.2301
109.3600 36.4377 -0.2478
109.3800 36.4444 -0.1849
109.4000 36.4511 -0.2383
109.4200 36.4578 -0.2406
109.4400 36.4644 -0.1827
109.4600 36.4710 -0.2446
109.4800 36.4776 -0.2445
109.5000 36.4843 -0.1854
109.5200 36.4910 -0.2457
109.5400 36.4977 -0.2387
109.5600 36.5044 -0.1933
109.5800 36.5111 -0.2522
109.6000 36.5177 -0.2315
109.6200 36.5244 -0.2014
109.6400 36.5310 -0.2571
109.6600 36.5377 -0.2239
109.6800 36.5443 -0.2125
109.7000 36.5511 -0.2499
109.7200 36.5578 -0.2242
109.7400 36.5644 -0.2252
109.7600 36.5711 -0.2453
109.7800 36.5778 -0.2295
109.8000 36.5844 -0.2265
109.8200 36.5910 -0.2389
109.8400 36.5976 -0.2277
109.8600 36.6044 -0.2439
109.8800 36.6111 -0.2355
109.9000 36.6178 -0.2254
109.9200 36.6244 -0.2396
109.9400 36.6311 -0.2382
109.9600 36.6377 -0.2344
109.9800 36.6444 -0.2382
110.0000 36.6510 -0.2380
110.0200 36.6577 -0.2401
110.0400 36.6643 -0.2302
110.0600 36.6710 -0.2448
110.0800 36.6777 -0.2496
110.1000 36.6844 -0.2318
110.1200 36.6911 -0.2344
110.1400 36.6977 -0.2487
110.1600 36.7043 -0.2405
110.1800 36.7109 -0.2348
110.2000 36.7176 -0.2464
110.2200 36.7243 -0.2412
110.2400 36.7310 -0.2463
110.2600 36.7377 -0.2396
110.2800 36.7444 -0.2413
110.3000 36.7511 -0.2511
110.3200 36.7578 -0.2367
110.3400 36.7644 -0.2373
110.3600 36.7710 -0.2588
110.3800 36.7777 -0.2378
110.4000 36.7844 -0.2422
110.4200 36.7911 -0.2512
110.4400 36.7978 -0.2443
110.4600 36.8044 -0.2490
110.4800 36.8111 -0.2511
110.5000 36.8178 -0.2331
110.5200 36.8244 -0.2562
110.5400 36.8310 -0.2553
110.5600 36.8376 -0.2338
110.5800 36.8443 -0.2479
110.6000 36.8510 -0.2628
110.6200 36.8577 -0.2446
110.6400 36.8644 -0.2466
110.6600 36.8711 -0.2527
110.6800 36.8778 -0.2508
110.7000 36.8844 -0.2521
110.7200 36.8910 -0.2485
110.7400 36.8977 -0.2423
110.7600 36.9044 -0.2534
110.7800 36.9111 -0.2548
110.8000 36.9178 -0.2449
110.8200 36.9244 -0.2571
110.8400 36.9311 -0.2519
110.8600 36.9378 -0.2532
110.8800 36.9444 -0.2544
110.9000 36.9510 -0.2492
110.9200 36.9576 -0.2522
110.9400 36.9643 -0.2561
110.9600 36.9710 -0.2538
110.9800 36.9777 -0.2512
111.0000 36.9843 -0.2549
111.0200 36.9910 -0.2574
111.0400 36.9977 -0.2508
111.0600 37.0044 -0.2590
111.0800 37.0110 -0.2584
111.1000 37.0177 -0.2504
111.1200 37.0243 -0.2558
111.1400 37.0311 -0.2585
111.1600 37.0378 -0.2545
111.1800 37.0445 -0.2622
111.2000 37.0512 -0.2602
111.2200 37.0578 -0.2514
111.2400 37.0645 -0.2677
111.2600 37.0710 -0.2637
111.2800 37.0777 -0.2520
111.3000 37.0844 -0.2653
111.3200 37.0911 -0.2621
111.3400 37.0978 -0.2584
111.3600 37.1045 -0.2656
111.3800 37.1111 -0.2561
111.4000 37.1178 -0.2646
111.4200 37.1244 -0.2719
111.4400 37.1310 -0.2546
111.4600 37.1377 -0.2630
111.4800 37.1443 -0.2775
111.5000 37.1510 -0.2525
111.5200 37.1577 -0.2643
111.5400 37.1644 -0.2771
111.5600 37.1711 -0.2572
111.5800 37.1778 -0.2677
111.6000 37.1844 -0.2728
111.6200 37.1910 -0.2579
111.6400 37.1976 -0.2747
111.6600 37.2043 -0.2709
111.6800 37.2110 -0.2585
111.7000 37.2177 -0.2763
111.7200 37.2244 -0.2724
111.7400 37.2311 -0.2592
111.7600 37.2377 -0.2785
111.7800 37.2444 -0.2781
111.8000 37.2510 -0.2616
111.8200 37.2576 -0.2803
111.8400 37.2643 -0.2706
111.8600 37.2711 -0.2663
111.8800 37.2778 -0.2855
111.9000 37.2845 -0.2718
111.9200 37.2911 -0.2646
111.9400 37.2978 -0.2855
111.9600 37.3044 -0.2710
111.9800 37.3110 -0.2743
112.0000 37.3177 -0.2821
112.0200 37.3244 -0.2739
112.0400 37.3311 -0.2734
112.0600 37.3378 -0.2890
112.0800 37.3444 -0.2717
112.1000 37.3511 -0.2761
112.1200 37.3578 -0.2841
112.1400 37.3645 -0.2735
112.1600 37.3711 -0.2808
112.1800 37.3777 -0.2805
112.2000 37.3843 -0.2720
112.2200 37.3910 -0.2837
112.2400 37.3977 -0.2847
112.2600 37.4044 -0.2738
112.2800 37.4111 -0.2835
112.3000 37.4178 -0.2827
112.3200 37.4244 -0.2775
112.3400 37.4310 -0.2895
112.3600 37.4376 -0.2803
112.3800 37.4443 -0.2767
112.4000 37.4510 -0.2929
112.4200 37.4577 -0.2818
112.4400 37.4644 -0.2861
112.4600 37.4710 -0.2857
112.4800 37.4777 -0.2825
112.5000 37.4844 -0.2850
112.5200 37.4911 -0.2918
112.5400 37.4977 -0.2866
112.5600 37.5043 -0.2892
112.5800 37.5110 -0.2857
112.6000 37.5177 -0.2884
112.6200 37.5244 -0.2966
112.6400 37.5311 -0.2871
112.6600 37.5378 -0.2878
112.6800 37.5445 -0.2990
112.7000 37.5510 -0.2890
112.7200 37.5576 -0.2911
112.7400 37.5643 -0.2958
112.7600 37.5710 -0.2920
112.7800 37.5778 -0.2976
112.8000 37.5845 -0.2909
112.8200 37.5911 -0.2905
112.8400 37.5978 -0.3040
112.8600 37.6044 -0.2941
112.8800 37.6110 -0.2857
112.9000 37.6177 -0.3032
112.9200 37.6243 -0.2924
112.9400 37.6311 -0.2930
112.9600 37.6378 -0.2979
112.9800 37.6444 -0.2990
113.0000 37.6511 -0.2974
113.0200 37.6578 -0.3032
113.0400 37.6644 -0.2953
113.0600 37.6710 -0.3052
113.0800 37.6776 -0.3044
113.1000 37.6843 -0.2910
113.1200 37.6909 -0.3060
113.1400 37.6977 -0.3042
113.1600 37.7044 -0.2933
113.1800 37.7111 -0.3057
113.2000 37.7178 -0.3080
113.2200 37.7244 -0.2953
113.2400 37.7311 -0.3053
113.2600 37.7377 -0.3059
113.2800 37.7443 -0.3026
113.3000 37.7510 -0.3055
113.3200 37.7578 -0.3013
113.3400 37.7645 -0.3023
113.3600 37.7711 -0.3122
113.3800 37.7778 -0.3043
113.4000 37.7845 -0.3048
113.4200 37.7910 -0.3101
113.4400 37.7977 -0.3103
113.4600 37.8043 -0.3000
113.4800 37.8111 -0.3114
113.5000 37.8178 -0.3075
113.5200 37.8244 -0.3015
113.5400 37.8311 -0.3105
113.5600 37.8378 -0.3129
113.5800 37.8444 -0.3090
113.6000 37.8511 -0.3140
113.6200 37.8576 -0.3132
113.6400 37.8643 -0.3081
113.6600 37.8710 -0.3110
113.6800 37.8777 -0.3226
113.7000 37.8844 -0.3088
113.7200 37.8911 -0.3113
113.7400 37.8978 -0.3259
113.7600 37.9044 -0.3060
113.7800 37.9111 -0.3168
113.8000 37.9177 -0.3240
113.8200 37.9243 -0.3069
113.8400 37.9310 -0.3198
113.8600 37.9377 -0.3284
113.8800 37.9444 -0.3052
113.9000 37.9511 -0.3231
113.9200 37.9577 -0.3266
113.9400 37.9644 -0.3100
113.9600 37.9710 -0.3270
113.9800 37.9777 -0.3229
114.0000 37.9843 -0.3118
114.0200 37.9910 -0.3349
114.0400 37.9978 -0.3178
114.0600 38.0045 -0.3174
114.0800 38.0111 -0.3343
114.1000 38.0178 -0.3217
114.1200 38.0245 -0.3130
114.1400 38.0311 -0.3328
114.1600 38.0377 -0.3227
114.1800 38.0443 -0.3248
114.2000 38.0510 -0.3361
114.2200 38.0577 -0.3177
114.2400 38.0644 -0.3269
114.2600 38.0711 -0.3360
114.2800 38.0778 -0.3227
114.3000 38.0845 -0.3342
114.3200 38.0911 -0.3310
114.3400 38.0977 -0.3151
114.3600 38.1043 -0.3399
114.3800 38.1110 -0.3354
114.4000 38.1177 -0.3205
114.4200 38.1244 -0.3401
114.4400 38.1311 -0.3409
114.4600 38.1377 -0.3193
114.4800 38.1444 -0.3436
114.5000 38.1511 -0.3394
114.5200 38.1577 -0.3168
114.5400 38.1643 -0.3410
114.5600 38.1710 -0.3457
114.5800 38.1777 -0.3165
114.6000 38.1844 -0.3473
114.6200 38.1910 -0.3476
114.6400 38.1977 -0.3195
114.6600 38.2044 -0.3470
114.6800 38.2111 -0.3503
114.7000 38.2177 -0.3200
114.7200 38.2243 -0.3478
114.7400 38.2310 -0.3493
114.7600 38.2377 -0.3228
114.7800 38.2444 -0.3558
114.8000 38.2511 -0.3508
114.8200 38.2578 -0.3249
114.8400 38.2645 -0.3557
114.8600 38.2711 -0.3487
114.8800 38.2777 -0.3338
114.9000 38.2843 -0.3554
114.9200 38.2910 -0.3484
114.9400 38.2977 -0.3410
114.9600 38.3044 -0.3530
114.9800 38.3111 -0.3526
115.0000 38.3178 -0.3408
115.0200 38.3244 -0.3568
115.0400 38.3311 -0.3489
115.0600 38.3377 -0.3451
115.0800 38.3443 -0.3569
115.1000 38.3510 -0.3510
115.1200 38.3577 -0.3472
115.1400 38.3644 -0.3584
115.1600 38.3711 -0.3508
115.1800 38.3778 -0.3504
115.2000 38.3844 -0.3614
115.2200 38.3911 -0.3566
115.2400 38.3976 -0.3474
115.2600 38.4042 -0.3644
115.2800 38.4109 -0.3493
115.3000 38.4177 -0.3524
115.3200 38.4244 -0.3653
115.3400 38.4310 -0.3506
115.3600 38.4377 -0.3568
115.3800 38.4444 -0.3676
115.4000 38.4510 -0.3509
115.4200 38.4576 -0.3602
115.4400 38.4643 -0.3684
115.4600 38.4710 -0.3492
115.4800 38.4777 -0.3630
115.5000 38.4844 -0.3688
115.5200 38.4911 -0.3505
115.5400 38.4978 -0.3651
115.5600 38.5045 -0.3696
115.5800 38.5111 -0.3514
115.6000 38.5177 -0.3686
115.6200 38.5244 -0.3681
115.6400 38.5311 -0.3494
115.6600 38.5378 -0.3724
115.6800 38.5444 -0.3746
115.7000 38.5511 -0.3501
115.7200 38.5578 -0.3750
115.7400 38.5645 -0.3688
115.7600 38.5711 -0.3595
115.7800 38.5777 -0.3760
115.8000 38.5843 -0.3689
115.8200 38.5909 -0.3613
115.8400 38.5977 -0.3774
115.8600 38.6044 -0.3745
115.8800 38.6111 -0.3666
115.9000 38.6178 -0.3781
115.9200 38.6244 -0.3710
115.9400 38.6311 -0.3648
115.9600 38.6377 -0.3814
115.9800 38.6443 -0.3742
116.0000 38.6510 -0.3637
116.0200 38.6577 -0.3855
116.0400 38.6644 -0.3785
116.0600 38.6711 -0.3737
116.0800 38.6777 -0.3830
116.1000 38.6844 -0.3804
116.1200 38.6911 -0.3698
116.1400 38.6977 -0.3910
116.1600 38.7044 -0.3804
116.1800 38.7110 -0.3722
116.2000 38.7177 -0.3865
116.2200 38.7244 -0.3833
116.2400 38.7311 -0.3727
116.2600 38.7378 -0.3906
116.2800 38.7445 -0.3809
116.3000 38.7511 -0.3720
116.3200 38.7577 -0.3948
116.3400 38.7643 -0.3836
116.3600 38.7710 -0.3729
116.3800 38.7777 -0.3952
116.4000 38.7844 -0.3883
116.4200 38.7911 -0.3787
116.4400 38.7978 -0.3953
116.4600 38.8044 -0.3852
116.4800 38.8111 -0.3798
116.5000 38.8177 -0.3947
116.5200 38.8243 -0.3895
116.5400 38.8310 -0.3809
116.5600 38.8377 -0.3949
116.5800 38.8444 -0.3897
116.6000 38.8511 -0.3879
116.6200 38.8578 -0.3943
116.6400 38.8644 -0.3956
116.6600 38.8711 -0.3891
116.6800 38.8777 -0.3990
116.7000 38.8843 -0.3948
116.7200 38.8910 -0.3876
116.7400 38.8977 -0.3963
116.7600 38.9044 -0.4030
116.7800 38.9111 -0.3909
116.8000 38.9178 -0.3931
116.8200 38.9245 -0.3980
116.8400 38.9311 -0.3966
116.8600 38.9377 -0.4033
116.8800 38.9443 -0.3963
116.9000 38.9510 -0.3911
116.9200 38.9577 -0.4014
116.9400 38.9644 -0.3994
116.9600 38.9712 -0.3970
116.9800 38.9778 -0.4077
117.0000 38.9845 -0.3995
117.0200 38.9911 -0.3934
117.0400 38.9977 -0.4060
117.0600 39.0043 -0.4019
117.0800 39.0110 -0.3942
117.1000 39.0177 -0.4130
117.1200 39.0244 -0.4001
117.1400 39.0311 -0.4016
117.1600 39.0378 -0.4103
117.1800 39.0445 -0.4063
117.2000 39.0511 -0.3984
117.2200 39.0577 -0.4099
117.2400 39.0643 -0.4059
117.2600 39.0709 -0.3982
117.2800 39.0777 -0.4115
117.3000 39.0844 -0.4102
117.3200 39.0911 -0.3981
117.3400 39.0978 -0.4140
117.3600 39.1044 -0.4116
117.3800 39.1111 -0.4033
117.4000 39.1177 -0.4151
117.4200 39.1243 -0.4091
117.4400 39.1309 -0.4017
117.4600 39.1376 -0.4187
117.4800 39.1444 -0.4122
117.5000 39.1511 -0.4002
117.5200 39.1577 -0.4198
117.5400 39.1644 -0.4143
117.5600 39.1711 -0.4061
117.5800 39.1777 -0.4213
117.6000 39.1843 -0.4143
117.6200 39.1910 -0.4052
117.6400 39.1977 -0.4231
117.6600 39.2044 -0.4152
117.6800 39.2111 -0.4132
117.7000 39.2178 -0.4254
117.7200 39.2245 -0.4169
117.7400 39.2311 -0.4079
117.7600 39.2378 -0.4301
117.7800 39.2444 -0.4170
117.8000 39.2510 -0.4122
117.8200 39.2577 -0.4286
117.8400 39.2644 -0.4211
117.8600 39.2711 -0.4130
117.8800 39.2778 -0.4276
117.9000 39.2845 -0.4243
117.9200 39.2911 -0.4195
117.9400 39.2977 -0.4291
117.9600 39.3043 -0.4239
117.9800 39.3110 -0.4262
118.0000 39.3177 -0.4292
118.0200 39.3244 -0.4309
118.0400 39.3311 -0.4282
118.0600 39.3377 -0.4297
118.0800 39.3444 -0.4270
118.1000 39.3511 -0.4311
118.1200 39.3577 -0.4324
118.1400 39.3643 -0.4319
118.1600 39.3710 -0.4259
118.1800 39.3777 -0.4389
118.2000 39.3844 -0.4309
118.2200 39.3911 -0.4314
118.2400 39.3977 -0.4362
118.2600 39.4044 -0.4383
118.2800 39.4111 -0.4375
118.3000 39.4177 -0.4373
118.3200 39.4243 -0.4412
118.3400 39.4310 -0.4385
118.3600 39.4377 -0.4379
118.3800 39.4444 -0.4459
118.4000 39.4511 -0.4388
118.4200 39.4578 -0.4406
118.4400 39.4644 -0.4471
118.4600 39.4711 -0.4353
118.4800 39.4777 -0.4438
118.5000 39.4843 -0.4504
118.5200 39.4910 -0.4368
118.5400 39.4977 -0.4470
118.5600 39.5044 -0.4555
118.5800 39.5111 -0.4396
118.6000 39.5178 -0.4525
118.6200 39.5245 -0.4526
118.6400 39.5311 -0.4449
118.6600 39.5377 -0.4559
118.6800 39.5443 -0.4576
118.7000 39.5510 -0.4443
118.7200 39.5577 -0.4600
118.7400 39.5643 -0.4592
118.7600 39.5710 -0.4504
118.7800 39.5777 -0.4581
118.8000 39.5844 -0.4638
118.8200 39.5911 -0.4541
118.8400 39.5977 -0.4635
118.8600 39.6043 -0.4570
118.8800 39.6110 -0.4536
118.9000 39.6176 -0.4641
118.9200 39.6244 -0.4640
118.9400 39.6311 -0.4602
118.9600 39.6378 -0.4640
118.9800 39.6444 -0.4608
119.0000 39.6511 -0.4601
119.0200 39.6577 -0.4703
119.0400 39.6643 -0.4589
119.0600 39.6710 -0.4640
119.0800 39.6777 -0.4679
119.1000 39.6844 -0.4653
119.1200 39.6911 -0.4683
119.1400 39.6978 -0.4760
119.1600 39.7045 -0.4655
119.1800 39.7111 -0.4661
119.2000 39.7178 -0.4729
119.2200 39.7244 -0.4695
119.2400 39.7310 -0.4678
119.2600 39.7377 -0.4729
119.2800 39.7444 -0.4678
119.3000 39.7511 -0.4754
119.3200 39.7578 -0.4726
119.3400 39.7645 -0.4742
119.3600 39.7711 -0.4767
119.3800 39.7777 -0.4799
119.4000 39.7843 -0.4732
119.4200 39.7910 -0.4740
119.4400 39.7977 -0.4814
119.4600 39.8044 -0.4744
119.4800 39.8111 -0.4735
119.5000 39.8178 -0.4844
119.5200 39.8244 -0.4766
119.5400 39.8311 -0.4763
119.5600 39.8377 -0.4873
119.5800 39.8443 -0.4722
119.6000 39.8509 -0.4819
119.6200 39.8576 -0.4918
119.6400 39.8644 -0.4735
119.6600 39.8711 -0.4827
119.6800 39.8777 -0.5000
119.7000 39.8844 -0.4748
119.7200 39.8911 -0.4837
119.7400 39.8977 -0.4945
119.7600 39.9043 -0.4791
119.7800 39.9110 -0.4836
119.8000 39.9177 -0.4989
119.8200 39.9244 -0.4798
119.8400 39.9311 -0.4892
119.8600 39.9378 -0.4951
119.8800 39.9445 -0.4767
119.9000 39.9512 -0.4932
119.9200 39.9578 -0.5017
119.9400 39.9644 -0.4769
119.9600 39.9710 -0.4902
119.9800 39.9777 -0.4997
120.0000 39.9844 -0.4858
120.0200 39.9911 -0.4970
120.0400 39.9978 -0.5002
120.0470 40.0001 -0.5027
