Raw Data
Time Displacement Force
(s) (mm) (N)
0.0000 0.0000 -0.2076
0.0200 0.0000 -0.2100
0.0400 0.0008 -0.1477
0.0600 0.0039 -0.1316
0.0800 0.0094 -0.1614
0.1000 0.0151 -0.1533
0.1200 0.0210 -0.1293
0.1400 0.0276 -0.1169
0.1600 0.0350 -0.0981
0.1800 0.0424 -0.0863
0.2000 0.0496 -0.0635
0.2200 0.0565 -0.0362
0.2400 0.0632 -0.0198
0.2600 0.0699 0.0054
0.2800 0.0765 0.0371
0.3000 0.0832 0.0523
0.3200 0.0900 0.0863
0.3400 0.0967 0.1089
0.3600 0.1034 0.1214
0.3800 0.1100 0.1415
0.4000 0.1166 0.1564
0.4200 0.1233 0.1674
0.4400 0.1300 0.1907
0.4600 0.1367 0.2019
0.4800 0.1434 0.2149
0.5000 0.1501 0.2423
0.5200 0.1567 0.2384
0.5400 0.1634 0.2317
0.5600 0.1699 0.2497
0.5800 0.1766 0.2753
0.6000 0.1833 0.2935
0.6200 0.1900 0.3169
0.6400 0.1967 0.3137
0.6600 0.2034 0.3103
0.6800 0.2101 0.3154
0.7000 0.2167 0.3130
0.7200 0.2234 0.3086
0.7400 0.2300 0.3210
0.7600 0.2366 0.3188
0.7800 0.2433 0.3093
0.8000 0.2500 0.3226
0.8200 0.2567 0.3249
0.8400 0.2633 0.3167
0.8600 0.2700 0.3238
0.8800 0.2767 0.3226
0.9000 0.2833 0.3170
0.9200 0.2899 0.3269
0.9400 0.2965 0.3252
0.9600 0.3032 0.3185
0.9800 0.3099 0.3297
1.0000 0.3166 0.3285
1.0200 0.3233 0.3193
1.0400 0.3300 0.3341
1.0600 0.3367 0.3286
1.0800 0.3433 0.3288
1.1000 0.3499 0.3350
1.1200 0.3566 0.3287
1.1400 0.3633 0.3285
1.1600 0.3700 0.3393
1.1800 0.3767 0.3340
1.2000 0.3834 0.3366
1.2200 0.3901 0.3373
1.2400 0.3968 0.3344
1.2600 0.4034 0.3326
1.2800 0.4100 0.3396
1.3000 0.4167 0.3356
1.3200 0.4233 0.3358
1.3400 0.4300 0.3408
1.3600 0.4367 0.3346
1.3800 0.4434 0.3349
1.4000 0.4501 0.3378
1.4200 0.4567 0.3349
1.4400 0.4633 0.3349
1.4600 0.4699 0.3380
1.4800 0.4765 0.3395
1.5000 0.4832 0.3344
1.5200 0.4899 0.3378
1.5400 0.4966 0.3361
1.5600 0.5033 0.3325
1.5800 0.5100 0.3380
1.6000 0.5167 0.3358
1.6200 0.5233 0.3260
1.6400 0.5299 0.3335
1.6600 0.5366 0.3388
1.6800 0.5433 0.3271
1.7000 0.5500 0.3362
1.7200 0.5567 0.3318
1.7400 0.5634 0.3242
1.7600 0.5700 0.3304
1.7800 0.5767 0.3319
1.8000 0.5834 0.3238
1.8200 0.5900 0.3289
1.8400 0.5966 0.3223
1.8600 0.6033 0.3245
1.8800 0.6100 0.3242
1.9000 0.6167 0.3285
1.9200 0.6234 0.3235
1.9400 0.6301 0.3213
1.9600 0.6367 0.3222
1.9800 0.6434 0.3210
2.0000 0.6500 0.3162
2.0200 0.6566 0.3247
2.0400 0.6633 0.3219
2.0600 0.6700 0.3097
2.0800 0.6767 0.3171
2.1000 0.6834 0.3168
2.1200 0.6901 0.3100
2.1400 0.6967 0.3167
2.1600 0.7034 0.3150
2.1800 0.7100 0.3088
2.2000 0.7166 0.3202
2.2200 0.7233 0.3106
2.2400 0.7300 0.3090
2.2600 0.7367 0.3147
2.2800 0.7434 0.3082
2.3000 0.7500 0.3033
2.3200 0.7567 0.3170
2.3400 0.7634 0.3053
2.3600 0.7700 0.3039
2.3800 0.7766 0.3166
2.4000 0.7833 0.3071
2.4200 0.7900 0.2960
2.4400 0.7966 0.3155
2.4600 0.8033 0.3081
2.4800 0.8100 0.2978
2.5000 0.8167 0.3151
2.5200 0.8234 0.3053
2.5400 0.8300 0.2960
2.5600 0.8366 0.3160
2.5800 0.8433 0.3074
2.6000 0.8500 0.2938
2.6200 0.8567 0.3144
2.6400 0.8634 0.2985
2.6600 0.8701 0.2975
2.6800 0.8767 0.3130
2.7000 0.8834 0.2947
2.7200 0.8900 0.3002
2.7400 0.8966 0.3129
2.7600 0.9033 0.2985
2.7800 0.9100 0.2963
2.8000 0.9167 0.3063
2.8200 0.9234 0.3016
2.8400 0.9301 0.2904
2.8600 0.9367 0.3020
2.8800 0.9434 0.3018
2.9000 0.9500 0.3016
2.9200 0.9566 0.2971
2.9400 0.9632 0.2974
2.9600 0.9699 0.3046
2.9800 0.9767 0.2984
3.0000 0.9833 0.2957
3.0200 0.9900 0.2995
3.0400 0.9967 0.2953
3.0600 1.0034 0.3029
3.0800 1.0100 0.2992
3.1000 1.0165 0.2939
3.1200 1.0232 0.3028
3.1400 1.0299 0.2946
3.1600 1.0367 0.2928
3.1800 1.0434 0.2992
3.2000 1.0500 0.2979
3.2200 1.0567 0.2939
3.2400 1.0634 0.2975
3.2600 1.0700 0.2935
3.2800 1.0766 0.2943
3.3000 1.0833 0.3019
3.3200 1.0900 0.2961
3.3400 1.0967 0.2895
3.3600 1.1034 0.3066
3.3800 1.1101 0.2945
3.4000 1.1168 0.2856
3.4200 1.1235 0.3000
3.4400 1.1301 0.2941
3.4600 1.1367 0.2828
3.4800 1.1433 0.2989
3.5000 1.1500 0.2900
3.5200 1.1567 0.2901
3.5400 1.1634 0.3009
3.5600 1.1701 0.2879
3.5800 1.1767 0.2861
3.6000 1.1834 0.2985
3.6200 1.1900 0.2951
3.6400 1.1966 0.2881
3.6600 1.2032 0.2961
3.6800 1.2100 0.2851
3.7000 1.2167 0.2836
3.7200 1.2234 0.2953
3.7400 1.2300 0.2873
3.7600 1.2367 0.2888
3.7800 1.2434 0.2961
3.8000 1.2500 0.2797
3.8200 1.2566 0.2875
3.8400 1.2633 0.2968
3.8600 1.2700 0.2860
3.8800 1.2767 0.2823
3.9000 1.2833 0.2987
3.9200 1.2900 0.2824
3.9400 1.2967 0.2820
3.9600 1.3034 0.2939
3.9800 1.3100 0.2846
4.0000 1.3166 0.2860
4.0200 1.3232 0.2928
4.0400 1.3299 0.2791
4.0600 1.3367 0.2884
4.0800 1.3434 0.2948
4.1000 1.3501 0.2787
4.1200 1.3567 0.2853
4.1400 1.3634 0.2953
4.1600 1.3700 0.2763
4.1800 1.3766 0.2835
4.2000 1.3833 0.2915
4.2200 1.3900 0.2805
4.2400 1.3967 0.2886
4.2600 1.4034 0.2845
4.2800 1.4101 0.2778
4.3000 1.4168 0.2853
4.3200 1.4234 0.2838
4.3400 1.4300 0.2764
4.3600 1.4366 0.2878
4.3800 1.4433 0.2867
4.4000 1.4500 0.2785
4.4200 1.4567 0.2804
4.4400 1.4633 0.2826
4.4600 1.4700 0.2801
4.4800 1.4767 0.2866
4.5000 1.4834 0.2765
4.5200 1.4900 0.2822
4.5400 1.4966 0.2816
4.5600 1.5032 0.2799
4.5800 1.5099 0.2781
4.6000 1.5166 0.2828
4.6200 1.5233 0.2818
4.6400 1.5300 0.2753
4.6600 1.5367 0.2759
4.6800 1.5434 0.2829
4.7000 1.5500 0.2771
4.7200 1.5566 0.2750
4.7400 1.5633 0.2797
4.7600 1.5700 0.2794
4.7800 1.5767 0.2710
4.8000 1.5834 0.2773
4.8200 1.5901 0.2766
4.8400 1.5968 0.2735
4.8600 1.6034 0.2796
4.8800 1.6100 0.2733
4.9000 1.6166 0.2806
4.9200 1.6232 0.2746
4.9400 1.6299 0.2753
4.9600 1.6367 0.2747
4.9800 1.6434 0.2737
5.0000 1.6501 0.2708
5.0200 1.6568 0.2741
5.0400 1.6634 0.2713
5.0600 1.6700 0.2704
5.0800 1.6766 0.2706
5.1000 1.6832 0.2746
5.1200 1.6899 0.2696
5.1400 1.6966 0.2711
5.1600 1.7034 0.2705
5.1800 1.7100 0.2744
5.2000 1.7167 0.2667
5.2200 1.7234 0.2679
5.2400 1.7300 0.2698
5.2600 1.7366 0.2679
5.2800 1.7432 0.2751
5.3000 1.7499 0.2699
5.3200 1.7567 0.2663
5.3400 1.7634 0.2659
5.3600 1.7700 0.2681
5.3800 1.7767 0.2687
5.4000 1.7834 0.2690
5.4200 1.7900 0.2685
5.4400 1.7966 0.2676
5.4600 1.8033 0.2624
5.4800 1.8099 0.2727
5.5000 1.8167 0.2695
5.5200 1.8234 0.2633
5.5400 1.8301 0.2745
5.5600 1.8368 0.2727
5.5800 1.8435 0.2562
5.6000 1.8501 0.2763
5.6200 1.8567 0.2691
5.6400 1.8633 0.2586
5.6600 1.8700 0.2778
5.6800 1.8767 0.2627
5.7000 1.8834 0.2560
5.7200 1.8900 0.2850
5.7400 1.8967 0.2558
5.7600 1.9034 0.2621
5.7800 1.9100 0.2770
5.8000 1.9166 0.2550
5.8200 1.9232 0.2680
5.8400 1.9299 0.2749
5.8600 1.9366 0.2549
5.8800 1.9433 0.2701
5.9000 1.9500 0.2716
5.9200 1.9567 0.2534
5.9400 1.9633 0.2715
5.9600 1.9700 0.2670
5.9800 1.9766 0.2552
6.0000 1.9832 0.2694
6.0200 1.9899 0.2606
6.0400 1.9966 0.2546
6.0600 2.0033 0.2745
6.0800 2.0100 0.2590
6.1000 2.0167 0.2566
6.1200 2.0234 0.2682
6.1400 2.0301 0.2580
6.1600 2.0367 0.2590
6.1800 2.0433 0.2667
6.2000 2.0500 0.2584
6.2200 2.0567 0.2626
6.2400 2.0634 0.2578
6.2600 2.0701 0.2541
6.2800 2.0767 0.2638
6.3000 2.0834 0.2598
6.3200 2.0900 0.2537
6.3400 2.0966 0.2636
6.3600 2.1033 0.2569
6.3800 2.1099 0.2564
6.4000 2.1167 0.2665
6.4200 2.1234 0.2553
6.4400 2.1300 0.2565
6.4600 2.1367 0.2610
6.4800 2.1434 0.2519
6.5000 2.1501 0.2571
6.5200 2.1567 0.2580
6.5400 2.1633 0.2512
6.5600 2.1700 0.2624
6.5800 2.1766 0.2518
6.6000 2.1833 0.2506
6.6200 2.1900 0.2621
6.6400 2.1967 0.2506
6.6600 2.2034 0.2480
6.6800 2.2101 0.2614
6.7000 2.2166 0.2482
6.7200 2.2232 0.2508
6.7400 2.2299 0.2650
6.7600 2.2366 0.2453
6.7800 2.2433 0.2468
6.8000 2.2500 0.2601
6.8200 2.2567 0.2404
6.8400 2.2634 0.2514
6.8600 2.2700 0.2608
6.8800 2.2766 0.2467
6.9000 2.2833 0.2511
6.9200 2.2899 0.2601
6.9400 2.2967 0.2428
6.9600 2.3034 0.2489
6.9800 2.3100 0.2563
7.0000 2.3167 0.2449
7.0200 2.3234 0.2519
7.0400 2.3301 0.2455
7.0600 2.3367 0.2468
7.0800 2.3433 0.2525
7.1000 2.3500 0.2491
7.1200 2.3566 0.2415
7.1400 2.3633 0.2516
7.1600 2.3700 0.2464
7.1800 2.3767 0.2435
7.2000 2.3834 0.2468
7.2200 2.3901 0.2473
7.2400 2.3967 0.2433
7.2600 2.4033 0.2475
7.2800 2.4099 0.2427
7.3000 2.4166 0.2494
7.3200 2.4234 0.2487
7.3400 2.4300 0.2415
7.3600 2.4367 0.2485
7.3800 2.4434 0.2469
7.4000 2.4500 0.2399
7.4200 2.4566 0.2528
7.4400 2.4632 0.2493
7.4600 2.4699 0.2457
7.4800 2.4766 0.2474
7.5000 2.4833 0.2421
7.5200 2.4900 0.2431
7.5400 2.4966 0.2471
7.5600 2.5033 0.2461
7.5800 2.5100 0.2434
7.6000 2.5167 0.2462
7.6200 2.5233 0.2383
7.6400 2.5300 0.2453
7.6600 2.5366 0.2463
7.6800 2.5433 0.2417
7.7000 2.5500 0.2386
7.7200 2.5567 0.2454
7.7400 2.5634 0.2413
7.7600 2.5701 0.2375
7.7800 2.5767 0.2446
7.8000 2.5833 0.2445
7.8200 2.5900 0.2393
7.8400 2.5967 0.2457
7.8600 2.6034 0.2411
7.8800 2.6101 0.2421
7.9000 2.6167 0.2400
7.9200 2.6234 0.2380
7.9400 2.6300 0.2433
7.9600 2.6367 0.2391
7.9800 2.6433 0.2325
8.0000 2.6499 0.2446
8.0200 2.6566 0.2426
8.0400 2.6633 0.2314
8.0600 2.6700 0.2446
8.0800 2.6767 0.2451
8.1000 2.6834 0.2304
8.1200 2.6900 0.2409
8.1400 2.6967 0.2403
8.1600 2.7032 0.2327
8.1800 2.7099 0.2479
8.2000 2.7166 0.2373
8.2200 2.7233 0.2305
8.2400 2.7300 0.2403
8.2600 2.7367 0.2389
8.2800 2.7434 0.2316
8.3000 2.7501 0.2444
8.3200 2.7567 0.2377
8.3400 2.7633 0.2316
8.3600 2.7699 0.2380
8.3800 2.7766 0.2362
8.4000 2.7834 0.2311
8.4200 2.7900 0.2434
8.4400 2.7967 0.2319
8.4600 2.8034 0.2292
8.4800 2.8101 0.2411
8.5000 2.8167 0.2358
8.5200 2.8233 0.2302
8.5400 2.8299 0.2405
8.5600 2.8367 0.2345
8.5800 2.8434 0.2240
8.6000 2.8501 0.2359
8.6200 2.8567 0.2332
8.6400 2.8634 0.2296
8.6600 2.8701 0.2315
8.6800 2.8767 0.2328
8.7000 2.8833 0.2301
8.7200 2.8899 0.2343
8.7400 2.8966 0.2290
8.7600 2.9033 0.2275
8.7800 2.9100 0.2292
8.8000 2.9167 0.2305
8.8200 2.9234 0.2228
8.8400 2.9300 0.2273
8.8600 2.9366 0.2350
8.8800 2.9432 0.2261
8.9000 2.9499 0.2261
8.9200 2.9566 0.2335
8.9400 2.9633 0.2221
8.9600 2.9700 0.2275
8.9800 2.9766 0.2304
9.0000 2.9833 0.2249
9.0200 2.9900 0.2208
9.0400 2.9967 0.2332
9.0600 3.0033 0.2210
9.0800 3.0099 0.2237
9.1000 3.0166 0.2337
9.1200 3.0233 0.2182
9.1400 3.0300 0.2214
9.1600 3.0367 0.2262
9.1800 3.0434 0.2194
9.2000 3.0501 0.2204
9.2200 3.0567 0.2288
9.2400 3.0633 0.2179
9.2600 3.0699 0.2217
9.2800 3.0766 0.2287
9.3000 3.0833 0.2217
9.3200 3.0900 0.2187
9.3400 3.0967 0.2263
9.3600 3.1034 0.2203
9.3800 3.1101 0.2194
9.4000 3.1167 0.2272
9.4200 3.1233 0.2215
9.4400 3.1299 0.2178
9.4600 3.1366 0.2278
9.4800 3.1433 0.2182
9.5000 3.1500 0.2201
9.5200 3.1567 0.2262
9.5400 3.1634 0.2221
9.5600 3.1701 0.2157
9.5800 3.1767 0.2287
9.6000 3.1833 0.2198
9.6200 3.1899 0.2211
9.6400 3.1966 0.2258
9.6600 3.2033 0.2156
9.6800 3.2100 0.2204
9.7000 3.2167 0.2238
9.7200 3.2233 0.2216
9.7400 3.2300 0.2207
9.7600 3.2366 0.2236
9.7800 3.2432 0.2123
9.8000 3.2499 0.2250
9.8200 3.2566 0.2262
9.8400 3.2633 0.2187
9.8600 3.2701 0.2188
9.8800 3.2767 0.2189
9.9000 3.2834 0.2132
9.9200 3.2901 0.2210
9.9400 3.2967 0.2215
9.9600 3.3033 0.2165
9.9800 3.3099 0.2162
10.0000 3.3167 0.2237
10.0200 3.3234 0.2138
10.0400 3.3301 0.2219
10.0600 3.3368 0.2192
10.0800 3.3434 0.2183
10.1000 3.3500 0.2153
10.1200 3.3567 0.2143
10.1400 3.3633 0.2171
10.1600 3.3699 0.2191
10.1800 3.3766 0.2142
10.2000 3.3833 0.2159
10.2200 3.3900 0.2177
10.2400 3.3967 0.2160
10.2600 3.4034 0.2160
10.2800 3.4100 0.2153
10.3000 3.4167 0.2106
10.3200 3.4233 0.2148
10.3400 3.4299 0.2174
10.3600 3.4366 0.2075
10.3800 3.4433 0.2171
10.4000 3.4500 0.2080
10.4200 3.4567 0.2075
10.4400 3.4634 0.2185
10.4600 3.4700 0.2102
10.4800 3.4767 0.2095
10.5000 3.4833 0.2176
10.5200 3.4900 0.2062
10.5400 3.4966 0.2115
10.5600 3.5034 0.2149
10.5800 3.5100 0.2072
10.6000 3.5167 0.2122
10.6200 3.5234 0.2133
10.6400 3.5301 0.2003
10.6600 3.5367 0.2134
10.6800 3.5433 0.2100
10.7000 3.5500 0.2010
10.7200 3.5566 0.2152
10.7400 3.5633 0.2053
10.7600 3.5700 0.2050
10.7800 3.5767 0.2136
10.8000 3.5834 0.2070
10.8200 3.5901 0.2054
10.8400 3.5967 0.2090
10.8600 3.6033 0.2049
10.8800 3.6099 0.2051
10.9000 3.6166 0.2078
10.9200 3.6233 0.2069
10.9400 3.6300 0.2077
10.9600 3.6367 0.2088
10.9800 3.6434 0.2039
11.0000 3.6501 0.2038
11.0200 3.6567 0.2061
11.0400 3.6633 0.2077
11.0600 3.6699 0.2041
11.0800 3.6766 0.2067
11.1000 3.6833 0.2079
11.1200 3.6900 0.2043
11.1400 3.6967 0.2025
11.1600 3.7033 0.2113
11.1800 3.7100 0.2013
11.2000 3.7167 0.1993
11.2200 3.7233 0.2059
11.2400 3.7299 0.2055
11.2600 3.7366 0.1996
11.2800 3.7433 0.2077
11.3000 3.7500 0.2041
11.3200 3.7568 0.1983
11.3400 3.7635 0.2084
11.3600 3.7701 0.2023
11.3800 3.7768 0.1954
11.4000 3.7833 0.2075
11.4200 3.7899 0.2069
11.4400 3.7966 0.1950
11.4600 3.8033 0.2104
11.4800 3.8101 0.2000
11.5000 3.8168 0.1962
11.5200 3.8234 0.2087
11.5400 3.8301 0.1996
11.5600 3.8367 0.1963
11.5800 3.8433 0.2154
11.6000 3.8499 0.1989
11.6200 3.8566 0.1941
11.6400 3.8633 0.2120
11.6600 3.8700 0.2019
11.6800 3.8766 0.1932
11.7000 3.8833 0.2092
11.7200 3.8900 0.1976
11.7400 3.8966 0.1977
11.7600 3.9032 0.2074
11.7800 3.9099 0.1984
11.8000 3.9165 0.1993
11.8200 3.9233 0.2074
11.8400 3.9300 0.2007
11.8600 3.9367 0.1947
11.8800 3.9434 0.2041
11.9000 3.9501 0.1973
11.9200 3.9567 0.1958
11.9400 3.9633 0.2056
11.9600 3.9699 0.2001
11.9800 3.9766 0.1956
12.0000 3.9833 0.2046
12.0200 3.9901 0.1920
12.0400 3.9967 0.2000
12.0600 4.0034 0.2063
12.0800 4.0101 0.1992
12.1000 4.0167 0.1884
12.1200 4.0234 0.2080
12.1400 4.0300 0.1985
12.1600 4.0366 0.1913
12.1800 4.0433 0.2063
12.2000 4.0500 0.2007
12.2200 4.0567 0.1874
12.2400 4.0634 0.2033
12.2600 4.0701 0.1978
12.2800 4.0768 0.1863
12.3000 4.0833 0.2014
12.3200 4.0899 0.2033
12.3400 4.0966 0.1838
12.3600 4.1033 0.2045
12.3800 4.1100 0.1970
12.4000 4.1167 0.1839
12.4200 4.1234 0.2031
12.4400 4.1301 0.1981
12.4600 4.1367 0.1878
12.4800 4.1433 0.1979
12.5000 4.1499 0.1934
12.5200 4.1565 0.1820
12.5400 4.1632 0.2067
12.5600 4.1700 0.1940
12.5800 4.1767 0.1817
12.6000 4.1833 0.2064
12.6200 4.1900 0.1926
12.6400 4.1967 0.1833
12.6600 4.2034 0.2034
12.6800 4.2100 0.1912
12.7000 4.2166 0.1877
12.7200 4.2233 0.1963
12.7400 4.2300 0.1903
12.7600 4.2367 0.1818
12.7800 4.2434 0.2017
12.8000 4.2501 0.1925
12.8200 4.2568 0.1807
12.8400 4.2634 0.1982
12.8600 4.2700 0.1954
12.8800 4.2766 0.1817
12.9000 4.2833 0.1966
12.9200 4.2900 0.1940
12.9400 4.2967 0.1769
12.9600 4.3034 0.1916
12.9800 4.3101 0.1963
13.0000 4.3167 0.1826
13.0200 4.3233 0.1937
13.0400 4.3300 0.1939
13.0600 4.3366 0.1759
13.0800 4.3433 0.1984
13.1000 4.3500 0.1976
13.1200 4.3567 0.1746
13.1400 4.3634 0.1957
13.1600 4.3701 0.1976
13.1800 4.3767 0.1691
13.2000 4.3833 0.1958
13.2200 4.3899 0.1971
13.2400 4.3966 0.1686
13.2600 4.4032 0.1992
13.2800 4.4100 0.1974
13.3000 4.4167 0.1665
13.3200 4.4233 0.1966
13.3400 4.4300 0.1923
13.3600 4.4367 0.1677
13.3800 4.4433 0.1951
13.4000 4.4499 0.1909
13.4200 4.4566 0.1711
13.4400 4.4633 0.1945
13.4600 4.4700 0.1874
13.4800 4.4768 0.1668
13.5000 4.4834 0.1941
13.5200 4.4901 0.1899
13.5400 4.4968 0.1727
13.5600 4.5034 0.1910
13.5800 4.5100 0.1845
13.6000 4.5166 0.1741
13.6200 4.5233 0.1937
13.6400 4.5300 0.1809
13.6600 4.5367 0.1730
13.6800 4.5434 0.1928
13.7000 4.5500 0.1862
13.7200 4.5567 0.1625
13.7400 4.5633 0.1949
13.7600 4.5699 0.1878
13.7800 4.5766 0.1646
13.8000 4.5833 0.1869
13.8200 4.5900 0.1889
13.8400 4.5967 0.1659
13.8600 4.6034 0.1901
13.8800 4.6101 0.1896
13.9000 4.6167 0.1630
13.9200 4.6234 0.1863
13.9400 4.6299 0.1852
13.9600 4.6366 0.1654
13.9800 4.6433 0.1899
14.0000 4.6500 0.1849
14.0200 4.6567 0.1639
14.0400 4.6634 0.1867
14.0600 4.6700 0.1841
14.0800 4.6767 0.1721
14.1000 4.6833 0.1832
14.1200 4.6899 0.1810
14.1400 4.6965 0.1711
14.1600 4.7032 0.1844
14.1800 4.7099 0.1758
14.2000 4.7167 0.1711
14.2200 4.7234 0.1844
14.2400 4.7301 0.1750
14.2600 4.7368 0.1689
14.2800 4.7434 0.1806
14.3000 4.7500 0.1738
14.3200 4.7566 0.1814
14.3400 4.7633 0.1735
14.3600 4.7700 0.1726
14.3800 4.7767 0.1806
14.4000 4.7834 0.1742
14.4200 4.7901 0.1660
14.4400 4.7968 0.1797
14.4600 4.8034 0.1731
14.4800 4.8100 0.1712
14.5000 4.8166 0.1821
14.5200 4.8233 0.1702
14.5400 4.8300 0.1702
14.5600 4.8367 0.1828
14.5800 4.8433 0.1694
14.6000 4.8500 0.1733
14.6200 4.8567 0.1834
14.6400 4.8633 0.1650
14.6600 4.8699 0.1735
14.6800 4.8765 0.1773
14.7000 4.8832 0.1683
14.7200 4.8900 0.1740
14.7400 4.8967 0.1777
14.7600 4.9033 0.1626
14.7800 4.9100 0.1759
14.8000 4.9167 0.1763
14.8200 4.9234 0.1626
14.8400 4.9300 0.1719
14.8600 4.9366 0.1766
14.8800 4.9433 0.1610
14.9000 4.9500 0.1707
14.9200 4.9567 0.1768
14.9400 4.9634 0.1632
14.9600 4.9700 0.1698
14.9800 4.9767 0.1728
15.0000 4.9833 0.1593
15.0200 4.9900 0.1797
15.0400 4.9966 0.1733
15.0600 5.0033 0.1600
15.0800 5.0100 0.1751
15.1000 5.0167 0.1690
15.1200 5.0234 0.1600
15.1400 5.0301 0.1747
15.1600 5.0368 0.1680
15.1800 5.0434 0.1629
15.2000 5.0500 0.1758
15.2200 5.0566 0.1626
15.2400 5.0633 0.1658
15.2600 5.0700 0.1781
15.2800 5.0767 0.1647
15.3000 5.0834 0.1629
15.3200 5.0900 0.1753
15.3400 5.0967 0.1626
15.3600 5.1034 0.1634
15.3800 5.1100 0.1623
15.4000 5.1166 0.1690
15.4200 5.1232 0.1632
15.4400 5.1299 0.1662
15.4600 5.1366 0.1658
15.4800 5.1433 0.1599
15.5000 5.1500 0.1640
15.5200 5.1567 0.1683
15.5400 5.1633 0.1599
15.5600 5.1699 0.1627
15.5800 5.1766 0.1715
15.6000 5.1833 0.1607
15.6200 5.1900 0.1580
15.6400 5.1967 0.1686
15.6600 5.2034 0.1578
15.6800 5.2101 0.1637
15.7000 5.2168 0.1686
15.7200 5.2234 0.1487
15.7400 5.2300 0.1629
15.7600 5.2366 0.1713
15.7800 5.2433 0.1546
15.8000 5.2500 0.1573
15.8200 5.2567 0.1713
15.8400 5.2634 0.1504
15.8600 5.2701 0.1610
15.8800 5.2768 0.1703
15.9000 5.2834 0.1474
15.9200 5.2900 0.1626
15.9400 5.2966 0.1735
15.9600 5.3032 0.1436
15.9800 5.3100 0.1626
16.0000 5.3167 0.1688
16.0200 5.3234 0.1491
16.0400 5.3300 0.1574
16.0600 5.3367 0.1689
16.0800 5.3434 0.1519
16.1000 5.3500 0.1577
16.1200 5.3566 0.1647
16.1400 5.3633 0.1536
16.1600 5.3700 0.1585
16.1800 5.3767 0.1588
16.2000 5.3834 0.1516
16.2200 5.3900 0.1582
16.2400 5.3967 0.1597
16.2600 5.4034 0.1524
16.2800 5.4100 0.1509
16.3000 5.4166 0.1629
16.3200 5.4233 0.1587
16.3400 5.4300 0.1451
16.3600 5.4367 0.1638
16.3800 5.4434 0.1562
16.4000 5.4501 0.1471
16.4200 5.4568 0.1648
16.4400 5.4634 0.1547
16.4600 5.4700 0.1454
16.4800 5.4766 0.1667
16.5000 5.4832 0.1514
16.5200 5.4900 0.1466
16.5400 5.4966 0.1637
16.5600 5.5033 0.1487
16.5800 5.5099 0.1456
16.6000 5.5166 0.1672
16.6200 5.5233 0.1446
16.6400 5.5300 0.1511
16.6600 5.5366 0.1642
16.6800 5.5433 0.1440
16.7000 5.5500 0.1505
16.7200 5.5567 0.1625
16.7400 5.5634 0.1431
16.7600 5.5700 0.1550
16.7800 5.5767 0.1612
16.8000 5.5834 0.1403
16.8200 5.5900 0.1490
16.8400 5.5966 0.1599
16.8600 5.6033 0.1491
16.8800 5.6099 0.1474
16.9000 5.6166 0.1573
16.9200 5.6233 0.1494
16.9400 5.6300 0.1496
16.9600 5.6367 0.1555
16.9800 5.6434 0.1489
17.0000 5.6500 0.1452
17.0200 5.6566 0.1602
17.0400 5.6633 0.1457
17.0600 5.6700 0.1522
17.0800 5.6767 0.1560
17.1000 5.6834 0.1458
17.1200 5.6901 0.1499
17.1400 5.6967 0.1568
17.1600 5.7034 0.1443
17.1800 5.7100 0.1478
17.2000 5.7166 0.1552
17.2200 5.7233 0.1489
17.2400 5.7300 0.1490
17.2600 5.7367 0.1524
17.2800 5.7434 0.1494
17.3000 5.7501 0.1471
17.3200 5.7568 0.1505
17.3400 5.7634 0.1472
17.3600 5.7700 0.1428
17.3800 5.7766 0.1518
17.4000 5.7832 0.1490
17.4200 5.7899 0.1430
17.4400 5.7967 0.1479
17.4600 5.8034 0.1457
17.4800 5.8101 0.1467
17.5000 5.8168 0.1496
17.5200 5.8234 0.1457
17.5400 5.8300 0.1406
17.5600 5.8366 0.1567
17.5800 5.8432 0.1425
17.6000 5.8499 0.1405
17.6200 5.8567 0.1533
17.6400 5.8633 0.1472
17.6600 5.8700 0.1404
17.6800 5.8767 0.1543
17.7000 5.8834 0.1316
17.7200 5.8900 0.1435
17.7400 5.8966 0.1514
17.7600 5.9033 0.1400
17.7800 5.9100 0.1441
17.8000 5.9167 0.1470
17.8200 5.9234 0.1381
17.8400 5.9301 0.1427
17.8600 5.9368 0.1491
17.8800 5.9435 0.1348
17.9000 5.9501 0.1471
17.9200 5.9567 0.1437
17.9400 5.9633 0.1334
17.9600 5.9700 0.1494
17.9800 5.9767 0.1460
18.0000 5.9834 0.1309
18.0200 5.9901 0.1489
18.0400 5.9968 0.1405
18.0600 6.0034 0.1341
18.0800 6.0100 0.1475
18.1000 6.0166 0.1405
18.1200 6.0232 0.1356
18.1400 6.0299 0.1546
18.1600 6.0366 0.1315
18.1800 6.0433 0.1362
18.2000 6.0500 0.1522
18.2200 6.0567 0.1355
18.2400 6.0634 0.1383
18.2600 6.0700 0.1498
18.2800 6.0766 0.1288
18.3000 6.0833 0.1393
18.3200 6.0900 0.1484
18.3400 6.0967 0.1295
18.3600 6.1033 0.1415
18.3800 6.1100 0.1456
18.4000 6.1167 0.1291
18.4200 6.1234 0.1423
18.4400 6.1300 0.1428
18.4600 6.1366 0.1267
18.4800 6.1433 0.1421
18.5000 6.1500 0.1447
18.5200 6.1567 0.1324
18.5400 6.1634 0.1429
18.5600 6.1701 0.1465
18.5800 6.1768 0.1267
18.6000 6.1834 0.1451
18.6200 6.1900 0.1404
18.6400 6.1966 0.1273
18.6600 6.2033 0.1401
18.6800 6.2100 0.1453
18.7000 6.2167 0.1261
18.7200 6.2234 0.1414
18.7400 6.2301 0.1413
18.7600 6.2367 0.1278
18.7800 6.2434 0.1431
18.8000 6.2500 0.1366
18.8200 6.2567 0.1286
18.8400 6.2633 0.1448
18.8600 6.2700 0.1367
18.8800 6.2767 0.1279
18.9000 6.2833 0.1393
18.9200 6.2900 0.1364
18.9400 6.2967 0.1262
18.9600 6.3034 0.1382
18.9800 6.3100 0.1370
19.0000 6.3166 0.1321
19.0200 6.3232 0.1383
19.0400 6.3299 0.1333
19.0600 6.3366 0.1341
19.0800 6.3433 0.1342
19.1000 6.3500 0.1347
19.1200 6.3567 0.1295
19.1400 6.3634 0.1336
19.1600 6.3700 0.1308
19.1800 6.3766 0.1308
19.2000 6.3833 0.1337
19.2200 6.3900 0.1381
19.2400 6.3967 0.1264
19.2600 6.4034 0.1300
19.2800 6.4101 0.1375
19.3000 6.4167 0.1263
19.3200 6.4234 0.1261
19.3400 6.4300 0.1330
19.3600 6.4366 0.1277
19.3800 6.4433 0.1338
19.4000 6.4499 0.1307
19.4200 6.4566 0.1213
19.4400 6.4633 0.1393
19.4600 6.4700 0.1343
19.4800 6.4767 0.1159
19.5000 6.4834 0.1338
19.5200 6.4901 0.1322
19.5400 6.4966 0.1184
19.5600 6.5032 0.1343
19.5800 6.5099 0.1338
19.6000 6.5166 0.1211
19.6200 6.5233 0.1281
19.6400 6.5300 0.1397
19.6600 6.5367 0.1153
19.6800 6.5434 0.1260
19.7000 6.5500 0.1392
19.7200 6.5566 0.1172
19.7400 6.5632 0.1276
19.7600 6.5699 0.1412
19.7800 6.5766 0.1114
19.8000 6.5833 0.1326
19.8200 6.5900 0.1377
19.8400 6.5967 0.1075
19.8600 6.6033 0.1337
19.8800 6.6100 0.1352
19.9000 6.6166 0.1030
19.9200 6.6233 0.1371
19.9400 6.6299 0.1347
19.9600 6.6367 0.1048
19.9800 6.6434 0.1361
20.0000 6.6501 0.1327
20.0200 6.6568 0.1024
20.0400 6.6635 0.1360
20.0600 6.6701 0.1285
20.0800 6.6767 0.1043
20.1000 6.6833 0.1425
20.1200 6.6899 0.1263
20.1400 6.6967 0.1054
20.1600 6.7034 0.1363
20.1800 6.7101 0.1289
20.2000 6.7168 0.1085
20.2200 6.7234 0.1348
20.2400 6.7301 0.1203
20.2600 6.7366 0.1121
20.2800 6.7433 0.1327
20.3000 6.7499 0.1199
20.3200 6.7566 0.1133
20.3400 6.7633 0.1309
20.3600 6.7700 0.1213
20.3800 6.7767 0.1131
20.4000 6.7834 0.1268
20.4200 6.7900 0.1265
20.4400 6.7966 0.1099
20.4600 6.8032 0.1234
20.4800 6.8099 0.1271
20.5000 6.8166 0.1157
20.5200 6.8233 0.1193
20.5400 6.8300 0.1263
20.5600 6.8367 0.1141
20.5800 6.8434 0.1150
20.6000 6.8501 0.1286
20.6200 6.8567 0.1103
20.6400 6.8633 0.1181
20.6600 6.8700 0.1319
20.6800 6.8767 0.1116
20.7000 6.8834 0.1175
20.7200 6.8901 0.1313
20.7400 6.8968 0.1097
20.7600 6.9034 0.1180
20.7800 6.9101 0.1277
20.8000 6.9167 0.1096
20.8200 6.9233 0.1165
20.8400 6.9299 0.1268
20.8600 6.9367 0.1086
20.8800 6.9434 0.1210
20.9000 6.9501 0.1205
20.9200 6.9567 0.1075
20.9400 6.9634 0.1235
20.9600 6.9701 0.1219
20.9800 6.9767 0.1054
21.0000 6.9833 0.1237
21.0200 6.9900 0.1233
21.0400 6.9966 0.1068
21.0600 7.0033 0.1208
21.0800 7.0100 0.1206
21.1000 7.0167 0.1077
21.1200 7.0234 0.1199
21.1400 7.0301 0.1187
21.1600 7.0366 0.1083
21.1800 7.0432 0.1180
21.2000 7.0499 0.1164
21.2200 7.0566 0.1119
21.2400 7.0633 0.1151
21.2600 7.0700 0.1142
21.2800 7.0767 0.1158
21.3000 7.0834 0.1179
21.3200 7.0900 0.1101
21.3400 7.0966 0.1161
21.3600 7.1033 0.1156
21.3800 7.1099 0.1129
21.4000 7.1166 0.1089
21.4200 7.1233 0.1108
21.4400 7.1300 0.1168
21.4600 7.1367 0.1123
21.4800 7.1434 0.1085
21.5000 7.1501 0.1158
21.5200 7.1567 0.1120
21.5400 7.1633 0.1077
21.5600 7.1699 0.1136
21.5800 7.1766 0.1160
21.6000 7.1833 0.1071
21.6200 7.1900 0.1134
21.6400 7.1967 0.1102
21.6600 7.2034 0.1036
21.6800 7.2101 0.1187
21.7000 7.2167 0.1062
21.7200 7.2233 0.1011
21.7400 7.2299 0.1211
21.7600 7.2366 0.1088
21.7800 7.2434 0.0988
21.8000 7.2501 0.1219
21.8200 7.2567 0.1061
21.8400 7.2634 0.1017
21.8600 7.2700 0.1157
21.8800 7.2766 0.1106
21.9000 7.2832 0.1039
21.9200 7.2899 0.1171
21.9400 7.2966 0.1026
21.9600 7.3033 0.1055
21.9800 7.3100 0.1137
22.0000 7.3167 0.1076
22.0200 7.3233 0.1027
22.0400 7.3300 0.1122
22.0600 7.3367 0.1074
22.0800 7.3433 0.1060
22.1000 7.3499 0.1086
22.1200 7.3566 0.1087
22.1400 7.3633 0.1047
22.1600 7.3700 0.1064
22.1800 7.3767 0.1105
22.2000 7.3834 0.1005
22.2200 7.3901 0.1053
22.2400 7.3967 0.1101
22.2600 7.4033 0.1003
22.2800 7.4099 0.1103
22.3000 7.4166 0.1061
22.3200 7.4234 0.0988
22.3400 7.4301 0.1073
22.3600 7.4367 0.1048
22.3800 7.4434 0.1033
22.4000 7.4501 0.1006
22.4200 7.4567 0.1110
22.4400 7.4633 0.0955
22.4600 7.4699 0.1054
22.4800 7.4766 0.1112
22.5000 7.4833 0.0980
22.5200 7.4900 0.1012
22.5400 7.4967 0.1113
22.5600 7.5034 0.0962
22.5800 7.5101 0.0992
22.6000 7.5167 0.1107
22.6200 7.5233 0.0994
22.6400 7.5299 0.1012
22.6600 7.5366 0.1087
22.6800 7.5433 0.0943
22.7000 7.5500 0.1044
22.7200 7.5567 0.1064
22.7400 7.5634 0.0955
22.7600 7.5701 0.1054
22.7800 7.5767 0.1023
22.8000 7.5833 0.0915
22.8200 7.5899 0.1027
22.8400 7.5966 0.1056
22.8600 7.6033 0.0924
22.8800 7.6100 0.1060
22.9000 7.6167 0.1003
22.9200 7.6234 0.0924
22.9400 7.6301 0.1036
22.9600 7.6367 0.0963
22.9800 7.6433 0.0924
23.0000 7.6500 0.1050
23.0200 7.6566 0.0930
23.0400 7.6633 0.0936
23.0600 7.6701 0.1015
23.0800 7.6767 0.1021
23.1000 7.6834 0.0951
23.1200 7.6901 0.0951
23.1400 7.6967 0.1015
23.1600 7.7033 0.0961
23.1800 7.7099 0.0971
23.2000 7.7166 0.1029
23.2200 7.7233 0.0929
23.2400 7.7300 0.0943
23.2600 7.7367 0.1022
23.2800 7.7434 0.0890
23.3000 7.7501 0.0929
23.3200 7.7567 0.1052
23.3400 7.7633 0.0890
23.3600 7.7699 0.0911
23.3800 7.7766 0.1059
23.4000 7.7833 0.0888
23.4200 7.7900 0.0930
23.4400 7.7966 0.1004
23.4600 7.8033 0.0881
23.4800 7.8100 0.0872
23.5000 7.8167 0.1040
23.5200 7.8233 0.0861
23.5400 7.8299 0.0906
23.5600 7.8366 0.1023
23.5800 7.8433 0.0853
23.6000 7.8500 0.0933
23.6200 7.8567 0.1036
23.6400 7.8634 0.0793
23.6600 7.8701 0.0922
23.6800 7.8767 0.0989
23.7000 7.8833 0.0819
23.7200 7.8899 0.0935
23.7400 7.8966 0.0993
23.7600 7.9033 0.0821
23.7800 7.9100 0.0900
23.8000 7.9167 0.0990
23.8200 7.9234 0.0847
23.8400 7.9301 0.0921
23.8600 7.9367 0.0896
23.8800 7.9433 0.0834
23.9000 7.9500 0.0923
23.9200 7.9566 0.0925
23.9400 7.9633 0.0852
23.9600 7.9700 0.0887
23.9800 7.9767 0.0892
24.0000 7.9834 0.0915
24.0200 7.9901 0.0863
24.0400 7.9967 0.0897
24.0600 8.0033 0.0928
24.0800 8.0099 0.0875
24.1000 8.0166 0.0844
24.1200 8.0233 0.0946
24.1400 8.0300 0.0826
24.1600 8.0367 0.0905
24.1800 8.0433 0.0967
24.2000 8.0500 0.0799
24.2200 8.0566 0.0864
24.2400 8.0633 0.0946
24.2600 8.0699 0.0746
24.2800 8.0766 0.0906
24.3000 8.0833 0.0885
24.3200 8.0901 0.0726
24.3400 8.0967 0.0948
24.3600 8.1034 0.0902
24.3800 8.1101 0.0743
24.4000 8.1167 0.0908
24.4200 8.1233 0.0885
24.4400 8.1299 0.0721
24.4600 8.1366 0.0949
24.4800 8.1434 0.0874
24.5000 8.1501 0.0709
24.5200 8.1568 0.0943
24.5400 8.1634 0.0850
24.5600 8.1701 0.0755
24.5800 8.1767 0.0970
24.6000 8.1833 0.0781
24.6200 8.1899 0.0790
24.6400 8.1966 0.0945
24.6600 8.2033 0.0794
24.6800 8.2100 0.0743
24.7000 8.2167 0.0956
24.7200 8.2234 0.0767
24.7400 8.2300 0.0746
24.7600 8.2367 0.0914
24.7800 8.2433 0.0779
24.8000 8.2499 0.0775
24.8200 8.2566 0.0926
24.8400 8.2633 0.0758
24.8600 8.2700 0.0763
24.8800 8.2767 0.0860
24.9000 8.2834 0.0792
24.9200 8.2900 0.0812
24.9400 8.2967 0.0804
24.9600 8.3033 0.0754
24.9800 8.3099 0.0828
25.0000 8.3166 0.0816
25.0200 8.3233 0.0740
25.0400 8.3300 0.0825
25.0600 8.3367 0.0822
25.0800 8.3434 0.0798
25.1000 8.3501 0.0803
25.1200 8.3567 0.0806
25.1400 8.3633 0.0795
25.1600 8.3700 0.0820
25.1800 8.3766 0.0795
25.2000 8.3833 0.0781
25.2200 8.3900 0.0796
25.2400 8.3967 0.0800
25.2600 8.4034 0.0728
25.2800 8.4101 0.0809
25.3000 8.4167 0.0763
25.3200 8.4233 0.0803
25.3400 8.4299 0.0768
25.3600 8.4366 0.0743
25.3800 8.4433 0.0805
25.4000 8.4500 0.0781
25.4200 8.4567 0.0696
25.4400 8.4634 0.0831
25.4600 8.4701 0.0788
25.4800 8.4767 0.0708
25.5000 8.4833 0.0815
25.5200 8.4899 0.0771
25.5400 8.4965 0.0721
25.5600 8.5032 0.0852
25.5800 8.5099 0.0698
25.6000 8.5166 0.0636
25.6200 8.5233 0.0925
25.6400 8.5300 0.0696
25.6600 8.5367 0.0645
25.6800 8.5433 0.0865
25.7000 8.5499 0.0705
25.7200 8.5566 0.0685
25.7400 8.5633 0.0855
25.7600 8.5700 0.0663
25.7800 8.5767 0.0698
25.8000 8.5834 0.0803
25.8200 8.5901 0.0692
25.8400 8.5968 0.0695
25.8600 8.6034 0.0804
25.8800 8.6100 0.0709
25.9000 8.6166 0.0743
25.9200 8.6233 0.0751
25.9400 8.6301 0.0742
25.9600 8.6367 0.0697
25.9800 8.6434 0.0646
26.0000 8.6501 0.0768
26.0200 8.6567 0.0701
26.0400 8.6634 0.0662
26.0600 8.6700 0.0773
26.0800 8.6766 0.0703
26.1000 8.6833 0.0666
26.1200 8.6900 0.0775
26.1400 8.6966 0.0648
26.1600 8.7033 0.0707
26.1800 8.7100 0.0742
26.2000 8.7167 0.0603
26.2200 8.7233 0.0695
26.2400 8.7299 0.0819
26.2600 8.7365 0.0545
26.2800 8.7432 0.0705
26.3000 8.7500 0.0793
26.3200 8.7567 0.0510
26.3400 8.7633 0.0742
26.3600 8.7700 0.0787
26.3800 8.7767 0.0478
26.4000 8.7833 0.0710
26.4200 8.7899 0.0759
26.4400 8.7966 0.0554
26.4600 8.8033 0.0714
26.4800 8.8100 0.0714
26.5000 8.8167 0.0476
26.5200 8.8234 0.0752
26.5400 8.8301 0.0693
26.5600 8.8368 0.0520
26.5800 8.8434 0.0765
26.6000 8.8500 0.0649
26.6200 8.8566 0.0524
26.6400 8.8633 0.0780
26.6600 8.8700 0.0672
26.6800 8.8767 0.0521
26.7000 8.8834 0.0741
26.7200 8.8901 0.0604
26.7400 8.8968 0.0551
26.7600 8.9034 0.0747
26.7800 8.9100 0.0643
26.8000 8.9166 0.0527
26.8200 8.9233 0.0768
26.8400 8.9300 0.0597
26.8600 8.9367 0.0550
26.8800 8.9434 0.0710
26.9000 8.9500 0.0656
26.9200 8.9567 0.0478
26.9400 8.9633 0.0678
26.9600 8.9699 0.0661
26.9800 8.9766 0.0493
27.0000 8.9833 0.0708
27.0200 8.9900 0.0638
27.0400 8.9967 0.0500
27.0600 9.0033 0.0744
27.0800 9.0100 0.0618
27.1000 9.0167 0.0513
27.1200 9.0233 0.0698
27.1400 9.0300 0.0637
27.1600 9.0366 0.0516
27.1800 9.0433 0.0651
27.2000 9.0500 0.0638
27.2200 9.0567 0.0480
27.2400 9.0634 0.0628
27.2600 9.0701 0.0612
27.2800 9.0768 0.0533
27.3000 9.0834 0.0610
27.3200 9.0900 0.0614
27.3400 9.0966 0.0553
27.3600 9.1033 0.0620
27.3800 9.1100 0.0628
27.4000 9.1167 0.0532
27.4200 9.1234 0.0576
27.4400 9.1301 0.0668
27.4600 9.1367 0.0504
27.4800 9.1434 0.0579
27.5000 9.1500 0.0659
27.5200 9.1566 0.0530
27.5400 9.1633 0.0592
27.5600 9.1700 0.0662
27.5800 9.1767 0.0473
27.6000 9.1834 0.0564
27.6200 9.1900 0.0732
27.6400 9.1967 0.0456
27.6600 9.2034 0.0575
27.6800 9.2099 0.0679
27.7000 9.2166 0.0408
27.7200 9.2232 0.0642
27.7400 9.2299 0.0685
27.7600 9.2366 0.0403
27.7800 9.2433 0.0641
27.8000 9.2500 0.0649
27.8200 9.2567 0.0445
27.8400 9.2633 0.0598
27.8600 9.2700 0.0618
27.8800 9.2766 0.0449
27.9000 9.2833 0.0635
27.9200 9.2900 0.0566
27.9400 9.2967 0.0485
27.9600 9.3034 0.0638
27.9800 9.3101 0.0577
28.0000 9.3168 0.0440
28.0200 9.3234 0.0616
28.0400 9.3300 0.0548
28.0600 9.3366 0.0469
28.0800 9.3433 0.0581
28.1000 9.3500 0.0517
28.1200 9.3567 0.0455
28.1400 9.3634 0.0553
28.1600 9.3700 0.0526
28.1800 9.3767 0.0448
28.2000 9.3834 0.0532
28.2200 9.3900 0.0541
28.2400 9.3966 0.0449
28.2600 9.4032 0.0476
28.2800 9.4100 0.0578
28.3000 9.4167 0.0488
28.3200 9.4234 0.0453
28.3400 9.4300 0.0530
28.3600 9.4367 0.0492
28.3800 9.4434 0.0429
28.4000 9.4500 0.0585
28.4200 9.4566 0.0514
28.4400 9.4633 0.0392
28.4600 9.4700 0.0562
28.4800 9.4767 0.0513
28.5000 9.4834 0.0397
28.5200 9.4900 0.0615
28.5400 9.4967 0.0441
28.5600 9.5033 0.0389
28.5800 9.5100 0.0603
28.6000 9.5166 0.0441
28.6200 9.5233 0.0388
28.6400 9.5300 0.0639
28.6600 9.5367 0.0422
28.6800 9.5434 0.0392
28.7000 9.5501 0.0598
28.7200 9.5568 0.0369
28.7400 9.5634 0.0433
28.7600 9.5700 0.0604
28.7800 9.5766 0.0391
28.8000 9.5833 0.0405
28.8200 9.5900 0.0563
28.8400 9.5967 0.0372
28.8600 9.6034 0.0445
28.8800 9.6101 0.0520
28.9000 9.6168 0.0395
28.9200 9.6234 0.0468
28.9400 9.6300 0.0527
28.9600 9.6366 0.0367
28.9800 9.6432 0.0510
29.0000 9.6499 0.0488
29.0200 9.6566 0.0403
29.0400 9.6633 0.0492
29.0600 9.6700 0.0446
29.0800 9.6767 0.0377
29.1000 9.6834 0.0524
29.1200 9.6900 0.0399
29.1400 9.6966 0.0407
29.1600 9.7033 0.0532
29.1800 9.7100 0.0347
29.2000 9.7167 0.0427
29.2200 9.7233 0.0549
29.2400 9.7300 0.0341
29.2600 9.7367 0.0483
29.2800 9.7434 0.0425
29.3000 9.7500 0.0360
29.3200 9.7566 0.0515
29.3400 9.7633 0.0407
29.3600 9.7700 0.0373
29.3800 9.7767 0.0535
29.4000 9.7834 0.0433
29.4200 9.7901 0.0352
29.4400 9.7968 0.0567
29.4600 9.8034 0.0351
29.4800 9.8100 0.0375
29.5000 9.8166 0.0532
29.5200 9.8233 0.0366
29.5400 9.8300 0.0393
29.5600 9.8367 0.0500
29.5800 9.8434 0.0322
29.6000 9.8501 0.0392
29.6200 9.8567 0.0468
29.6400 9.8634 0.0322
29.6600 9.8700 0.0411
29.6800 9.8766 0.0511
29.7000 9.8833 0.0311
29.7200 9.8900 0.0407
29.7400 9.8967 0.0461
29.7600 9.9033 0.0310
29.7800 9.9100 0.0401
29.8000 9.9167 0.0498
29.8200 9.9234 0.0306
29.8400 9.9300 0.0362
29.8600 9.9366 0.0473
29.8800 9.9432 0.0370
29.9000 9.9499 0.0398
29.9200 9.9566 0.0430
29.9400 9.9633 0.0332
29.9600 9.9700 0.0360
29.9800 9.9767 0.0428
30.0000 9.9833 0.0258
30.0200 9.9899 0.0362
30.0400 9.9966 0.0440
30.0600 10.0033 0.0327
30.0800 10.0100 0.0312
30.1000 10.0167 0.0455
30.1200 10.0234 0.0299
30.1400 10.0301 0.0354
30.1600 10.0367 0.0429
30.1800 10.0434 0.0263
30.2000 10.0500 0.0311
30.2200 10.0567 0.0456
30.2400 10.0633 0.0284
30.2600 10.0700 0.0284
30.2800 10.0767 0.0433
30.3000 10.0834 0.0296
30.3200 10.0901 0.0289
30.3400 10.0967 0.0448
30.3600 10.1034 0.0267
30.3800 10.1100 0.0309
30.4000 10.1166 0.0421
30.4200 10.1232 0.0245
30.4400 10.1299 0.0329
30.4600 10.1367 0.0417
30.4800 10.1433 0.0232
30.5000 10.1500 0.0281
30.5200 10.1567 0.0411
30.5400 10.1633 0.0195
30.5600 10.1700 0.0309
30.5800 10.1766 0.0391
30.6000 10.1833 0.0249
30.6200 10.1900 0.0287
30.6400 10.1967 0.0328
30.6600 10.2034 0.0239
30.6800 10.2100 0.0288
30.7000 10.2167 0.0317
30.7200 10.2234 0.0309
30.7400 10.2300 0.0257
30.7600 10.2367 0.0339
30.7800 10.2433 0.0292
30.8000 10.2500 0.0244
30.8200 10.2567 0.0312
30.8400 10.2634 0.0318
30.8600 10.2700 0.0249
30.8800 10.2767 0.0310
30.9000 10.2834 0.0284
30.9200 10.2900 0.0219
30.9400 10.2966 0.0349
30.9600 10.3033 0.0271
30.9800 10.3100 0.0177
31.0000 10.3167 0.0385
31.0200 10.3234 0.0235
31.0400 10.3301 0.0190
31.0600 10.3367 0.0386
31.0800 10.3434 0.0179
31.1000 10.3500 0.0223
31.1200 10.3566 0.0389
31.1400 10.3632 0.0251
31.1600 10.3699 0.0224
31.1800 10.3767 0.0379
31.2000 10.3834 0.0178
31.2200 10.3900 0.0224
31.2400 10.3967 0.0335
31.2600 10.4034 0.0173
31.2800 10.4100 0.0231
31.3000 10.4166 0.0326
31.3200 10.4233 0.0198
31.3400 10.4299 0.0250
31.3600 10.4366 0.0314
31.3800 10.4433 0.0236
31.4000 10.4500 0.0189
31.4200 10.4567 0.0292
31.4400 10.4634 0.0248
31.4600 10.4700 0.0176
31.4800 10.4766 0.0285
31.5000 10.4833 0.0263
31.5200 10.4900 0.0212
31.5400 10.4967 0.0242
31.5600 10.5034 0.0260
31.5800 10.5101 0.0159
31.6000 10.5167 0.0276
31.6200 10.5234 0.0247
31.6400 10.5300 0.0136
31.6600 10.5367 0.0301
31.6800 10.5433 0.0274
31.7000 10.5500 0.0180
31.7200 10.5567 0.0318
31.7400 10.5634 0.0223
31.7600 10.5701 0.0161
31.7800 10.5768 0.0283
31.8000 10.5834 0.0280
31.8200 10.5900 0.0103
31.8400 10.5967 0.0295
31.8600 10.6033 0.0266
31.8800 10.6099 0.0077
31.9000 10.6167 0.0305
31.9200 10.6234 0.0266
31.9400 10.6300 0.0074
31.9600 10.6367 0.0303
31.9800 10.6434 0.0227
32.0000 10.6500 0.0087
32.0200 10.6566 0.0308
32.0400 10.6632 0.0184
32.0600 10.6699 0.0133
32.0800 10.6767 0.0274
32.1000 10.6834 0.0181
32.1200 10.6900 0.0135
32.1400 10.6967 0.0312
32.1600 10.7034 0.0125
32.1800 10.7100 0.0129
32.2000 10.7166 0.0244
32.2200 10.7233 0.0153
32.2400 10.7300 0.0146
32.2600 10.7367 0.0221
32.2800 10.7434 0.0119
32.3000 10.7501 0.0166
32.3200 10.7568 0.0149
32.3400 10.7635 0.0135
32.3600 10.7701 0.0185
32.3800 10.7767 0.0154
32.4000 10.7833 0.0126
32.4200 10.7900 0.0234
32.4400 10.7967 0.0123
32.4600 10.8034 0.0085
32.4800 10.8101 0.0200
32.5000 10.8167 0.0121
32.5200 10.8234 0.0103
32.5400 10.8300 0.0173
32.5600 10.8366 0.0072
32.5800 10.8432 0.0148
32.6000 10.8499 0.0209
32.6200 10.8567 0.0053
32.6400 10.8634 0.0173
32.6600 10.8700 0.0166
32.6800 10.8767 0.0020
32.7000 10.8834 0.0168
32.7200 10.8900 0.0163
32.7400 10.8966 0.0036
32.7600 10.9033 0.0218
32.7800 10.9099 0.0097
32.8000 10.9167 -0.0010
32.8200 10.9233 0.0204
32.8400 10.9300 0.0119
32.8600 10.9367 -0.0023
32.8800 10.9434 0.0216
32.9000 10.9500 0.0054
32.9200 10.9567 -0.0035
32.9400 10.9633 0.0240
32.9600 10.9699 0.0050
32.9800 10.9766 -0.0002
33.0000 10.9833 0.0215
33.0200 10.9900 -0.0006
33.0400 10.9967 0.0054
33.0600 11.0034 0.0176
33.0800 11.0101 -0.0003
33.1000 11.0167 0.0039
33.1200 11.0233 0.0150
33.1400 11.0299 0.0048
33.1600 11.0367 0.0003
33.1800 11.0434 0.0115
33.2000 11.0501 0.0032
33.2200 11.0568 0.0042
33.2400 11.0634 0.0062
33.2600 11.0701 0.0029
33.2800 11.0767 0.0031
33.3000 11.0833 0.0105
33.3200 11.0899 0.0010
33.3400 11.0967 0.0036
33.3600 11.1033 0.0071
33.3800 11.1100 0.0066
33.4000 11.1167 -0.0016
33.4200 11.1234 0.0093
33.4400 11.1300 0.0044
33.4600 11.1366 -0.0005
33.4800 11.1432 0.0080
33.5000 11.1499 0.0047
33.5200 11.1566 0.0019
33.5400 11.1633 0.0020
33.5600 11.1700 0.0034
33.5800 11.1767 -0.0006
33.6000 11.1834 0.0048
33.6200 11.1900 0.0041
33.6400 11.1966 0.0007
33.6600 11.2033 0.0060
33.6800 11.2100 0.0060
33.7000 11.2167 0.0016
33.7200 11.2234 -0.0007
33.7400 11.2301 0.0067
33.7600 11.2368 0.0038
33.7800 11.2434 -0.0039
33.8000 11.2501 0.0072
33.8200 11.2567 -0.0036
33.8400 11.2633 0.0029
33.8600 11.2699 0.0050
33.8800 11.2766 -0.0038
33.9000 11.2833 -0.0023
33.9200 11.2900 0.0086
33.9400 11.2967 -0.0100
33.9600 11.3034 -0.0010
33.9800 11.3101 0.0072
34.0000 11.3167 -0.0069
34.0200 11.3233 0.0004
34.0400 11.3299 0.0095
34.0600 11.3366 -0.0058
34.0800 11.3433 -0.0069
34.1000 11.3500 0.0090
34.1200 11.3567 -0.0044
34.1400 11.3634 -0.0054
34.1600 11.3701 0.0010
34.1800 11.3766 -0.0076
34.2000 11.3832 -0.0003
34.2200 11.3899 0.0032
34.2400 11.3966 -0.0104
34.2600 11.4033 0.0010
34.2800 11.4100 0.0037
34.3000 11.4167 -0.0092
34.3200 11.4234 -0.0033
34.3400 11.4300 0.0056
34.3600 11.4366 -0.0102
34.3800 11.4433 -0.0050
34.4000 11.4499 0.0023
34.4200 11.4567 -0.0091
34.4400 11.4634 -0.0074
34.4600 11.4700 0.0016
34.4800 11.4767 -0.0126
34.5000 11.4834 -0.0012
34.5200 11.4901 0.0017
34.5400 11.4967 -0.0138
34.5600 11.5033 -0.0042
34.5800 11.5099 0.0030
34.6000 11.5167 -0.0167
34.6200 11.5234 -0.0057
34.6400 11.5301 0.0008
34.6600 11.5367 -0.0166
34.6800 11.5434 -0.0030
34.7000 11.5501 -0.0029
34.7200 11.5566 -0.0134
34.7400 11.5632 -0.0058
34.7600 11.5699 0.0003
34.7800 11.5766 -0.0137
34.8000 11.5833 -0.0083
34.8200 11.5900 0.0000
34.8400 11.5967 -0.0108
34.8600 11.6033 -0.0088
34.8800 11.6100 -0.0035
34.9000 11.6166 -0.0125
34.9200 11.6232 -0.0089
34.9400 11.6299 -0.0053
34.9600 11.6366 -0.0059
34.9800 11.6433 -0.0152
35.0000 11.6500 -0.0013
35.0200 11.6567 -0.0120
35.0400 11.6634 -0.0149
35.0600 11.6701 -0.0010
35.0800 11.6767 -0.0125
35.1000 11.6833 -0.0147
35.1200 11.6899 0.0038
35.1400 11.6967 -0.0138
35.1600 11.7034 -0.0182
35.1800 11.7100 -0.0003
35.2000 11.7167 -0.0128
35.2200 11.7234 -0.0186
35.2400 11.7301 -0.0005
35.2600 11.7367 -0.0161
35.2800 11.7433 -0.0168
35.3000 11.7499 -0.0027
35.3200 11.7566 -0.0193
35.3400 11.7634 -0.0090
35.3600 11.7700 -0.0027
35.3800 11.7767 -0.0222
35.4000 11.7834 -0.0116
35.4200 11.7901 -0.0014
35.4400 11.7967 -0.0207
35.4600 11.8033 -0.0131
35.4800 11.8100 -0.0033
35.5000 11.8167 -0.0183
35.5200 11.8234 -0.0126
35.5400 11.8300 -0.0053
35.5600 11.8367 -0.0211
35.5800 11.8434 -0.0050
35.6000 11.8501 -0.0163
35.6200 11.8567 -0.0200
35.6400 11.8632 -0.0041
35.6600 11.8699 -0.0130
35.6800 11.8766 -0.0184
35.7000 11.8833 -0.0074
35.7200 11.8900 -0.0171
35.7400 11.8967 -0.0154
35.7600 11.9034 -0.0081
35.7800 11.9100 -0.0167
35.8000 11.9167 -0.0130
35.8200 11.9233 -0.0107
35.8400 11.9299 -0.0197
35.8600 11.9366 -0.0121
35.8800 11.9433 -0.0119
35.9000 11.9500 -0.0195
35.9200 11.9567 -0.0087
35.9400 11.9634 -0.0120
35.9600 11.9701 -0.0218
35.9800 11.9767 -0.0117
36.0000 11.9833 -0.0144
36.0200 11.9900 -0.0231
36.0400 11.9966 -0.0080
36.0600 12.0033 -0.0181
36.0800 12.0100 -0.0173
36.1000 12.0167 -0.0132
36.1200 12.0234 -0.0211
36.1400 12.0301 -0.0185
36.1600 12.0367 -0.0099
36.1800 12.0433 -0.0244
36.2000 12.0499 -0.0160
36.2200 12.0566 -0.0097
36.2400 12.0633 -0.0277
36.2600 12.0700 -0.0190
36.2800 12.0767 -0.0116
36.3000 12.0834 -0.0246
36.3200 12.0900 -0.0154
36.3400 12.0967 -0.0160
36.3600 12.1033 -0.0233
36.3800 12.1099 -0.0144
36.4000 12.1166 -0.0169
36.4200 12.1233 -0.0236
36.4400 12.1300 -0.0152
36.4600 12.1366 -0.0180
36.4800 12.1433 -0.0273
36.5000 12.1500 -0.0126
36.5200 12.1567 -0.0166
36.5400 12.1633 -0.0235
36.5600 12.1700 -0.0203
36.5800 12.1766 -0.0159
36.6000 12.1834 -0.0245
36.6200 12.1901 -0.0226
36.6400 12.1967 -0.0199
36.6600 12.2034 -0.0229
36.6800 12.2101 -0.0224
36.7000 12.2167 -0.0176
36.7200 12.2233 -0.0207
36.7400 12.2300 -0.0211
36.7600 12.2367 -0.0184
36.7800 12.2434 -0.0208
36.8000 12.2501 -0.0253
36.8200 12.2567 -0.0157
36.8400 12.2634 -0.0258
36.8600 12.2700 -0.0222
36.8800 12.2767 -0.0152
36.9000 12.2833 -0.0296
36.9200 12.2899 -0.0205
36.9400 12.2966 -0.0176
36.9600 12.3033 -0.0233
36.9800 12.3100 -0.0202
37.0000 12.3167 -0.0221
37.0200 12.3234 -0.0288
37.0400 12.3301 -0.0162
37.0600 12.3367 -0.0230
37.0800 12.3433 -0.0241
37.1000 12.3499 -0.0181
37.1200 12.3566 -0.0211
37.1400 12.3633 -0.0228
37.1600 12.3700 -0.0154
37.1800 12.3767 -0.0290
37.2000 12.3834 -0.0242
37.2200 12.3901 -0.0173
37.2400 12.3967 -0.0289
37.2600 12.4033 -0.0210
37.2800 12.4099 -0.0190
37.3000 12.4166 -0.0295
37.3200 12.4233 -0.0191
37.3400 12.4300 -0.0258
37.3600 12.4367 -0.0279
37.3800 12.4434 -0.0153
37.4000 12.4501 -0.0282
37.4200 12.4567 -0.0332
37.4400 12.4634 -0.0182
37.4600 12.4700 -0.0240
37.4800 12.4766 -0.0286
37.5000 12.4833 -0.0194
37.5200 12.4900 -0.0287
37.5400 12.4967 -0.0286
37.5600 12.5034 -0.0236
37.5800 12.5101 -0.0299
37.6000 12.5167 -0.0257
37.6200 12.5233 -0.0255
37.6400 12.5299 -0.0337
37.6600 12.5366 -0.0220
37.6800 12.5433 -0.0263
37.7000 12.5500 -0.0306
37.7200 12.5567 -0.0286
37.7400 12.5634 -0.0273
37.7600 12.5700 -0.0357
37.7800 12.5767 -0.0251
37.8000 12.5833 -0.0263
37.8200 12.5899 -0.0327
37.8400 12.5965 -0.0283
37.8600 12.6033 -0.0270
37.8800 12.6100 -0.0334
37.9000 12.6167 -0.0291
37.9200 12.6233 -0.0237
37.9400 12.6300 -0.0321
37.9600 12.6367 -0.0344
37.9800 12.6433 -0.0309
38.0000 12.6499 -0.0274
38.0200 12.6566 -0.0308
38.0400 12.6633 -0.0331
38.0600 12.6700 -0.0315
38.0800 12.6767 -0.0289
38.1000 12.6834 -0.0350
38.1200 12.6901 -0.0355
38.1400 12.6968 -0.0313
38.1600 12.7033 -0.0352
38.1800 12.7099 -0.0360
38.2000 12.7166 -0.0304
38.2200 12.7233 -0.0385
38.2400 12.7300 -0.0350
38.2600 12.7367 -0.0336
38.2800 12.7434 -0.0354
38.3000 12.7501 -0.0380
38.3200 12.7567 -0.0314
38.3400 12.7633 -0.0379
38.3600 12.7699 -0.0314
38.3800 12.7766 -0.0368
38.4000 12.7833 -0.0340
38.4200 12.7900 -0.0347
38.4400 12.7967 -0.0384
38.4600 12.8034 -0.0385
38.4800 12.8100 -0.0352
38.5000 12.8167 -0.0422
38.5200 12.8233 -0.0365
38.5400 12.8299 -0.0356
38.5600 12.8366 -0.0370
38.5800 12.8433 -0.0351
38.6000 12.8500 -0.0368
38.6200 12.8566 -0.0398
38.6400 12.8633 -0.0337
38.6600 12.8700 -0.0386
38.6800 12.8766 -0.0441
38.7000 12.8833 -0.0332
38.7200 12.8899 -0.0389
38.7400 12.8966 -0.0418
38.7600 12.9033 -0.0428
38.7800 12.9100 -0.0387
38.8000 12.9167 -0.0410
38.8200 12.9234 -0.0368
38.8400 12.9301 -0.0451
38.8600 12.9367 -0.0407
38.8800 12.9433 -0.0399
38.9000 12.9499 -0.0410
38.9200 12.9566 -0.0413
38.9400 12.9633 -0.0358
38.9600 12.9701 -0.0466
38.9800 12.9767 -0.0435
39.0000 12.9834 -0.0417
39.0200 12.9901 -0.0414
39.0400 12.9967 -0.0445
39.0600 13.0034 -0.0426
39.0800 13.0100 -0.0437
39.1000 13.0166 -0.0459
39.1200 13.0233 -0.0349
39.1400 13.0300 -0.0460
39.1600 13.0367 -0.0506
39.1800 13.0433 -0.0370
39.2000 13.0500 -0.0464
39.2200 13.0567 -0.0482
39.2400 13.0633 -0.0381
39.2600 13.0699 -0.0413
39.2800 13.0766 -0.0449
39.3000 13.0833 -0.0431
39.3200 13.0900 -0.0424
39.3400 13.0967 -0.0494
39.3600 13.1034 -0.0396
39.3800 13.1101 -0.0447
39.4000 13.1167 -0.0553
39.4200 13.1233 -0.0439
39.4400 13.1300 -0.0418
39.4600 13.1366 -0.0541
39.4800 13.1433 -0.0412
39.5000 13.1500 -0.0444
39.5200 13.1567 -0.0524
39.5400 13.1634 -0.0446
39.5600 13.1701 -0.0432
39.5800 13.1767 -0.0545
39.6000 13.1833 -0.0451
39.6200 13.1899 -0.0468
39.6400 13.1966 -0.0536
39.6600 13.2033 -0.0448
39.6800 13.2100 -0.0475
39.7000 13.2167 -0.0497
39.7200 13.2234 -0.0450
39.7400 13.2301 -0.0491
39.7600 13.2367 -0.0507
39.7800 13.2433 -0.0459
39.8000 13.2499 -0.0465
39.8200 13.2566 -0.0450
39.8400 13.2633 -0.0497
39.8600 13.2700 -0.0505
39.8800 13.2767 -0.0492
39.9000 13.2834 -0.0498
39.9200 13.2901 -0.0509
39.9400 13.2967 -0.0460
39.9600 13.3033 -0.0529
39.9800 13.3099 -0.0493
40.0000 13.3166 -0.0507
40.0200 13.3233 -0.0507
40.0400 13.3300 -0.0529
40.0600 13.3366 -0.0506
40.0800 13.3433 -0.0567
40.1000 13.3500 -0.0527
40.1200 13.3567 -0.0487
40.1400 13.3633 -0.0543
40.1600 13.3699 -0.0519
40.1800 13.3766 -0.0503
40.2000 13.3833 -0.0559
40.2200 13.3900 -0.0519
40.2400 13.3967 -0.0522
40.2600 13.4034 -0.0548
40.2800 13.4101 -0.0509
40.3000 13.4168 -0.0542
40.3200 13.4234 -0.0545
40.3400 13.4300 -0.0517
40.3600 13.4366 -0.0489
40.3800 13.4433 -0.0524
40.4000 13.4500 -0.0516
40.4200 13.4567 -0.0604
40.4400 13.4634 -0.0510
40.4600 13.4701 -0.0460
40.4800 13.4767 -0.0599
40.5000 13.4833 -0.0581
40.5200 13.4899 -0.0438
40.5400 13.4966 -0.0608
40.5600 13.5033 -0.0570
40.5800 13.5100 -0.0493
40.6000 13.5166 -0.0565
40.6200 13.5233 -0.0578
40.6400 13.5300 -0.0479
40.6600 13.5367 -0.0659
40.6800 13.5434 -0.0571
40.7000 13.5500 -0.0467
40.7200 13.5566 -0.0685
40.7400 13.5633 -0.0549
40.7600 13.5700 -0.0468
40.7800 13.5766 -0.0638
40.8000 13.5833 -0.0529
40.8200 13.5900 -0.0531
40.8400 13.5967 -0.0676
40.8600 13.6033 -0.0500
40.8800 13.6099 -0.0577
40.9000 13.6166 -0.0656
40.9200 13.6233 -0.0497
40.9400 13.6300 -0.0564
40.9600 13.6367 -0.0672
40.9800 13.6434 -0.0562
41.0000 13.6501 -0.0576
41.0200 13.6568 -0.0616
41.0400 13.6634 -0.0611
41.0600 13.6700 -0.0583
41.0800 13.6767 -0.0608
41.1000 13.6833 -0.0546
41.1200 13.6900 -0.0665
41.1400 13.6967 -0.0586
41.1600 13.7034 -0.0573
41.1800 13.7101 -0.0668
41.2000 13.7168 -0.0577
41.2200 13.7234 -0.0648
41.2400 13.7300 -0.0640
41.2600 13.7366 -0.0542
41.2800 13.7433 -0.0689
41.3000 13.7500 -0.0624
41.3200 13.7567 -0.0553
41.3400 13.7634 -0.0704
41.3600 13.7700 -0.0661
41.3800 13.7767 -0.0521
41.4000 13.7833 -0.0640
41.4200 13.7899 -0.0679
41.4400 13.7965 -0.0543
41.4600 13.8032 -0.0666
41.4800 13.8100 -0.0654
41.5000 13.8167 -0.0600
41.5200 13.8234 -0.0702
41.5400 13.8300 -0.0626
41.5600 13.8367 -0.0577
41.5800 13.8434 -0.0756
41.6000 13.8500 -0.0593
41.6200 13.8566 -0.0570
41.6400 13.8633 -0.0765
41.6600 13.8700 -0.0674
41.6800 13.8767 -0.0533
41.7000 13.8834 -0.0729
41.7200 13.8901 -0.0645
41.7400 13.8968 -0.0670
41.7600 13.9034 -0.0720
41.7800 13.9099 -0.0585
41.8000 13.9166 -0.0664
41.8200 13.9233 -0.0675
41.8400 13.9300 -0.0603
41.8600 13.9367 -0.0777
41.8800 13.9434 -0.0671
41.9000 13.9501 -0.0509
41.9200 13.9568 -0.0728
41.9400 13.9634 -0.0736
41.9600 13.9700 -0.0590
41.9800 13.9766 -0.0618
42.0000 13.9833 -0.0749
42.0200 13.9900 -0.0645
42.0400 13.9967 -0.0692
42.0600 14.0034 -0.0699
42.0800 14.0100 -0.0655
42.1000 14.0167 -0.0726
42.1200 14.0234 -0.0718
42.1400 14.0300 -0.0658
42.1600 14.0366 -0.0785
42.1800 14.0432 -0.0676
42.2000 14.0499 -0.0637
42.2200 14.0566 -0.0769
42.2400 14.0633 -0.0788
42.2600 14.0700 -0.0621
42.2800 14.0767 -0.0724
42.3000 14.0834 -0.0806
42.3200 14.0900 -0.0648
42.3400 14.0966 -0.0736
42.3600 14.1033 -0.0796
42.3800 14.1100 -0.0644
42.4000 14.1167 -0.0738
42.4200 14.1234 -0.0801
42.4400 14.1301 -0.0720
42.4600 14.1368 -0.0749
42.4800 14.1434 -0.0757
42.5000 14.1500 -0.0702
42.5200 14.1566 -0.0756
42.5400 14.1633 -0.0815
42.5600 14.1700 -0.0727
42.5800 14.1767 -0.0814
42.6000 14.1834 -0.0761
42.6200 14.1900 -0.0729
42.6400 14.1967 -0.0795
42.6600 14.2034 -0.0852
42.6800 14.2100 -0.0668
42.7000 14.2166 -0.0807
42.7200 14.2233 -0.0841
42.7400 14.2300 -0.0665
42.7600 14.2367 -0.0788
42.7800 14.2434 -0.0889
42.8000 14.2501 -0.0713
42.8200 14.2568 -0.0754
42.8400 14.2634 -0.0855
42.8600 14.2700 -0.0784
42.8800 14.2766 -0.0734
42.9000 14.2832 -0.0843
42.9200 14.2900 -0.0805
42.9400 14.2967 -0.0797
42.9600 14.3034 -0.0863
42.9800 14.3100 -0.0721
43.0000 14.3167 -0.0795
43.0200 14.3233 -0.0946
43.0400 14.3300 -0.0678
43.0600 14.3366 -0.0756
43.0800 14.3433 -0.1000
43.1000 14.3500 -0.0633
43.1200 14.3567 -0.0777
43.1400 14.3634 -0.1009
43.1600 14.3701 -0.0684
43.1800 14.3767 -0.0747
43.2000 14.3834 -0.1006
43.2200 14.3900 -0.0677
43.2400 14.3966 -0.0784
43.2600 14.4033 -0.0940
43.2800 14.4100 -0.0694
43.3000 14.4167 -0.0833
43.3200 14.4234 -0.0866
43.3400 14.4301 -0.0650
43.3600 14.4368 -0.0933
43.3800 14.4434 -0.0892
43.4000 14.4500 -0.0670
43.4200 14.4566 -0.0906
43.4400 14.4633 -0.0855
43.4600 14.4700 -0.0710
43.4800 14.4767 -0.0899
43.5000 14.4833 -0.0832
43.5200 14.4900 -0.0763
43.5400 14.4967 -0.0858
43.5600 14.5033 -0.0842
43.5800 14.5099 -0.0845
43.6000 14.5166 -0.0853
43.6200 14.5232 -0.0789
43.6400 14.5300 -0.0788
43.6600 14.5367 -0.0855
43.6800 14.5433 -0.0802
43.7000 14.5500 -0.0864
43.7200 14.5567 -0.0787
43.7400 14.5634 -0.0835
43.7600 14.5700 -0.0936
43.7800 14.5766 -0.0821
43.8000 14.5833 -0.0757
43.8200 14.5900 -0.0965
43.8400 14.5967 -0.0811
43.8600 14.6034 -0.0777
43.8800 14.6101 -0.0924
43.9000 14.6168 -0.0833
43.9200 14.6234 -0.0806
43.9400 14.6300 -0.0895
43.9600 14.6366 -0.0813
43.9800 14.6433 -0.0822
44.0000 14.6500 -0.0833
44.0200 14.6567 -0.0874
44.0400 14.6634 -0.0884
44.0600 14.6701 -0.0893
44.0800 14.6767 -0.0828
44.1000 14.6834 -0.0796
44.1200 14.6900 -0.0907
44.1400 14.6966 -0.0817
44.1600 14.7032 -0.0829
44.1800 14.7099 -0.0860
44.2000 14.7166 -0.0917
44.2200 14.7233 -0.0852
44.2400 14.7300 -0.0853
44.2600 14.7367 -0.0947
44.2800 14.7434 -0.0849
44.3000 14.7500 -0.0897
44.3200 14.7566 -0.0908
44.3400 14.7632 -0.0785
44.3600 14.7699 -0.0900
44.3800 14.7766 -0.0873
44.4000 14.7833 -0.0858
44.4200 14.7900 -0.0903
44.4400 14.7967 -0.0889
44.4600 14.8033 -0.0849
44.4800 14.8100 -0.0956
44.5000 14.8166 -0.0840
44.5200 14.8233 -0.0890
44.5400 14.8300 -0.0965
44.5600 14.8367 -0.0899
44.5800 14.8434 -0.0856
44.6000 14.8501 -0.0961
44.6200 14.8567 -0.0898
44.6400 14.8634 -0.0809
44.6600 14.8700 -0.0968
44.6800 14.8767 -0.0871
44.7000 14.8833 -0.0833
44.7200 14.8900 -0.1032
44.7400 14.8967 -0.0883
44.7600 14.9034 -0.0895
44.7800 14.9101 -0.1064
44.8000 14.9168 -0.0797
44.8200 14.9234 -0.0914
44.8400 14.9300 -0.1042
44.8600 14.9366 -0.0814
44.8800 14.9432 -0.0878
44.9000 14.9499 -0.1028
44.9200 14.9566 -0.0792
44.9400 14.9633 -0.0958
44.9600 14.9700 -0.1023
44.9800 14.9767 -0.0836
45.0000 14.9833 -0.0968
45.0200 14.9900 -0.0950
45.0400 14.9966 -0.0864
45.0600 15.0033 -0.1042
45.0800 15.0100 -0.0933
45.1000 15.0167 -0.0883
45.1200 15.0234 -0.1006
45.1400 15.0300 -0.0912
45.1600 15.0367 -0.0937
45.1800 15.0434 -0.0983
45.2000 15.0500 -0.0911
45.2200 15.0567 -0.0948
45.2400 15.0633 -0.1017
45.2600 15.0700 -0.0945
45.2800 15.0767 -0.1030
45.3000 15.0834 -0.0890
45.3200 15.0901 -0.0935
45.3400 15.0968 -0.1073
45.3600 15.1034 -0.0882
45.3800 15.1101 -0.0950
45.4000 15.1166 -0.1130
45.4200 15.1233 -0.0825
45.4400 15.1300 -0.0939
45.4600 15.1367 -0.1150
45.4800 15.1434 -0.0872
45.5000 15.1501 -0.0926
45.5200 15.1567 -0.1123
45.5400 15.1634 -0.0858
45.5600 15.1700 -0.1023
45.5800 15.1766 -0.1113
45.6000 15.1832 -0.0829
45.6200 15.1899 -0.1018
45.6400 15.1967 -0.1082
45.6600 15.2034 -0.0869
45.6800 15.2100 -0.1017
45.7000 15.2167 -0.1077
45.7200 15.2234 -0.0898
45.7400 15.2300 -0.1037
45.7600 15.2366 -0.0988
45.7800 15.2433 -0.0879
45.8000 15.2499 -0.1085
45.8200 15.2566 -0.0993
45.8400 15.2633 -0.0934
45.8600 15.2700 -0.1057
45.8800 15.2767 -0.0962
45.9000 15.2834 -0.1035
45.9200 15.2900 -0.1077
45.9400 15.2966 -0.0981
45.9600 15.3033 -0.0943
45.9800 15.3100 -0.1050
46.0000 15.3167 -0.1002
46.0200 15.3234 -0.1009
46.0400 15.3301 -0.1064
46.0600 15.3367 -0.1036
46.0800 15.3434 -0.0942
46.1000 15.3500 -0.1085
46.1200 15.3566 -0.1039
46.1400 15.3633 -0.0976
46.1600 15.3700 -0.1079
46.1800 15.3767 -0.1048
46.2000 15.3834 -0.0971
46.2200 15.3901 -0.1131
46.2400 15.3967 -0.1047
46.2600 15.4034 -0.0944
46.2800 15.4101 -0.1177
46.3000 15.4167 -0.1013
46.3200 15.4233 -0.0940
46.3400 15.4299 -0.1204
46.3600 15.4366 -0.1037
46.3800 15.4434 -0.0948
46.4000 15.4500 -0.1208
46.4200 15.4567 -0.0945
46.4400 15.4634 -0.1023
46.4600 15.4700 -0.1259
46.4800 15.4766 -0.0970
46.5000 15.4832 -0.1015
46.5200 15.4899 -0.1208
46.5400 15.4966 -0.0977
46.5600 15.5033 -0.1063
46.5800 15.5100 -0.1239
46.6000 15.5167 -0.0985
46.6200 15.5233 -0.1041
46.6400 15.5300 -0.1199
46.6600 15.5366 -0.0998
46.6800 15.5433 -0.1110
46.7000 15.5500 -0.1096
46.7200 15.5567 -0.1054
46.7400 15.5634 -0.1132
46.7600 15.5700 -0.1155
46.7800 15.5767 -0.1042
46.8000 15.5834 -0.1130
46.8200 15.5901 -0.1165
46.8400 15.5967 -0.1049
46.8600 15.6033 -0.1139
46.8800 15.6100 -0.1159
46.9000 15.6167 -0.1107
46.9200 15.6234 -0.1130
46.9400 15.6301 -0.1151
46.9600 15.6367 -0.1101
46.9800 15.6434 -0.1134
47.0000 15.6500 -0.1129
47.0200 15.6566 -0.1115
47.0400 15.6632 -0.1148
47.0600 15.6699 -0.1183
47.0800 15.6767 -0.1065
47.1000 15.6834 -0.1210
47.1200 15.6900 -0.1189
47.1400 15.6967 -0.1042
47.1600 15.7034 -0.1205
47.1800 15.7100 -0.1181
47.2000 15.7166 -0.1095
47.2200 15.7233 -0.1234
47.2400 15.7300 -0.1139
47.2600 15.7367 -0.1140
47.2800 15.7434 -0.1254
47.3000 15.7500 -0.1167
47.3200 15.7567 -0.1122
47.3400 15.7634 -0.1217
47.3600 15.7700 -0.1167
47.3800 15.7766 -0.1137
47.4000 15.7833 -0.1243
47.4200 15.7899 -0.1154
47.4400 15.7966 -0.1161
47.4600 15.8033 -0.1207
47.4800 15.8101 -0.1170
47.5000 15.8167 -0.1107
47.5200 15.8234 -0.1261
47.5400 15.8301 -0.1156
47.5600 15.8367 -0.1144
47.5800 15.8433 -0.1167
47.6000 15.8499 -0.1170
47.6200 15.8567 -0.1146
47.6400 15.8634 -0.1205
47.6600 15.8701 -0.1135
47.6800 15.8767 -0.1160
47.7000 15.8834 -0.1216
47.7200 15.8901 -0.1166
47.7400 15.8967 -0.1180
47.7600 15.9033 -0.1179
47.7800 15.9100 -0.1168
47.8000 15.9167 -0.1198
47.8200 15.9234 -0.1168
47.8400 15.9300 -0.1184
47.8600 15.9367 -0.1176
47.8800 15.9434 -0.1158
47.9000 15.9500 -0.1199
47.9200 15.9566 -0.1203
47.9400 15.9632 -0.1192
47.9600 15.9699 -0.1172
47.9800 15.9766 -0.1254
48.0000 15.9833 -0.1181
48.0200 15.9900 -0.1208
48.0400 15.9967 -0.1278
48.0600 16.0034 -0.1243
48.0800 16.0101 -0.1054
48.1000 16.0167 -0.1174
48.1200 16.0233 -0.1272
48.1400 16.0300 -0.1177
48.1600 16.0367 -0.1194
48.1800 16.0434 -0.1294
48.2000 16.0501 -0.1162
48.2200 16.0568 -0.1211
48.2400 16.0634 -0.1250
48.2600 16.0701 -0.1205
48.2800 16.0767 -0.1209
48.3000 16.0833 -0.1258
48.3200 16.0899 -0.1207
48.3400 16.0966 -0.1253
48.3600 16.1033 -0.1271
48.3800 16.1100 -0.1191
48.4000 16.1167 -0.1263
48.4200 16.1234 -0.1227
48.4400 16.1301 -0.1133
48.4600 16.1367 -0.1295
48.4800 16.1433 -0.1297
48.5000 16.1499 -0.1140
48.5200 16.1566 -0.1291
48.5400 16.1633 -0.1282
48.5600 16.1700 -0.1150
48.5800 16.1767 -0.1310
48.6000 16.1834 -0.1300
48.6200 16.1901 -0.1147
48.6400 16.1967 -0.1342
48.6600 16.2032 -0.1225
48.6800 16.2099 -0.1210
48.7000 16.2166 -0.1291
48.7200 16.2233 -0.1260
48.7400 16.2300 -0.1188
48.7600 16.2367 -0.1324
48.7800 16.2434 -0.1270
48.8000 16.2500 -0.1239
48.8200 16.2567 -0.1309
48.8400 16.2633 -0.1277
48.8600 16.2699 -0.1166
48.8800 16.2766 -0.1324
48.9000 16.2833 -0.1260
48.9200 16.2900 -0.1213
48.9400 16.2967 -0.1341
48.9600 16.3034 -0.1263
48.9800 16.3101 -0.1198
49.0000 16.3167 -0.1378
49.0200 16.3233 -0.1230
49.0400 16.3299 -0.1241
49.0600 16.3366 -0.1377
49.0800 16.3434 -0.1200
49.1000 16.3501 -0.1294
49.1200 16.3567 -0.1376
49.1400 16.3634 -0.1213
49.1600 16.3700 -0.1272
49.1800 16.3766 -0.1376
49.2000 16.3833 -0.1234
49.2200 16.3899 -0.1295
49.2400 16.3966 -0.1345
49.2600 16.4033 -0.1255
49.2800 16.4100 -0.1340
49.3000 16.4167 -0.1341
49.3200 16.4233 -0.1199
49.3400 16.4300 -0.1407
49.3600 16.4366 -0.1320
49.3800 16.4432 -0.1273
49.4000 16.4499 -0.1352
49.4200 16.4566 -0.1361
49.4400 16.4633 -0.1323
49.4600 16.4700 -0.1315
49.4800 16.4767 -0.1332
49.5000 16.4834 -0.1418
49.5200 16.4901 -0.1321
49.5400 16.4967 -0.1294
49.5600 16.5033 -0.1451
49.5800 16.5099 -0.1322
49.6000 16.5166 -0.1264
49.6200 16.5234 -0.1435
49.6400 16.5301 -0.1338
49.6600 16.5367 -0.1344
49.6800 16.5434 -0.1409
49.7000 16.5501 -0.1282
49.7200 16.5567 -0.1398
49.7400 16.5633 -0.1396
49.7600 16.5699 -0.1307
49.7800 16.5766 -0.1383
49.8000 16.5833 -0.1463
49.8200 16.5900 -0.1263
49.8400 16.5967 -0.1355
49.8600 16.6034 -0.1431
49.8800 16.6101 -0.1369
49.9000 16.6167 -0.1363
49.9200 16.6234 -0.1425
49.9400 16.6300 -0.1321
49.9600 16.6367 -0.1352
49.9800 16.6433 -0.1485
50.0000 16.6500 -0.1387
50.0200 16.6567 -0.1337
50.0400 16.6634 -0.1442
50.0600 16.6701 -0.1357
50.0800 16.6767 -0.1369
50.1000 16.6833 -0.1478
50.1200 16.6899 -0.1354
50.1400 16.6966 -0.1342
50.1600 16.7033 -0.1480
50.1800 16.7100 -0.1377
50.2000 16.7167 -0.1409
50.2200 16.7234 -0.1531
50.2400 16.7300 -0.1299
50.2600 16.7367 -0.1419
50.2800 16.7433 -0.1503
50.3000 16.7499 -0.1334
50.3200 16.7566 -0.1396
50.3400 16.7633 -0.1510
50.3600 16.7700 -0.1348
50.3800 16.7767 -0.1445
50.4000 16.7834 -0.1454
50.4200 16.7901 -0.1368
50.4400 16.7967 -0.1495
50.4600 16.8033 -0.1472
50.4800 16.8099 -0.1346
50.5000 16.8166 -0.1546
50.5200 16.8233 -0.1405
50.5400 16.8301 -0.1354
50.5600 16.8367 -0.1536
50.5800 16.8434 -0.1427
50.6000 16.8501 -0.1404
50.6200 16.8567 -0.1499
50.6400 16.8633 -0.1442
50.6600 16.8699 -0.1397
50.6800 16.8766 -0.1532
50.7000 16.8834 -0.1480
50.7200 16.8901 -0.1437
50.7400 16.8967 -0.1492
50.7600 16.9034 -0.1448
50.7800 16.9100 -0.1474
50.8000 16.9167 -0.1518
50.8200 16.9233 -0.1445
50.8400 16.9299 -0.1452
50.8600 16.9366 -0.1439
50.8800 16.9433 -0.1494
50.9000 16.9500 -0.1505
50.9200 16.9566 -0.1513
50.9400 16.9633 -0.1438
50.9600 16.9700 -0.1473
50.9800 16.9767 -0.1518
51.0000 16.9833 -0.1491
51.0200 16.9899 -0.1437
51.0400 16.9966 -0.1551
51.0600 17.0033 -0.1466
51.0800 17.0100 -0.1399
51.1000 17.0167 -0.1572
51.1200 17.0234 -0.1538
51.1400 17.0301 -0.1437
51.1600 17.0367 -0.1572
51.1800 17.0433 -0.1499
51.2000 17.0499 -0.1404
51.2200 17.0566 -0.1618
51.2400 17.0633 -0.1571
51.2600 17.0700 -0.1425
51.2800 17.0767 -0.1563
51.3000 17.0834 -0.1531
51.3200 17.0900 -0.1447
51.3400 17.0967 -0.1643
51.3600 17.1033 -0.1486
51.3800 17.1099 -0.1446
51.4000 17.1166 -0.1606
51.4200 17.1233 -0.1516
51.4400 17.1300 -0.1487
51.4600 17.1367 -0.1636
51.4800 17.1434 -0.1480
51.5000 17.1501 -0.1514
51.5200 17.1567 -0.1603
51.5400 17.1633 -0.1527
51.5600 17.1699 -0.1502
51.5800 17.1766 -0.1596
51.6000 17.1833 -0.1507
51.6200 17.1900 -0.1531
51.6400 17.1967 -0.1614
51.6600 17.2034 -0.1470
51.6800 17.2101 -0.1576
51.7000 17.2167 -0.1631
51.7200 17.2233 -0.1494
51.7400 17.2299 -0.1576
51.7600 17.2366 -0.1599
51.7800 17.2433 -0.1577
51.8000 17.2500 -0.1595
51.8200 17.2567 -0.1525
51.8400 17.2634 -0.1594
51.8600 17.2701 -0.1610
51.8800 17.2767 -0.1585
51.9000 17.2834 -0.1581
51.9200 17.2900 -0.1621
51.9400 17.2966 -0.1541
51.9600 17.3033 -0.1617
51.9800 17.3100 -0.1606
52.0000 17.3167 -0.1556
52.0200 17.3234 -0.1623
52.0400 17.3301 -0.1624
52.0600 17.3368 -0.1559
52.0800 17.3433 -0.1659
52.1000 17.3499 -0.1588
52.1200 17.3566 -0.1583
52.1400 17.3633 -0.1642
52.1600 17.3700 -0.1548
52.1800 17.3767 -0.1618
52.2000 17.3834 -0.1723
52.2200 17.3901 -0.1538
52.2400 17.3967 -0.1671
52.2600 17.4033 -0.1729
52.2800 17.4099 -0.1486
52.3000 17.4166 -0.1689
52.3200 17.4233 -0.1729
52.3400 17.4300 -0.1522
52.3600 17.4366 -0.1710
52.3800 17.4433 -0.1665
52.4000 17.4500 -0.1536
52.4200 17.4567 -0.1757
52.4400 17.4633 -0.1613
52.4600 17.4699 -0.1544
52.4800 17.4766 -0.1738
52.5000 17.4833 -0.1633
52.5200 17.4900 -0.1581
52.5400 17.4967 -0.1772
52.5600 17.5034 -0.1595
52.5800 17.5101 -0.1646
52.6000 17.5168 -0.1745
52.6200 17.5234 -0.1620
52.6400 17.5300 -0.1639
52.6600 17.5366 -0.1729
52.6800 17.5433 -0.1607
52.7000 17.5500 -0.1698
52.7200 17.5567 -0.1727
52.7400 17.5634 -0.1617
52.7600 17.5701 -0.1676
52.7800 17.5767 -0.1717
52.8000 17.5833 -0.1694
52.8200 17.5899 -0.1720
52.8400 17.5966 -0.1658
52.8600 17.6033 -0.1691
52.8800 17.6100 -0.1767
52.9000 17.6167 -0.1678
52.9200 17.6234 -0.1705
52.9400 17.6300 -0.1706
52.9600 17.6367 -0.1715
52.9800 17.6433 -0.1745
53.0000 17.6499 -0.1739
53.0200 17.6566 -0.1662
53.0400 17.6633 -0.1762
53.0600 17.6700 -0.1734
53.0800 17.6767 -0.1682
53.1000 17.6833 -0.1787
53.1200 17.6900 -0.1734
53.1400 17.6967 -0.1667
53.1600 17.7033 -0.1797
53.1800 17.7099 -0.1743
53.2000 17.7166 -0.1766
53.2200 17.7233 -0.1797
53.2400 17.7300 -0.1716
53.2600 17.7367 -0.1734
53.2800 17.7434 -0.1798
53.3000 17.7501 -0.1758
53.3200 17.7567 -0.1791
53.3400 17.7633 -0.1802
53.3600 17.7700 -0.1738
53.3800 17.7766 -0.1733
53.4000 17.7833 -0.1748
53.4200 17.7901 -0.1800
53.4400 17.7968 -0.1794
53.4600 17.8034 -0.1706
53.4800 17.8101 -0.1788
53.5000 17.8167 -0.1795
53.5200 17.8233 -0.1710
53.5400 17.8300 -0.1822
53.5600 17.8366 -0.1723
53.5800 17.8433 -0.1749
53.6000 17.8500 -0.1815
53.6200 17.8567 -0.1716
53.6400 17.8633 -0.1772
53.6600 17.8700 -0.1885
53.6800 17.8767 -0.1726
53.7000 17.8833 -0.1812
53.7200 17.8899 -0.1823
53.7400 17.8966 -0.1704
53.7600 17.9033 -0.1816
53.7800 17.9100 -0.1823
53.8000 17.9167 -0.1721
53.8200 17.9233 -0.1867
53.8400 17.9300 -0.1832
53.8600 17.9367 -0.1712
53.8800 17.9433 -0.1885
53.9000 17.9500 -0.1819
53.9200 17.9566 -0.1708
53.9400 17.9633 -0.1891
53.9600 17.9700 -0.1727
53.9800 17.9767 -0.1735
54.0000 17.9834 -0.1939
54.0200 17.9901 -0.1713
54.0400 17.9967 -0.1767
54.0600 18.0034 -0.1885
54.0800 18.0100 -0.1736
54.1000 18.0166 -0.1811
54.1200 18.0233 -0.1911
54.1400 18.0300 -0.1740
54.1600 18.0367 -0.1869
54.1800 18.0434 -0.1854
54.2000 18.0501 -0.1768
54.2200 18.0568 -0.1871
54.2400 18.0634 -0.1872
54.2600 18.0700 -0.1782
54.2800 18.0766 -0.1879
54.3000 18.0833 -0.1777
54.3200 18.0900 -0.1852
54.3400 18.0967 -0.1895
54.3600 18.1034 -0.1771
54.3800 18.1101 -0.1877
54.4000 18.1167 -0.1890
54.4200 18.1233 -0.1765
54.4400 18.1299 -0.1882
54.4600 18.1366 -0.1872
54.4800 18.1433 -0.1785
54.5000 18.1500 -0.1924
54.5200 18.1566 -0.1819
54.5400 18.1633 -0.1819
54.5600 18.1700 -0.1943
54.5800 18.1767 -0.1778
54.6000 18.1833 -0.1856
54.6200 18.1899 -0.1944
54.6400 18.1966 -0.1727
54.6600 18.2033 -0.1894
54.6800 18.2100 -0.1973
54.7000 18.2167 -0.1816
54.7200 18.2234 -0.1902
54.7400 18.2301 -0.1942
54.7600 18.2368 -0.1762
54.7800 18.2434 -0.1963
54.8000 18.2500 -0.1958
54.8200 18.2566 -0.1796
54.8400 18.2633 -0.1944
54.8600 18.2700 -0.1947
54.8800 18.2767 -0.1796
54.9000 18.2834 -0.1931
54.9200 18.2901 -0.1961
54.9400 18.2967 -0.1848
54.9600 18.3034 -0.1884
54.9800 18.3100 -0.1967
55.0000 18.3166 -0.1823
55.0200 18.3233 -0.1921
55.0400 18.3300 -0.1993
55.0600 18.3367 -0.1830
55.0800 18.3433 -0.1902
55.1000 18.3500 -0.1974
55.1200 18.3567 -0.1899
55.1400 18.3633 -0.1845
55.1600 18.3699 -0.2018
55.1800 18.3765 -0.1867
55.2000 18.3832 -0.1839
55.2200 18.3899 -0.2046
55.2400 18.3966 -0.1918
55.2600 18.4033 -0.1841
55.2800 18.4100 -0.2007
55.3000 18.4167 -0.1907
55.3200 18.4233 -0.1920
55.3400 18.4299 -0.2044
55.3600 18.4366 -0.1880
55.3800 18.4433 -0.1837
55.4000 18.4500 -0.2040
55.4200 18.4567 -0.1928
55.4400 18.4634 -0.1911
55.4600 18.4701 -0.2006
55.4800 18.4768 -0.1932
55.5000 18.4834 -0.1937
55.5200 18.4900 -0.2009
55.5400 18.4967 -0.1923
55.5600 18.5033 -0.1951
55.5800 18.5100 -0.2011
55.6000 18.5167 -0.1887
55.6200 18.5234 -0.1956
55.6400 18.5301 -0.2038
55.6600 18.5368 -0.1953
55.6800 18.5434 -0.1922
55.7000 18.5500 -0.2069
55.7200 18.5566 -0.1949
55.7400 18.5633 -0.1925
55.7600 18.5700 -0.2007
55.7800 18.5767 -0.1970
55.8000 18.5834 -0.1957
55.8200 18.5900 -0.2092
55.8400 18.5967 -0.1964
55.8600 18.6034 -0.1971
55.8800 18.6100 -0.2078
55.9000 18.6166 -0.1988
55.9200 18.6232 -0.1888
55.9400 18.6300 -0.2093
55.9600 18.6367 -0.2035
55.9800 18.6433 -0.1928
56.0000 18.6500 -0.2089
56.0200 18.6567 -0.2026
56.0400 18.6634 -0.1950
56.0600 18.6700 -0.2096
56.0800 18.6766 -0.1992
56.1000 18.6833 -0.1974
56.1200 18.6900 -0.2154
56.1400 18.6967 -0.1986
56.1600 18.7034 -0.2002
56.1800 18.7101 -0.2115
56.2000 18.7168 -0.2014
56.2200 18.7234 -0.2016
56.2400 18.7300 -0.2144
56.2600 18.7366 -0.1975
56.2800 18.7433 -0.2037
56.3000 18.7500 -0.2146
56.3200 18.7567 -0.2040
56.3400 18.7634 -0.2046
56.3600 18.7701 -0.2180
56.3800 18.7767 -0.2007
56.4000 18.7834 -0.2061
56.4200 18.7900 -0.2154
56.4400 18.7966 -0.2034
56.4600 18.8033 -0.2059
56.4800 18.8100 -0.2183
56.5000 18.8167 -0.2012
56.5200 18.8234 -0.2068
56.5400 18.8300 -0.2166
56.5600 18.8367 -0.2108
56.5800 18.8434 -0.2045
56.6000 18.8500 -0.2240
56.6200 18.8566 -0.2027
56.6400 18.8632 -0.1958
56.6600 18.8699 -0.2238
56.6800 18.8766 -0.2098
56.7000 18.8833 -0.2048
56.7200 18.8900 -0.2280
56.7400 18.8967 -0.2097
56.7600 18.9034 -0.2021
56.7800 18.9100 -0.2232
56.8000 18.9166 -0.2078
56.8200 18.9233 -0.2080
56.8400 18.9300 -0.2226
56.8600 18.9367 -0.2104
56.8800 18.9434 -0.2099
56.9000 18.9501 -0.2202
56.9200 18.9568 -0.2073
56.9400 18.9634 -0.2161
56.9600 18.9700 -0.2206
56.9800 18.9766 -0.2126
57.0000 18.9833 -0.2139
57.0200 18.9900 -0.2179
57.0400 18.9967 -0.2148
57.0600 19.0034 -0.2140
57.0800 19.0101 -0.2152
57.1000 19.0167 -0.2166
57.1200 19.0234 -0.2137
57.1400 19.0300 -0.2194
57.1600 19.0366 -0.2157
57.1800 19.0432 -0.2163
57.2000 19.0499 -0.2187
57.2200 19.0567 -0.2191
57.2400 19.0633 -0.2135
57.2600 19.0700 -0.2215
57.2800 19.0767 -0.2246
57.3000 19.0834 -0.2136
57.3200 19.0900 -0.2263
57.3400 19.0966 -0.2220
57.3600 19.1032 -0.2080
57.3800 19.1099 -0.2219
57.4000 19.1167 -0.2269
57.4200 19.1234 -0.2131
57.4400 19.1300 -0.2307
57.4600 19.1367 -0.2234
57.4800 19.1433 -0.2158
57.5000 19.1500 -0.2285
57.5200 19.1566 -0.2254
57.5400 19.1633 -0.2138
57.5600 19.1700 -0.2263
57.5800 19.1767 -0.2252
57.6000 19.1834 -0.2172
57.6200 19.1901 -0.2270
57.6400 19.1967 -0.2273
57.6600 19.2034 -0.2199
57.6800 19.2100 -0.2257
57.7000 19.2166 -0.2268
57.7200 19.2233 -0.2233
57.7400 19.2300 -0.2277
57.7600 19.2367 -0.2317
57.7800 19.2434 -0.2256
57.8000 19.2501 -0.2289
57.8200 19.2568 -0.2289
57.8400 19.2634 -0.2282
57.8600 19.2700 -0.2302
57.8800 19.2766 -0.2263
57.9000 19.2833 -0.2270
57.9200 19.2899 -0.2307
57.9400 19.2967 -0.2344
57.9600 19.3033 -0.2312
57.9800 19.3100 -0.2285
58.0000 19.3167 -0.2334
58.0200 19.3233 -0.2356
58.0400 19.3300 -0.2311
58.0600 19.3366 -0.2347
58.0800 19.3432 -0.2277
58.1000 19.3499 -0.2356
58.1200 19.3566 -0.2365
58.1400 19.3633 -0.2320
58.1600 19.3700 -0.2310
58.1800 19.3767 -0.2350
58.2000 19.3834 -0.2337
58.2200 19.3900 -0.2333
58.2400 19.3966 -0.2357
58.2600 19.4033 -0.2352
58.2800 19.4100 -0.2302
58.3000 19.4167 -0.2345
58.3200 19.4234 -0.2375
58.3400 19.4300 -0.2326
58.3600 19.4368 -0.2346
58.3800 19.4434 -0.2368
58.4000 19.4500 -0.2358
58.4200 19.4566 -0.2351
58.4400 19.4633 -0.2383
58.4600 19.4700 -0.2370
58.4800 19.4767 -0.2353
58.5000 19.4834 -0.2330
58.5200 19.4901 -0.2355
58.5400 19.4967 -0.2388
58.5600 19.5034 -0.2411
58.5800 19.5100 -0.2375
58.6000 19.5166 -0.2341
58.6200 19.5233 -0.2354
58.6400 19.5300 -0.2430
58.6600 19.5367 -0.2432
58.6800 19.5434 -0.2409
58.7000 19.5500 -0.2356
58.7200 19.5567 -0.2397
58.7400 19.5634 -0.2441
58.7600 19.5700 -0.2373
58.7800 19.5766 -0.2338
58.8000 19.5832 -0.2498
58.8200 19.5899 -0.2414
58.8400 19.5966 -0.2389
58.8600 19.6033 -0.2510
58.8800 19.6100 -0.2405
58.9000 19.6167 -0.2413
58.9200 19.6233 -0.2491
58.9400 19.6300 -0.2374
58.9600 19.6366 -0.2427
58.9800 19.6432 -0.2602
59.0000 19.6499 -0.2344
59.0200 19.6567 -0.2374
59.0400 19.6634 -0.2609
59.0600 19.6701 -0.2412
59.0800 19.6767 -0.2360
59.1000 19.6834 -0.2603
59.1200 19.6901 -0.2411
59.1400 19.6967 -0.2455
59.1600 19.7033 -0.2613
59.1800 19.7100 -0.2390
59.2000 19.7167 -0.2450
59.2200 19.7234 -0.2651
59.2400 19.7301 -0.2422
59.2600 19.7367 -0.2454
59.2800 19.7434 -0.2615
59.3000 19.7500 -0.2577
59.3010 19.7503 -0.2579
