Raw Data
Time Displacement Force
(s) (mm) (N)
0.0000 0.0000 0.2299
0.0200 0.0000 0.2396
0.0400 0.0008 0.2820
0.0600 0.0039 0.3069
0.0800 0.0094 0.2876
0.1000 0.0151 0.3025
0.1200 0.0210 0.3647
0.1400 0.0276 0.3860
0.1600 0.0350 0.4191
0.1800 0.0424 0.4681
0.2000 0.0496 0.4922
0.2200 0.0565 0.5001
0.2400 0.0632 0.5169
0.2600 0.0698 0.5024
0.2800 0.0765 0.5032
0.3000 0.0832 0.5174
0.3200 0.0899 0.5006
0.3400 0.0967 0.5062
0.3600 0.1033 0.5149
0.3800 0.1100 0.4996
0.4000 0.1166 0.5124
0.4200 0.1233 0.5176
0.4400 0.1300 0.5028
0.4600 0.1367 0.5131
0.4800 0.1434 0.5202
0.5000 0.1501 0.5061
0.5200 0.1568 0.5138
0.5400 0.1634 0.5170
0.5600 0.1700 0.5095
0.5800 0.1766 0.5169
0.6000 0.1833 0.5223
0.6200 0.1900 0.5095
0.6400 0.1967 0.5160
0.6600 0.2034 0.5193
0.6800 0.2101 0.5125
0.7000 0.2167 0.5181
0.7200 0.2234 0.5174
0.7400 0.2300 0.5173
0.7600 0.2366 0.5247
0.7800 0.2433 0.5194
0.8000 0.2500 0.5155
0.8200 0.2566 0.5264
0.8400 0.2633 0.5210
0.8600 0.2700 0.5201
0.8800 0.2767 0.5201
0.9000 0.2833 0.5231
0.9200 0.2899 0.5230
0.9400 0.2965 0.5199
0.9600 0.3032 0.5208
0.9800 0.3099 0.5270
1.0000 0.3166 0.5215
1.0200 0.3233 0.5204
1.0400 0.3300 0.5223
1.0600 0.3367 0.5235
1.0800 0.3433 0.5205
1.1000 0.3499 0.5249
1.1200 0.3566 0.5208
1.1400 0.3633 0.5222
1.1600 0.3700 0.5239
1.1800 0.3767 0.5171
1.2000 0.3834 0.5218
1.2200 0.3901 0.5257
1.2400 0.3968 0.5174
1.2600 0.4034 0.5172
1.2800 0.4100 0.5243
1.3000 0.4167 0.5149
1.3200 0.4233 0.5206
1.3400 0.4300 0.5183
1.3600 0.4367 0.5072
1.3800 0.4433 0.5217
1.4000 0.4500 0.5197
1.4200 0.4567 0.5101
1.4400 0.4633 0.5190
1.4600 0.4699 0.5139
1.4800 0.4766 0.5084
1.5000 0.4832 0.5180
1.5200 0.4899 0.5143
1.5400 0.4966 0.5053
1.5600 0.5033 0.5191
1.5800 0.5100 0.5101
1.6000 0.5167 0.5072
1.6200 0.5233 0.5136
1.6400 0.5300 0.5086
1.6600 0.5366 0.5079
1.6800 0.5433 0.5117
1.7000 0.5500 0.5056
1.7200 0.5567 0.5084
1.7400 0.5634 0.5103
1.7600 0.5700 0.5025
1.7800 0.5767 0.5028
1.8000 0.5834 0.5115
1.8200 0.5900 0.5034
1.8400 0.5966 0.5052
1.8600 0.6033 0.5074
1.8800 0.6100 0.5026
1.9000 0.6167 0.5019
1.9200 0.6233 0.5044
1.9400 0.6300 0.5057
1.9600 0.6367 0.4981
1.9800 0.6434 0.5024
2.0000 0.6500 0.5008
2.0200 0.6566 0.4984
2.0400 0.6633 0.5026
2.0600 0.6700 0.4986
2.0800 0.6767 0.4906
2.1000 0.6834 0.5040
2.1200 0.6901 0.4948
2.1400 0.6967 0.4945
2.1600 0.7034 0.4976
2.1800 0.7100 0.4959
2.2000 0.7166 0.4907
2.2200 0.7233 0.4971
2.2400 0.7300 0.4941
2.2600 0.7367 0.4868
2.2800 0.7433 0.4858
2.3000 0.7500 0.4965
2.3200 0.7567 0.4884
2.3400 0.7634 0.4904
2.3600 0.7700 0.4938
2.3800 0.7766 0.4859
2.4000 0.7832 0.4841
2.4200 0.7899 0.4989
2.4400 0.7966 0.4785
2.4600 0.8033 0.4852
2.4800 0.8100 0.5032
2.5000 0.8167 0.4768
2.5200 0.8234 0.4816
2.5400 0.8300 0.4976
2.5600 0.8366 0.4759
2.5800 0.8433 0.4843
2.6000 0.8500 0.4971
2.6200 0.8567 0.4742
2.6400 0.8634 0.4849
2.6600 0.8701 0.4943
2.6800 0.8768 0.4731
2.7000 0.8834 0.4803
2.7200 0.8900 0.4918
2.7400 0.8966 0.4777
2.7600 0.9033 0.4844
2.7800 0.9100 0.4858
2.8000 0.9167 0.4840
2.8200 0.9234 0.4803
2.8400 0.9301 0.4846
2.8600 0.9367 0.4840
2.8800 0.9434 0.4752
2.9000 0.9500 0.4806
2.9200 0.9566 0.4864
2.9400 0.9632 0.4770
2.9600 0.9699 0.4768
2.9800 0.9766 0.4816
3.0000 0.9833 0.4790
3.0200 0.9900 0.4767
3.0400 0.9967 0.4753
3.0600 1.0034 0.4739
3.0800 1.0100 0.4817
3.1000 1.0165 0.4776
3.1200 1.0232 0.4758
3.1400 1.0299 0.4818
3.1600 1.0367 0.4714
3.1800 1.0433 0.4700
3.2000 1.0500 0.4821
3.2200 1.0567 0.4741
3.2400 1.0634 0.4718
3.2600 1.0700 0.4767
3.2800 1.0766 0.4735
3.3000 1.0833 0.4713
3.3200 1.0900 0.4742
3.3400 1.0967 0.4689
3.3600 1.1034 0.4715
3.3800 1.1101 0.4753
3.4000 1.1168 0.4672
3.4200 1.1235 0.4700
3.4400 1.1301 0.4705
3.4600 1.1367 0.4669
3.4800 1.1433 0.4645
3.5000 1.1500 0.4728
3.5200 1.1567 0.4665
3.5400 1.1634 0.4633
3.5600 1.1701 0.4674
3.5800 1.1767 0.4633
3.6000 1.1834 0.4614
3.6200 1.1900 0.4704
3.6400 1.1966 0.4643
3.6600 1.2032 0.4653
3.6800 1.2100 0.4668
3.7000 1.2167 0.4576
3.7200 1.2233 0.4608
3.7400 1.2300 0.4691
3.7600 1.2367 0.4599
3.7800 1.2434 0.4586
3.8000 1.2500 0.4653
3.8200 1.2566 0.4620
3.8400 1.2633 0.4634
3.8600 1.2700 0.4609
3.8800 1.2767 0.4563
3.9000 1.2833 0.4612
3.9200 1.2900 0.4601
3.9400 1.2967 0.4552
3.9600 1.3034 0.4605
3.9800 1.3100 0.4576
4.0000 1.3166 0.4570
4.0200 1.3233 0.4572
4.0400 1.3299 0.4632
4.0600 1.3366 0.4541
4.0800 1.3433 0.4548
4.1000 1.3500 0.4597
4.1200 1.3567 0.4560
4.1400 1.3634 0.4505
4.1600 1.3700 0.4600
4.1800 1.3766 0.4507
4.2000 1.3833 0.4525
4.2200 1.3900 0.4581
4.2400 1.3967 0.4502
4.2600 1.4034 0.4483
4.2800 1.4101 0.4616
4.3000 1.4167 0.4452
4.3200 1.4234 0.4472
4.3400 1.4300 0.4587
4.3600 1.4366 0.4471
4.3800 1.4433 0.4475
4.4000 1.4500 0.4566
4.4200 1.4566 0.4458
4.4400 1.4633 0.4429
4.4600 1.4700 0.4559
4.4800 1.4767 0.4444
4.5000 1.4834 0.4438
4.5200 1.4900 0.4532
4.5400 1.4966 0.4445
4.5600 1.5032 0.4453
4.5800 1.5099 0.4480
4.6000 1.5167 0.4406
4.6200 1.5234 0.4440
4.6400 1.5300 0.4448
4.6600 1.5367 0.4387
4.6800 1.5434 0.4406
4.7000 1.5500 0.4458
4.7200 1.5566 0.4352
4.7400 1.5633 0.4446
4.7600 1.5700 0.4416
4.7800 1.5767 0.4344
4.8000 1.5834 0.4380
4.8200 1.5901 0.4410
4.8400 1.5968 0.4342
4.8600 1.6034 0.4360
4.8800 1.6100 0.4363
4.9000 1.6166 0.4363
4.9200 1.6232 0.4385
4.9400 1.6299 0.4350
4.9600 1.6366 0.4317
4.9800 1.6434 0.4351
5.0000 1.6500 0.4353
5.0200 1.6567 0.4316
5.0400 1.6634 0.4328
5.0600 1.6700 0.4310
5.0800 1.6766 0.4303
5.1000 1.6832 0.4331
5.1200 1.6899 0.4328
5.1400 1.6966 0.4282
5.1600 1.7033 0.4272
5.1800 1.7100 0.4308
5.2000 1.7167 0.4281
5.2200 1.7234 0.4280
5.2400 1.7300 0.4280
5.2600 1.7366 0.4244
5.2800 1.7432 0.4273
5.3000 1.7499 0.4287
5.3200 1.7567 0.4293
5.3400 1.7634 0.4226
5.3600 1.7700 0.4248
5.3800 1.7767 0.4249
5.4000 1.7833 0.4251
5.4200 1.7900 0.4232
5.4400 1.7966 0.4255
5.4600 1.8033 0.4219
5.4800 1.8100 0.4186
5.5000 1.8167 0.4211
5.5200 1.8234 0.4182
5.5400 1.8301 0.4226
5.5600 1.8368 0.4232
5.5800 1.8434 0.4166
5.6000 1.8501 0.4232
5.6200 1.8567 0.4216
5.6400 1.8633 0.4205
5.6600 1.8700 0.4219
5.6800 1.8767 0.4159
5.7000 1.8834 0.4166
5.7200 1.8901 0.4219
5.7400 1.8967 0.4139
5.7600 1.9034 0.4147
5.7800 1.9100 0.4179
5.8000 1.9166 0.4135
5.8200 1.9232 0.4243
5.8400 1.9299 0.4137
5.8600 1.9366 0.4075
5.8800 1.9433 0.4232
5.9000 1.9500 0.4076
5.9200 1.9566 0.4069
5.9400 1.9633 0.4218
5.9600 1.9700 0.4031
5.9800 1.9766 0.4084
6.0000 1.9832 0.4208
6.0200 1.9899 0.4073
6.0400 1.9966 0.4089
6.0600 2.0033 0.4242
6.0800 2.0100 0.3970
6.1000 2.0167 0.4089
6.1200 2.0234 0.4172
6.1400 2.0301 0.3943
6.1600 2.0367 0.4115
6.1800 2.0433 0.4147
6.2000 2.0499 0.3971
6.2200 2.0566 0.4102
6.2400 2.0634 0.4087
6.2600 2.0700 0.4014
6.2800 2.0767 0.4105
6.3000 2.0834 0.4058
6.3200 2.0900 0.3934
6.3400 2.0966 0.4141
6.3600 2.1033 0.4049
6.3800 2.1099 0.3934
6.4000 2.1167 0.4166
6.4200 2.1234 0.3995
6.4400 2.1300 0.3952
6.4600 2.1367 0.4106
6.4800 2.1434 0.4010
6.5000 2.1501 0.4031
6.5200 2.1567 0.4034
6.5400 2.1633 0.3926
6.5600 2.1699 0.4005
6.5800 2.1766 0.4040
6.6000 2.1833 0.3953
6.6200 2.1900 0.3974
6.6400 2.1967 0.4021
6.6600 2.2034 0.3965
6.6800 2.2101 0.3953
6.7000 2.2166 0.3968
6.7200 2.2232 0.4064
6.7400 2.2299 0.3982
6.7600 2.2366 0.3970
6.7800 2.2433 0.3975
6.8000 2.2500 0.3954
6.8200 2.2567 0.3949
6.8400 2.2634 0.3955
6.8600 2.2700 0.3942
6.8800 2.2766 0.4011
6.9000 2.2833 0.3953
6.9200 2.2899 0.3877
6.9400 2.2967 0.3972
6.9600 2.3034 0.4011
6.9800 2.3100 0.3889
7.0000 2.3167 0.3962
7.0200 2.3234 0.3922
7.0400 2.3301 0.3842
7.0600 2.3367 0.3959
7.0800 2.3433 0.3938
7.1000 2.3499 0.3882
7.1200 2.3566 0.3932
7.1400 2.3633 0.3887
7.1600 2.3700 0.3859
7.1800 2.3767 0.3993
7.2000 2.3834 0.3911
7.2200 2.3901 0.3794
7.2400 2.3967 0.3944
7.2600 2.4033 0.3898
7.2800 2.4099 0.3826
7.3000 2.4166 0.3964
7.3200 2.4234 0.3850
7.3400 2.4300 0.3802
7.3600 2.4367 0.3899
7.3800 2.4434 0.3854
7.4000 2.4500 0.3848
7.4200 2.4566 0.3882
7.4400 2.4632 0.3854
7.4600 2.4699 0.3845
7.4800 2.4766 0.3843
7.5000 2.4833 0.3853
7.5200 2.4900 0.3794
7.5400 2.4966 0.3903
7.5600 2.5033 0.3810
7.5800 2.5100 0.3779
7.6000 2.5167 0.3842
7.6200 2.5233 0.3871
7.6400 2.5299 0.3813
7.6600 2.5366 0.3809
7.6800 2.5433 0.3845
7.7000 2.5500 0.3744
7.7200 2.5567 0.3799
7.7400 2.5634 0.3872
7.7600 2.5701 0.3742
7.7800 2.5767 0.3760
7.8000 2.5833 0.3866
7.8200 2.5900 0.3745
7.8400 2.5967 0.3804
7.8600 2.6034 0.3852
7.8800 2.6101 0.3692
7.9000 2.6167 0.3788
7.9200 2.6234 0.3857
7.9400 2.6300 0.3621
7.9600 2.6367 0.3820
7.9800 2.6433 0.3799
8.0000 2.6499 0.3653
8.0200 2.6566 0.3814
8.0400 2.6633 0.3789
8.0600 2.6700 0.3673
8.0800 2.6767 0.3823
8.1000 2.6834 0.3753
8.1200 2.6900 0.3630
8.1400 2.6967 0.3762
8.1600 2.7033 0.3722
8.1800 2.7099 0.3631
8.2000 2.7166 0.3792
8.2200 2.7233 0.3677
8.2400 2.7300 0.3689
8.2600 2.7367 0.3743
8.2800 2.7434 0.3666
8.3000 2.7501 0.3680
8.3200 2.7567 0.3695
8.3400 2.7633 0.3652
8.3600 2.7699 0.3701
8.3800 2.7766 0.3661
8.4000 2.7833 0.3630
8.4200 2.7900 0.3680
8.4400 2.7967 0.3652
8.4600 2.8034 0.3632
8.4800 2.8100 0.3667
8.5000 2.8167 0.3610
8.5200 2.8233 0.3665
8.5400 2.8299 0.3682
8.5600 2.8367 0.3518
8.5800 2.8434 0.3697
8.6000 2.8501 0.3594
8.6200 2.8567 0.3543
8.6400 2.8634 0.3684
8.6600 2.8701 0.3580
8.6800 2.8767 0.3492
8.7000 2.8833 0.3687
8.7200 2.8899 0.3593
8.7400 2.8966 0.3530
8.7600 2.9033 0.3627
8.7800 2.9100 0.3525
8.8000 2.9167 0.3524
8.8200 2.9234 0.3656
8.8400 2.9300 0.3506
8.8600 2.9366 0.3541
8.8800 2.9432 0.3576
8.9000 2.9499 0.3568
8.9200 2.9566 0.3569
8.9400 2.9633 0.3583
8.9600 2.9700 0.3567
8.9800 2.9766 0.3562
9.0000 2.9833 0.3517
9.0200 2.9900 0.3504
9.0400 2.9967 0.3578
9.0600 3.0033 0.3557
9.0800 3.0099 0.3503
9.1000 3.0166 0.3542
9.1200 3.0233 0.3535
9.1400 3.0300 0.3530
9.1600 3.0367 0.3542
9.1800 3.0434 0.3574
9.2000 3.0501 0.3522
9.2200 3.0567 0.3425
9.2400 3.0633 0.3582
9.2600 3.0699 0.3528
9.2800 3.0766 0.3431
9.3000 3.0833 0.3575
9.3200 3.0901 0.3511
9.3400 3.0967 0.3437
9.3600 3.1034 0.3565
9.3800 3.1101 0.3511
9.4000 3.1167 0.3435
9.4200 3.1233 0.3535
9.4400 3.1299 0.3534
9.4600 3.1366 0.3431
9.4800 3.1433 0.3500
9.5000 3.1500 0.3453
9.5200 3.1567 0.3498
9.5400 3.1634 0.3470
9.5600 3.1701 0.3474
9.5800 3.1767 0.3520
9.6000 3.1833 0.3489
9.6200 3.1899 0.3499
9.6400 3.1966 0.3498
9.6600 3.2033 0.3405
9.6800 3.2100 0.3453
9.7000 3.2167 0.3504
9.7200 3.2233 0.3391
9.7400 3.2300 0.3436
9.7600 3.2366 0.3464
9.7800 3.2433 0.3399
9.8000 3.2499 0.3457
9.8200 3.2566 0.3461
9.8400 3.2633 0.3397
9.8600 3.2700 0.3461
9.8800 3.2767 0.3435
9.9000 3.2834 0.3382
9.9200 3.2901 0.3363
9.9400 3.2967 0.3440
9.9600 3.3033 0.3386
9.9800 3.3099 0.3414
10.0000 3.3166 0.3442
10.0200 3.3234 0.3417
10.0400 3.3301 0.3332
10.0600 3.3367 0.3434
10.0800 3.3434 0.3365
10.1000 3.3500 0.3386
10.1200 3.3567 0.3349
10.1400 3.3633 0.3348
10.1600 3.3699 0.3412
10.1800 3.3766 0.3323
10.2000 3.3833 0.3296
10.2200 3.3900 0.3444
10.2400 3.3967 0.3361
10.2600 3.4033 0.3288
10.2800 3.4100 0.3409
10.3000 3.4167 0.3339
10.3200 3.4233 0.3253
10.3400 3.4299 0.3440
10.3600 3.4366 0.3336
10.3800 3.4433 0.3205
10.4000 3.4500 0.3430
10.4200 3.4567 0.3276
10.4400 3.4634 0.3238
10.4600 3.4700 0.3450
10.4800 3.4767 0.3303
10.5000 3.4833 0.3166
10.5200 3.4900 0.3416
10.5400 3.4966 0.3290
10.5600 3.5033 0.3193
10.5800 3.5100 0.3369
10.6000 3.5167 0.3268
10.6200 3.5234 0.3186
10.6400 3.5301 0.3344
10.6600 3.5367 0.3292
10.6800 3.5433 0.3211
10.7000 3.5499 0.3328
10.7200 3.5566 0.3272
10.7400 3.5633 0.3167
10.7600 3.5700 0.3315
10.7800 3.5767 0.3228
10.8000 3.5834 0.3170
10.8200 3.5901 0.3256
10.8400 3.5967 0.3217
10.8600 3.6033 0.3149
10.8800 3.6099 0.3359
10.9000 3.6166 0.3209
10.9200 3.6233 0.3132
10.9400 3.6300 0.3326
10.9600 3.6367 0.3165
10.9800 3.6434 0.3102
11.0000 3.6501 0.3285
11.0200 3.6567 0.3192
11.0400 3.6633 0.3065
11.0600 3.6699 0.3310
11.0800 3.6766 0.3185
11.1000 3.6833 0.3070
11.1200 3.6900 0.3313
11.1400 3.6966 0.3149
11.1600 3.7033 0.3115
11.1800 3.7100 0.3321
11.2000 3.7167 0.3063
11.2200 3.7233 0.3059
11.2400 3.7299 0.3322
11.2600 3.7366 0.3117
11.2800 3.7433 0.3037
11.3000 3.7500 0.3250
11.3200 3.7567 0.3122
11.3400 3.7634 0.3123
11.3600 3.7701 0.3207
11.3800 3.7768 0.3108
11.4000 3.7833 0.3088
11.4200 3.7899 0.3188
11.4400 3.7966 0.3063
11.4600 3.8033 0.3096
11.4800 3.8101 0.3157
11.5000 3.8167 0.3073
11.5200 3.8234 0.3112
11.5400 3.8301 0.3102
11.5600 3.8367 0.3091
11.5800 3.8433 0.3156
11.6000 3.8499 0.3055
11.6200 3.8566 0.3135
11.6400 3.8633 0.3095
11.6600 3.8700 0.3027
11.6800 3.8766 0.3177
11.7000 3.8833 0.3104
11.7200 3.8900 0.3019
11.7400 3.8967 0.3139
11.7600 3.9033 0.3064
11.7800 3.9098 0.2999
11.8000 3.9165 0.3212
11.8200 3.9232 0.3025
11.8400 3.9300 0.2971
11.8600 3.9367 0.3205
11.8800 3.9434 0.2986
11.9000 3.9501 0.2970
11.9200 3.9567 0.3194
11.9400 3.9633 0.2994
11.9600 3.9699 0.3002
11.9800 3.9766 0.3150
12.0000 3.9833 0.2952
12.0200 3.9900 0.3033
12.0400 3.9967 0.3152
12.0600 4.0034 0.2934
12.0800 4.0101 0.3017
12.1000 4.0167 0.3076
12.1200 4.0234 0.2940
12.1400 4.0300 0.3016
12.1600 4.0367 0.3084
12.1800 4.0433 0.2909
12.2000 4.0500 0.3058
12.2200 4.0567 0.3071
12.2400 4.0634 0.2875
12.2600 4.0701 0.3034
12.2800 4.0768 0.3076
12.3000 4.0834 0.2878
12.3200 4.0899 0.2998
12.3400 4.0966 0.3099
12.3600 4.1033 0.2903
12.3800 4.1100 0.2991
12.4000 4.1167 0.3063
12.4200 4.1234 0.2910
12.4400 4.1301 0.2967
12.4600 4.1367 0.3050
12.4800 4.1433 0.2887
12.5000 4.1499 0.2978
12.5200 4.1566 0.3023
12.5400 4.1633 0.2864
12.5600 4.1700 0.2900
12.5800 4.1766 0.3075
12.6000 4.1833 0.2862
12.6200 4.1900 0.2900
12.6400 4.1967 0.3002
12.6600 4.2034 0.2894
12.6800 4.2100 0.2932
12.7000 4.2166 0.2994
12.7200 4.2233 0.2869
12.7400 4.2300 0.2892
12.7600 4.2367 0.3022
12.7800 4.2434 0.2859
12.8000 4.2501 0.2878
12.8200 4.2568 0.2971
12.8400 4.2634 0.2809
12.8600 4.2700 0.2904
12.8800 4.2766 0.2996
12.9000 4.2833 0.2891
12.9200 4.2900 0.2883
12.9400 4.2967 0.2918
12.9600 4.3034 0.2850
12.9800 4.3101 0.2832
13.0000 4.3167 0.2935
13.0200 4.3233 0.2815
13.0400 4.3299 0.2846
13.0600 4.3366 0.2917
13.0800 4.3433 0.2856
13.1000 4.3500 0.2844
13.1200 4.3567 0.2919
13.1400 4.3634 0.2885
13.1600 4.3700 0.2843
13.1800 4.3767 0.2883
13.2000 4.3834 0.2856
13.2200 4.3899 0.2816
13.2400 4.3966 0.2855
13.2600 4.4032 0.2849
13.2800 4.4099 0.2842
13.3000 4.4166 0.2828
13.3200 4.4233 0.2901
13.3400 4.4300 0.2835
13.3600 4.4367 0.2800
13.3800 4.4433 0.2870
13.4000 4.4499 0.2809
13.4200 4.4566 0.2812
13.4400 4.4633 0.2866
13.4600 4.4700 0.2780
13.4800 4.4767 0.2813
13.5000 4.4834 0.2826
13.5200 4.4901 0.2786
13.5400 4.4968 0.2845
13.5600 4.5034 0.2867
13.5800 4.5100 0.2762
13.6000 4.5166 0.2800
13.6200 4.5233 0.2838
13.6400 4.5300 0.2723
13.6600 4.5367 0.2809
13.6800 4.5434 0.2810
13.7000 4.5500 0.2717
13.7200 4.5567 0.2814
13.7400 4.5633 0.2815
13.7600 4.5699 0.2706
13.7800 4.5766 0.2841
13.8000 4.5833 0.2786
13.8200 4.5900 0.2717
13.8400 4.5967 0.2835
13.8600 4.6034 0.2756
13.8800 4.6100 0.2672
13.9000 4.6167 0.2820
13.9200 4.6234 0.2697
13.9400 4.6300 0.2768
13.9600 4.6366 0.2772
13.9800 4.6433 0.2692
14.0000 4.6500 0.2731
14.0200 4.6567 0.2796
14.0400 4.6633 0.2710
14.0600 4.6700 0.2707
14.0800 4.6767 0.2741
14.1000 4.6833 0.2720
14.1200 4.6899 0.2722
14.1400 4.6965 0.2680
14.1600 4.7032 0.2707
14.1800 4.7099 0.2722
14.2000 4.7167 0.2650
14.2200 4.7234 0.2742
14.2400 4.7301 0.2726
14.2600 4.7368 0.2607
14.2800 4.7434 0.2718
14.3000 4.7500 0.2694
14.3200 4.7566 0.2639
14.3400 4.7633 0.2669
14.3600 4.7700 0.2677
14.3800 4.7767 0.2582
14.4000 4.7834 0.2687
14.4200 4.7901 0.2664
14.4400 4.7968 0.2629
14.4600 4.8034 0.2717
14.4800 4.8100 0.2652
14.5000 4.8166 0.2559
14.5200 4.8233 0.2748
14.5400 4.8300 0.2606
14.5600 4.8366 0.2543
14.5800 4.8433 0.2697
14.6000 4.8500 0.2587
14.6200 4.8567 0.2521
14.6400 4.8633 0.2704
14.6600 4.8699 0.2596
14.6800 4.8766 0.2564
14.7000 4.8832 0.2691
14.7200 4.8900 0.2580
14.7400 4.8966 0.2484
14.7600 4.9033 0.2683
14.7800 4.9100 0.2592
14.8000 4.9167 0.2533
14.8200 4.9234 0.2672
14.8400 4.9300 0.2512
14.8600 4.9366 0.2535
14.8800 4.9433 0.2661
14.9000 4.9500 0.2510
14.9200 4.9567 0.2520
14.9400 4.9633 0.2663
14.9600 4.9700 0.2435
14.9800 4.9767 0.2503
15.0000 4.9833 0.2649
15.0200 4.9899 0.2481
15.0400 4.9966 0.2483
15.0600 5.0033 0.2648
15.0800 5.0100 0.2452
15.1000 5.0167 0.2543
15.1200 5.0234 0.2602
15.1400 5.0301 0.2466
15.1600 5.0368 0.2510
15.1800 5.0434 0.2576
15.2000 5.0500 0.2429
15.2200 5.0566 0.2504
15.2400 5.0633 0.2563
15.2600 5.0700 0.2404
15.2800 5.0767 0.2473
15.3000 5.0834 0.2557
15.3200 5.0901 0.2442
15.3400 5.0967 0.2435
15.3600 5.1034 0.2486
15.3800 5.1100 0.2433
15.4000 5.1166 0.2424
15.4200 5.1232 0.2506
15.4400 5.1299 0.2460
15.4600 5.1366 0.2370
15.4800 5.1433 0.2502
15.5000 5.1500 0.2438
15.5200 5.1567 0.2378
15.5400 5.1633 0.2484
15.5600 5.1699 0.2456
15.5800 5.1766 0.2361
15.6000 5.1833 0.2508
15.6200 5.1900 0.2402
15.6400 5.1967 0.2322
15.6600 5.2034 0.2458
15.6800 5.2101 0.2402
15.7000 5.2168 0.2329
15.7200 5.2234 0.2474
15.7400 5.2300 0.2346
15.7600 5.2366 0.2318
15.7800 5.2433 0.2530
15.8000 5.2500 0.2374
15.8200 5.2567 0.2273
15.8400 5.2634 0.2504
15.8600 5.2701 0.2309
15.8800 5.2768 0.2324
15.9000 5.2834 0.2463
15.9200 5.2900 0.2275
15.9400 5.2966 0.2357
15.9600 5.3032 0.2436
15.9800 5.3099 0.2302
16.0000 5.3167 0.2381
16.0200 5.3234 0.2396
16.0400 5.3300 0.2284
16.0600 5.3367 0.2333
16.0800 5.3434 0.2343
16.1000 5.3500 0.2311
16.1200 5.3566 0.2350
16.1400 5.3633 0.2350
16.1600 5.3700 0.2324
16.1800 5.3767 0.2304
16.2000 5.3834 0.2341
16.2200 5.3900 0.2375
16.2400 5.3967 0.2275
16.2600 5.4034 0.2306
16.2800 5.4100 0.2375
16.3000 5.4166 0.2267
16.3200 5.4233 0.2291
16.3400 5.4300 0.2408
16.3600 5.4367 0.2210
16.3800 5.4434 0.2326
16.4000 5.4501 0.2376
16.4200 5.4568 0.2196
16.4400 5.4634 0.2342
16.4600 5.4700 0.2382
16.4800 5.4766 0.2174
16.5000 5.4833 0.2324
16.5200 5.4900 0.2336
16.5400 5.4967 0.2137
16.5600 5.5033 0.2332
16.5800 5.5100 0.2341
16.6000 5.5167 0.2162
16.6200 5.5233 0.2343
16.6400 5.5300 0.2307
16.6600 5.5366 0.2194
16.6800 5.5433 0.2349
16.7000 5.5500 0.2335
16.7200 5.5567 0.2160
16.7400 5.5634 0.2294
16.7600 5.5700 0.2278
16.7800 5.5767 0.2162
16.8000 5.5834 0.2262
16.8200 5.5900 0.2237
16.8400 5.5966 0.2251
16.8600 5.6032 0.2261
16.8800 5.6099 0.2207
16.9000 5.6166 0.2256
16.9200 5.6233 0.2208
16.9400 5.6300 0.2185
16.9600 5.6367 0.2264
16.9800 5.6434 0.2193
17.0000 5.6500 0.2192
17.0200 5.6566 0.2200
17.0400 5.6633 0.2186
17.0600 5.6700 0.2220
17.0800 5.6767 0.2238
17.1000 5.6834 0.2130
17.1200 5.6901 0.2196
17.1400 5.6968 0.2189
17.1600 5.7034 0.2153
17.1800 5.7100 0.2193
17.2000 5.7166 0.2142
17.2200 5.7233 0.2135
17.2400 5.7300 0.2174
17.2600 5.7367 0.2114
17.2800 5.7434 0.2202
17.3000 5.7501 0.2218
17.3200 5.7567 0.2099
17.3400 5.7634 0.2120
17.3600 5.7700 0.2154
17.3800 5.7766 0.2107
17.4000 5.7832 0.2155
17.4200 5.7899 0.2243
17.4400 5.7966 0.2055
17.4600 5.8034 0.2167
17.4800 5.8101 0.2143
17.5000 5.8168 0.2047
17.5200 5.8234 0.2200
17.5400 5.8300 0.2140
17.5600 5.8366 0.2021
17.5800 5.8432 0.2173
17.6000 5.8499 0.2098
17.6200 5.8566 0.2044
17.6400 5.8633 0.2184
17.6600 5.8700 0.2112
17.6800 5.8767 0.2033
17.7000 5.8834 0.2109
17.7200 5.8900 0.2066
17.7400 5.8966 0.2125
17.7600 5.9033 0.2162
17.7800 5.9100 0.1969
17.8000 5.9167 0.2056
17.8200 5.9234 0.2185
17.8400 5.9301 0.1954
17.8600 5.9368 0.2064
17.8800 5.9435 0.2145
17.9000 5.9501 0.1981
17.9200 5.9567 0.2069
17.9400 5.9633 0.2150
17.9600 5.9700 0.1992
17.9800 5.9767 0.2076
18.0000 5.9834 0.2089
18.0200 5.9901 0.1929
18.0400 5.9968 0.2097
18.0600 6.0034 0.2012
18.0800 6.0100 0.1945
18.1000 6.0166 0.2105
18.1200 6.0232 0.1970
18.1400 6.0299 0.1991
18.1600 6.0366 0.2113
18.1800 6.0433 0.1958
18.2000 6.0500 0.2051
18.2200 6.0567 0.2125
18.2400 6.0634 0.1945
18.2600 6.0700 0.1983
18.2800 6.0766 0.2128
18.3000 6.0833 0.1942
18.3200 6.0900 0.2040
18.3400 6.0967 0.2047
18.3600 6.1033 0.1876
18.3800 6.1100 0.2069
18.4000 6.1167 0.2050
18.4200 6.1234 0.1877
18.4400 6.1300 0.2095
18.4600 6.1366 0.2010
18.4800 6.1433 0.1899
18.5000 6.1499 0.2033
18.5200 6.1567 0.2016
18.5400 6.1634 0.1878
18.5600 6.1701 0.2047
18.5800 6.1768 0.1989
18.6000 6.1834 0.1881
18.6200 6.1900 0.2068
18.6400 6.1966 0.1965
18.6600 6.2033 0.1918
18.6800 6.2100 0.2074
18.7000 6.2167 0.1921
18.7200 6.2234 0.1840
18.7400 6.2301 0.2055
18.7600 6.2367 0.1952
18.7800 6.2434 0.1877
18.8000 6.2500 0.2006
18.8200 6.2566 0.1898
18.8400 6.2633 0.1937
18.8600 6.2700 0.2030
18.8800 6.2767 0.1864
18.9000 6.2833 0.1973
18.9200 6.2900 0.1915
18.9400 6.2967 0.1867
18.9600 6.3034 0.1940
18.9800 6.3100 0.1920
19.0000 6.3166 0.1897
19.0200 6.3232 0.1945
19.0400 6.3299 0.1902
19.0600 6.3366 0.1877
19.0800 6.3433 0.1975
19.1000 6.3500 0.1918
19.1200 6.3567 0.1908
19.1400 6.3634 0.1957
19.1600 6.3700 0.1802
19.1800 6.3766 0.1902
19.2000 6.3833 0.1908
19.2200 6.3900 0.1869
19.2400 6.3967 0.1973
19.2600 6.4034 0.1833
19.2800 6.4101 0.1834
19.3000 6.4167 0.2025
19.3200 6.4234 0.1822
19.3400 6.4301 0.1802
19.3600 6.4366 0.1978
19.3800 6.4433 0.1820
19.4000 6.4499 0.1798
19.4200 6.4566 0.1971
19.4400 6.4633 0.1820
19.4600 6.4700 0.1823
19.4800 6.4767 0.1950
19.5000 6.4834 0.1764
19.5200 6.4901 0.1885
19.5400 6.4966 0.1939
19.5600 6.5032 0.1791
19.5800 6.5099 0.1830
19.6000 6.5166 0.1908
19.6200 6.5233 0.1762
19.6400 6.5300 0.1813
19.6600 6.5367 0.1900
19.6800 6.5434 0.1800
19.7000 6.5500 0.1794
19.7200 6.5566 0.1891
19.7400 6.5632 0.1805
19.7600 6.5699 0.1833
19.7800 6.5766 0.1858
19.8000 6.5833 0.1777
19.8200 6.5900 0.1747
19.8400 6.5966 0.1893
19.8600 6.6033 0.1830
19.8800 6.6100 0.1686
19.9000 6.6166 0.1882
19.9200 6.6233 0.1875
19.9400 6.6299 0.1756
19.9600 6.6367 0.1831
19.9800 6.6433 0.1804
20.0000 6.6500 0.1782
20.0200 6.6567 0.1857
20.0400 6.6634 0.1745
20.0600 6.6701 0.1764
20.0800 6.6767 0.1823
20.1000 6.6833 0.1750
20.1200 6.6900 0.1764
20.1400 6.6967 0.1824
20.1600 6.7034 0.1723
20.1800 6.7101 0.1869
20.2000 6.7168 0.1732
20.2200 6.7234 0.1648
20.2400 6.7301 0.1886
20.2600 6.7366 0.1742
20.2800 6.7432 0.1684
20.3000 6.7499 0.1821
20.3200 6.7566 0.1667
20.3400 6.7633 0.1725
20.3600 6.7700 0.1823
20.3800 6.7767 0.1706
20.4000 6.7834 0.1658
20.4200 6.7900 0.1830
20.4400 6.7966 0.1673
20.4600 6.8032 0.1705
20.4800 6.8099 0.1789
20.5000 6.8166 0.1684
20.5200 6.8233 0.1660
20.5400 6.8300 0.1730
20.5600 6.8367 0.1759
20.5800 6.8434 0.1668
20.6000 6.8500 0.1651
20.6200 6.8567 0.1775
20.6400 6.8633 0.1685
20.6600 6.8700 0.1647
20.6800 6.8767 0.1763
20.7000 6.8834 0.1688
20.7200 6.8901 0.1633
20.7400 6.8968 0.1707
20.7600 6.9034 0.1714
20.7800 6.9101 0.1586
20.8000 6.9167 0.1728
20.8200 6.9233 0.1694
20.8400 6.9299 0.1653
20.8600 6.9366 0.1748
20.8800 6.9434 0.1659
20.9000 6.9501 0.1613
20.9200 6.9567 0.1705
20.9400 6.9634 0.1603
20.9600 6.9701 0.1657
20.9800 6.9767 0.1679
21.0000 6.9833 0.1627
21.0200 6.9899 0.1615
21.0400 6.9966 0.1675
21.0600 7.0033 0.1611
21.0800 7.0100 0.1679
21.1000 7.0167 0.1665
21.1200 7.0234 0.1541
21.1400 7.0301 0.1654
21.1600 7.0366 0.1617
21.1800 7.0432 0.1620
21.2000 7.0499 0.1678
21.2200 7.0566 0.1606
21.2400 7.0633 0.1558
21.2600 7.0700 0.1612
21.2800 7.0767 0.1609
21.3000 7.0833 0.1634
21.3200 7.0900 0.1569
21.3400 7.0966 0.1568
21.3600 7.1033 0.1617
21.3800 7.1099 0.1564
21.4000 7.1166 0.1526
21.4200 7.1233 0.1673
21.4400 7.1300 0.1598
21.4600 7.1367 0.1494
21.4800 7.1434 0.1607
21.5000 7.1501 0.1590
21.5200 7.1567 0.1540
21.5400 7.1633 0.1641
21.5600 7.1699 0.1487
21.5800 7.1766 0.1540
21.6000 7.1833 0.1585
21.6200 7.1900 0.1501
21.6400 7.1967 0.1538
21.6600 7.2034 0.1590
21.6800 7.2101 0.1463
21.7000 7.2167 0.1527
21.7200 7.2233 0.1562
21.7400 7.2299 0.1591
21.7600 7.2366 0.1537
21.7800 7.2434 0.1496
21.8000 7.2500 0.1515
21.8200 7.2567 0.1516
21.8400 7.2634 0.1482
21.8600 7.2700 0.1533
21.8800 7.2767 0.1452
21.9000 7.2832 0.1566
21.9200 7.2899 0.1580
21.9400 7.2966 0.1397
21.9600 7.3033 0.1509
21.9800 7.3100 0.1560
22.0000 7.3167 0.1472
22.0200 7.3233 0.1497
22.0400 7.3300 0.1567
22.0600 7.3367 0.1345
22.0800 7.3433 0.1508
22.1000 7.3499 0.1591
22.1200 7.3566 0.1406
22.1400 7.3633 0.1490
22.1600 7.3700 0.1499
22.1800 7.3767 0.1385
22.2000 7.3834 0.1548
22.2200 7.3901 0.1455
22.2400 7.3967 0.1382
22.2600 7.4033 0.1466
22.2800 7.4099 0.1470
22.3000 7.4166 0.1418
22.3200 7.4234 0.1532
22.3400 7.4301 0.1452
22.3600 7.4367 0.1354
22.3800 7.4434 0.1500
22.4000 7.4501 0.1450
22.4200 7.4567 0.1387
22.4400 7.4633 0.1494
22.4600 7.4699 0.1397
22.4800 7.4766 0.1372
22.5000 7.4833 0.1443
22.5200 7.4900 0.1415
22.5400 7.4967 0.1401
22.5600 7.5034 0.1424
22.5800 7.5101 0.1360
22.6000 7.5167 0.1338
22.6200 7.5233 0.1463
22.6400 7.5299 0.1447
22.6600 7.5366 0.1358
22.6800 7.5433 0.1354
22.7000 7.5500 0.1394
22.7200 7.5567 0.1332
22.7400 7.5634 0.1415
22.7600 7.5701 0.1353
22.7800 7.5767 0.1309
22.8000 7.5833 0.1405
22.8200 7.5899 0.1392
22.8400 7.5966 0.1357
22.8600 7.6033 0.1471
22.8800 7.6100 0.1295
22.9000 7.6167 0.1273
22.9200 7.6234 0.1424
22.9400 7.6301 0.1337
22.9600 7.6367 0.1320
22.9800 7.6433 0.1383
23.0000 7.6500 0.1289
23.0200 7.6566 0.1341
23.0400 7.6633 0.1362
23.0600 7.6700 0.1352
23.0800 7.6767 0.1395
23.1000 7.6834 0.1335
23.1200 7.6901 0.1244
23.1400 7.6967 0.1299
23.1600 7.7033 0.1403
23.1800 7.7099 0.1327
23.2000 7.7166 0.1261
23.2200 7.7233 0.1265
23.2400 7.7300 0.1369
23.2600 7.7367 0.1272
23.2800 7.7434 0.1254
23.3000 7.7501 0.1361
23.3200 7.7567 0.1329
23.3400 7.7633 0.1245
23.3600 7.7699 0.1298
23.3800 7.7766 0.1344
23.4000 7.7833 0.1271
23.4200 7.7900 0.1267
23.4400 7.7966 0.1282
23.4600 7.8033 0.1281
23.4800 7.8100 0.1344
23.5000 7.8167 0.1198
23.5200 7.8233 0.1260
23.5400 7.8299 0.1315
23.5600 7.8366 0.1262
23.5800 7.8433 0.1256
23.6000 7.8500 0.1261
23.6200 7.8567 0.1206
23.6400 7.8634 0.1282
23.6600 7.8701 0.1315
23.6800 7.8767 0.1173
23.7000 7.8833 0.1233
23.7200 7.8899 0.1335
23.7400 7.8966 0.1219
23.7600 7.9033 0.1240
23.7800 7.9100 0.1320
23.8000 7.9167 0.1158
23.8200 7.9234 0.1207
23.8400 7.9301 0.1252
23.8600 7.9367 0.1223
23.8800 7.9433 0.1230
23.9000 7.9499 0.1204
23.9200 7.9566 0.1248
23.9400 7.9633 0.1280
23.9600 7.9700 0.1203
23.9800 7.9767 0.1185
24.0000 7.9834 0.1225
24.0200 7.9901 0.1217
24.0400 7.9967 0.1214
24.0600 8.0033 0.1261
24.0800 8.0099 0.1196
24.1000 8.0166 0.1114
24.1200 8.0233 0.1187
24.1400 8.0300 0.1284
24.1600 8.0367 0.1187
24.1800 8.0433 0.1167
24.2000 8.0500 0.1212
24.2200 8.0567 0.1186
24.2400 8.0633 0.1175
24.2600 8.0699 0.1287
24.2800 8.0766 0.1170
24.3000 8.0833 0.1136
24.3200 8.0900 0.1188
24.3400 8.0967 0.1224
24.3600 8.1034 0.1171
24.3800 8.1101 0.1164
24.4000 8.1167 0.1161
24.4200 8.1233 0.1135
24.4400 8.1299 0.1282
24.4600 8.1366 0.1124
24.4800 8.1434 0.1129
24.5000 8.1501 0.1253
24.5200 8.1568 0.1128
24.5400 8.1634 0.1113
24.5600 8.1701 0.1228
24.5800 8.1767 0.1114
24.6000 8.1833 0.1124
24.6200 8.1899 0.1277
24.6400 8.1966 0.1118
24.6600 8.2033 0.1084
24.6800 8.2100 0.1277
24.7000 8.2167 0.1040
24.7200 8.2234 0.1130
24.7400 8.2301 0.1216
24.7600 8.2367 0.1012
24.7800 8.2433 0.1123
24.8000 8.2499 0.1211
24.8200 8.2566 0.1006
24.8400 8.2633 0.1181
24.8600 8.2700 0.1231
24.8800 8.2767 0.1048
24.9000 8.2833 0.1109
24.9200 8.2900 0.1143
24.9400 8.2967 0.1035
24.9600 8.3033 0.1133
24.9800 8.3099 0.1170
25.0000 8.3166 0.1016
25.0200 8.3233 0.1071
25.0400 8.3300 0.1104
25.0600 8.3367 0.1122
25.0800 8.3434 0.1121
25.1000 8.3501 0.1054
25.1200 8.3567 0.1005
25.1400 8.3633 0.1096
25.1600 8.3699 0.1113
25.1800 8.3766 0.1061
25.2000 8.3833 0.1038
25.2200 8.3900 0.1087
25.2400 8.3967 0.1092
25.2600 8.4034 0.1087
25.2800 8.4101 0.1071
25.3000 8.4167 0.1077
25.3200 8.4233 0.0986
25.3400 8.4299 0.1091
25.3600 8.4366 0.1080
25.3800 8.4433 0.1039
25.4000 8.4500 0.0977
25.4200 8.4567 0.1060
25.4400 8.4634 0.1034
25.4600 8.4701 0.1027
25.4800 8.4767 0.1028
25.5000 8.4833 0.0951
25.5200 8.4899 0.1070
25.5400 8.4965 0.1112
25.5600 8.5032 0.0967
25.5800 8.5099 0.1004
25.6000 8.5166 0.1032
25.6200 8.5233 0.0932
25.6400 8.5300 0.1004
25.6600 8.5367 0.1019
25.6800 8.5433 0.0934
25.7000 8.5499 0.1007
25.7200 8.5566 0.1014
25.7400 8.5633 0.0947
25.7600 8.5700 0.1043
25.7800 8.5767 0.0943
25.8000 8.5834 0.0976
25.8200 8.5901 0.1001
25.8400 8.5968 0.0914
25.8600 8.6034 0.0995
25.8800 8.6100 0.1005
25.9000 8.6166 0.0945
25.9200 8.6233 0.0960
25.9400 8.6300 0.0943
25.9600 8.6367 0.0999
25.9800 8.6434 0.0985
26.0000 8.6501 0.0969
26.0200 8.6567 0.0895
26.0400 8.6633 0.0933
26.0600 8.6699 0.0945
26.0800 8.6766 0.0985
26.1000 8.6833 0.0911
26.1200 8.6900 0.0920
26.1400 8.6967 0.0981
26.1600 8.7033 0.0966
26.1800 8.7100 0.0898
26.2000 8.7167 0.0907
26.2200 8.7233 0.0883
26.2400 8.7299 0.0915
26.2600 8.7365 0.0987
26.2800 8.7432 0.0919
26.3000 8.7500 0.0810
26.3200 8.7566 0.0926
26.3400 8.7633 0.1003
26.3600 8.7700 0.0939
26.3800 8.7767 0.0874
26.4000 8.7833 0.0770
26.4200 8.7899 0.0845
26.4400 8.7966 0.1031
26.4600 8.8033 0.0952
26.4800 8.8100 0.0754
26.5000 8.8167 0.0788
26.5200 8.8234 0.0855
26.5400 8.8301 0.0971
26.5600 8.8368 0.0965
26.5800 8.8434 0.0777
26.6000 8.8500 0.0776
26.6200 8.8566 0.0916
26.6400 8.8633 0.0826
26.6600 8.8700 0.0927
26.6800 8.8767 0.0853
26.7000 8.8834 0.0722
26.7200 8.8901 0.0803
26.7400 8.8968 0.0889
26.7600 8.9034 0.0861
26.7800 8.9099 0.0860
26.8000 8.9166 0.0781
26.8200 8.9233 0.0786
26.8400 8.9300 0.0903
26.8600 8.9367 0.0843
26.8800 8.9434 0.0749
26.9000 8.9500 0.0843
26.9200 8.9567 0.0770
26.9400 8.9633 0.0854
26.9600 8.9699 0.0909
26.9800 8.9766 0.0742
27.0000 8.9833 0.0766
27.0200 8.9900 0.0918
27.0400 8.9967 0.0826
27.0600 9.0033 0.0785
27.0800 9.0100 0.0799
27.1000 9.0167 0.0735
27.1200 9.0233 0.0842
27.1400 9.0299 0.0773
27.1600 9.0366 0.0785
27.1800 9.0433 0.0866
27.2000 9.0500 0.0739
27.2200 9.0567 0.0754
27.2400 9.0634 0.0878
27.2600 9.0701 0.0698
27.2800 9.0768 0.0762
27.3000 9.0834 0.0854
27.3200 9.0900 0.0704
27.3400 9.0966 0.0697
27.3600 9.1033 0.0816
27.3800 9.1100 0.0719
27.4000 9.1167 0.0781
27.4200 9.1234 0.0729
27.4400 9.1301 0.0700
27.4600 9.1367 0.0795
27.4800 9.1434 0.0761
27.5000 9.1500 0.0678
27.5200 9.1566 0.0706
27.5400 9.1633 0.0772
27.5600 9.1700 0.0812
27.5800 9.1767 0.0758
27.6000 9.1834 0.0594
27.6200 9.1900 0.0616
27.6400 9.1967 0.0794
27.6600 9.2034 0.0816
27.6800 9.2099 0.0736
27.7000 9.2165 0.0625
27.7200 9.2232 0.0595
27.7400 9.2299 0.0711
27.7600 9.2367 0.0814
27.7800 9.2433 0.0827
27.8000 9.2500 0.0555
27.8200 9.2567 0.0497
27.8400 9.2634 0.0737
27.8600 9.2699 0.0840
27.8800 9.2766 0.0729
27.9000 9.2833 0.0631
27.9200 9.2900 0.0545
27.9400 9.2967 0.0680
27.9600 9.3034 0.0784
27.9800 9.3101 0.0689
28.0000 9.3168 0.0575
28.0200 9.3234 0.0640
28.0400 9.3300 0.0703
28.0600 9.3366 0.0747
28.0800 9.3433 0.0700
28.1000 9.3500 0.0557
28.1200 9.3567 0.0573
28.1400 9.3634 0.0742
28.1600 9.3700 0.0770
28.1800 9.3767 0.0581
28.2000 9.3834 0.0588
28.2200 9.3900 0.0624
28.2400 9.3966 0.0615
28.2600 9.4032 0.0739
28.2800 9.4100 0.0624
28.3000 9.4167 0.0544
28.3200 9.4233 0.0726
28.3400 9.4300 0.0590
28.3600 9.4367 0.0528
28.3800 9.4434 0.0706
28.4000 9.4500 0.0630
28.4200 9.4566 0.0560
28.4400 9.4633 0.0657
28.4600 9.4700 0.0449
28.4800 9.4767 0.0583
28.5000 9.4834 0.0763
28.5200 9.4900 0.0516
28.5400 9.4967 0.0530
28.5600 9.5034 0.0633
28.5800 9.5100 0.0484
28.6000 9.5166 0.0681
28.6200 9.5233 0.0695
28.6400 9.5300 0.0455
28.6600 9.5367 0.0521
28.6800 9.5434 0.0613
28.7000 9.5501 0.0591
28.7200 9.5568 0.0610
28.7400 9.5634 0.0520
28.7600 9.5700 0.0476
28.7800 9.5766 0.0596
28.8000 9.5833 0.0637
28.8200 9.5900 0.0553
28.8400 9.5967 0.0468
28.8600 9.6034 0.0544
28.8800 9.6101 0.0604
28.9000 9.6168 0.0518
28.9200 9.6234 0.0565
28.9400 9.6300 0.0522
28.9600 9.6366 0.0439
28.9800 9.6433 0.0633
29.0000 9.6499 0.0554
29.0200 9.6566 0.0451
29.0400 9.6633 0.0592
29.0600 9.6700 0.0520
29.0800 9.6767 0.0390
29.1000 9.6834 0.0684
29.1200 9.6900 0.0531
29.1400 9.6966 0.0374
29.1600 9.7032 0.0622
29.1800 9.7100 0.0526
29.2000 9.7167 0.0401
29.2200 9.7233 0.0607
29.2400 9.7300 0.0477
29.2600 9.7367 0.0440
29.2800 9.7434 0.0570
29.3000 9.7500 0.0457
29.3200 9.7566 0.0446
29.3400 9.7633 0.0585
29.3600 9.7700 0.0438
29.3800 9.7767 0.0426
29.4000 9.7834 0.0614
29.4200 9.7901 0.0457
29.4400 9.7968 0.0373
29.4600 9.8034 0.0592
29.4800 9.8100 0.0440
29.5000 9.8166 0.0387
29.5200 9.8233 0.0578
29.5400 9.8300 0.0422
29.5600 9.8367 0.0397
29.5800 9.8434 0.0588
29.6000 9.8501 0.0421
29.6200 9.8567 0.0387
29.6400 9.8634 0.0497
29.6600 9.8700 0.0392
29.6800 9.8766 0.0466
29.7000 9.8833 0.0482
29.7200 9.8900 0.0422
29.7400 9.8967 0.0441
29.7600 9.9033 0.0399
29.7800 9.9100 0.0440
29.8000 9.9167 0.0457
29.8200 9.9234 0.0366
29.8400 9.9300 0.0422
29.8600 9.9365 0.0436
29.8800 9.9432 0.0415
29.9000 9.9499 0.0469
29.9200 9.9566 0.0363
29.9400 9.9633 0.0352
29.9600 9.9700 0.0553
29.9800 9.9767 0.0318
30.0000 9.9833 0.0319
30.0200 9.9899 0.0541
30.0400 9.9966 0.0345
30.0600 10.0033 0.0299
30.0800 10.0100 0.0511
30.1000 10.0167 0.0321
30.1200 10.0234 0.0375
30.1400 10.0301 0.0440
30.1600 10.0367 0.0307
30.1800 10.0434 0.0444
30.2000 10.0500 0.0426
30.2200 10.0566 0.0227
30.2400 10.0633 0.0439
30.2600 10.0700 0.0456
30.2800 10.0767 0.0229
30.3000 10.0834 0.0471
30.3200 10.0901 0.0361
30.3400 10.0968 0.0208
30.3600 10.1034 0.0452
30.3800 10.1100 0.0456
30.4000 10.1166 0.0238
30.4200 10.1232 0.0425
30.4400 10.1299 0.0379
30.4600 10.1366 0.0260
30.4800 10.1433 0.0430
30.5000 10.1500 0.0351
30.5200 10.1567 0.0226
30.5400 10.1634 0.0369
30.5600 10.1700 0.0305
30.5800 10.1766 0.0374
30.6000 10.1832 0.0375
30.6200 10.1900 0.0239
30.6400 10.1967 0.0276
30.6600 10.2034 0.0410
30.6800 10.2100 0.0326
30.7000 10.2167 0.0257
30.7200 10.2234 0.0276
30.7400 10.2300 0.0276
30.7600 10.2366 0.0324
30.7800 10.2433 0.0405
30.8000 10.2500 0.0212
30.8200 10.2567 0.0229
30.8400 10.2634 0.0360
30.8600 10.2701 0.0213
30.8800 10.2768 0.0334
30.9000 10.2834 0.0305
30.9200 10.2900 0.0160
30.9400 10.2966 0.0296
30.9600 10.3033 0.0333
30.9800 10.3100 0.0220
31.0000 10.3167 0.0291
31.0200 10.3234 0.0264
31.0400 10.3301 0.0224
31.0600 10.3367 0.0282
31.0800 10.3434 0.0291
31.1000 10.3500 0.0152
31.1200 10.3566 0.0265
31.1400 10.3632 0.0306
31.1600 10.3700 0.0336
31.1800 10.3767 0.0151
31.2000 10.3834 0.0121
31.2200 10.3900 0.0349
31.2400 10.3967 0.0323
31.2600 10.4034 0.0179
31.2800 10.4100 0.0246
31.3000 10.4166 0.0199
31.3200 10.4233 0.0161
31.3400 10.4299 0.0358
31.3600 10.4366 0.0320
31.3800 10.4433 0.0104
31.4000 10.4500 0.0204
31.4200 10.4567 0.0229
31.4400 10.4634 0.0242
31.4600 10.4700 0.0297
31.4800 10.4766 0.0150
31.5000 10.4832 0.0112
31.5200 10.4899 0.0298
31.5400 10.4967 0.0275
31.5600 10.5034 0.0179
31.5800 10.5101 0.0309
31.6000 10.5168 0.0189
31.6200 10.5234 0.0033
31.6400 10.5300 0.0312
31.6600 10.5366 0.0335
31.6800 10.5433 0.0101
31.7000 10.5500 0.0198
31.7200 10.5567 0.0205
31.7400 10.5634 0.0128
31.7600 10.5701 0.0271
31.7800 10.5768 0.0246
31.8000 10.5834 0.0000
31.8200 10.5900 0.0210
31.8400 10.5966 0.0297
31.8600 10.6033 0.0123
31.8800 10.6099 0.0089
31.9000 10.6167 0.0287
31.9200 10.6234 0.0178
31.9400 10.6300 0.0124
31.9600 10.6367 0.0189
31.9800 10.6434 0.0137
32.0000 10.6500 0.0101
32.0200 10.6566 0.0239
32.0400 10.6632 0.0150
32.0600 10.6699 0.0133
32.0800 10.6767 0.0138
32.1000 10.6834 0.0103
32.1200 10.6900 0.0145
32.1400 10.6967 0.0220
32.1600 10.7034 0.0142
32.1800 10.7100 0.0007
32.2000 10.7166 0.0081
32.2200 10.7233 0.0174
32.2400 10.7300 0.0203
32.2600 10.7367 0.0093
32.2800 10.7434 0.0052
32.3000 10.7501 0.0187
32.3200 10.7568 0.0184
32.3400 10.7634 0.0021
32.3600 10.7701 0.0138
32.3800 10.7767 0.0145
32.4000 10.7833 0.0038
32.4200 10.7900 0.0112
32.4400 10.7967 0.0199
32.4600 10.8034 0.0064
32.4800 10.8101 0.0091
32.5000 10.8167 0.0067
32.5200 10.8234 0.0060
32.5400 10.8300 0.0178
32.5600 10.8366 0.0103
32.5800 10.8432 -0.0035
32.6000 10.8499 0.0112
32.6200 10.8567 0.0157
32.6400 10.8634 0.0010
32.6600 10.8700 0.0025
32.6800 10.8767 0.0110
32.7000 10.8834 0.0058
32.7200 10.8900 0.0072
32.7400 10.8966 0.0076
32.7600 10.9033 -0.0010
32.7800 10.9099 0.0024
32.8000 10.9166 0.0066
32.8200 10.9233 0.0084
32.8400 10.9300 0.0067
32.8600 10.9367 0.0068
32.8800 10.9434 -0.0073
32.9000 10.9500 -0.0070
32.9200 10.9567 0.0271
32.9400 10.9633 0.0144
32.9600 10.9699 -0.0191
32.9800 10.9767 0.0008
33.0000 10.9834 0.0011
33.0200 10.9900 0.0070
33.0400 10.9967 0.0153
33.0600 11.0034 -0.0161
33.0800 11.0100 -0.0178
33.1000 11.0166 0.0219
33.1200 11.0233 0.0034
33.1400 11.0300 0.0001
33.1600 11.0367 0.0019
33.1800 11.0434 -0.0179
33.2000 11.0501 -0.0005
33.2200 11.0567 0.0222
33.2400 11.0634 -0.0078
33.2600 11.0700 -0.0167
33.2800 11.0766 0.0039
33.3000 11.0833 0.0002
33.3200 11.0899 0.0029
33.3400 11.0966 -0.0043
33.3600 11.1033 -0.0198
33.3800 11.1100 -0.0044
33.4000 11.1167 0.0145
33.4200 11.1234 -0.0092
33.4400 11.1300 -0.0125
33.4600 11.1366 -0.0016
33.4800 11.1432 -0.0117
33.5000 11.1499 -0.0007
33.5200 11.1566 0.0064
33.5400 11.1633 -0.0204
33.5600 11.1700 -0.0128
33.5800 11.1767 -0.0033
33.6000 11.1834 -0.0153
33.6200 11.1900 0.0002
33.6400 11.1966 0.0162
33.6600 11.2032 -0.0397
33.6800 11.2099 -0.0133
33.7000 11.2167 0.0233
33.7200 11.2234 -0.0156
33.7400 11.2301 -0.0179
33.7600 11.2368 0.0086
33.7800 11.2434 -0.0200
33.8000 11.2501 -0.0240
33.8200 11.2567 0.0078
33.8400 11.2633 -0.0003
33.8600 11.2699 -0.0170
33.8800 11.2766 -0.0165
33.9000 11.2833 -0.0184
33.9200 11.2900 0.0068
33.9400 11.2967 -0.0046
33.9600 11.3034 -0.0173
33.9800 11.3101 -0.0192
34.0000 11.3167 -0.0191
34.0200 11.3233 -0.0053
34.0400 11.3299 0.0056
34.0600 11.3366 -0.0082
34.0800 11.3433 -0.0255
34.1000 11.3500 -0.0194
34.1200 11.3567 -0.0033
34.1400 11.3634 0.0029
34.1600 11.3701 -0.0176
34.1800 11.3766 -0.0204
34.2000 11.3832 -0.0178
34.2200 11.3899 -0.0100
34.2400 11.3966 0.0072
34.2600 11.4033 -0.0072
34.2800 11.4100 -0.0395
34.3000 11.4167 -0.0119
34.3200 11.4233 -0.0012
34.3400 11.4300 -0.0091
34.3600 11.4366 -0.0088
34.3800 11.4433 -0.0267
34.4000 11.4499 -0.0252
34.4200 11.4566 0.0089
34.4400 11.4633 -0.0117
34.4600 11.4700 -0.0292
34.4800 11.4767 -0.0119
34.5000 11.4834 -0.0247
34.5200 11.4901 -0.0169
34.5400 11.4967 -0.0006
34.5600 11.5033 -0.0310
34.5800 11.5099 -0.0210
34.6000 11.5166 -0.0076
34.6200 11.5234 -0.0259
34.6400 11.5301 -0.0142
34.6600 11.5367 -0.0168
34.6800 11.5434 -0.0394
34.7000 11.5500 -0.0172
34.7200 11.5566 0.0006
34.7400 11.5632 -0.0284
34.7600 11.5699 -0.0264
34.7800 11.5766 -0.0163
34.8000 11.5833 -0.0275
34.8200 11.5900 -0.0174
34.8400 11.5967 -0.0111
34.8600 11.6033 -0.0347
34.8800 11.6100 -0.0288
34.9000 11.6166 -0.0147
34.9200 11.6232 -0.0212
34.9400 11.6299 -0.0252
34.9600 11.6366 -0.0187
34.9800 11.6433 -0.0330
35.0000 11.6500 -0.0217
35.0200 11.6567 -0.0181
35.0400 11.6634 -0.0303
35.0600 11.6701 -0.0289
35.0800 11.6767 -0.0253
35.1000 11.6833 -0.0292
35.1200 11.6899 -0.0215
35.1400 11.6966 -0.0255
35.1600 11.7034 -0.0335
35.1800 11.7100 -0.0265
35.2000 11.7167 -0.0230
35.2200 11.7234 -0.0246
35.2400 11.7300 -0.0307
35.2600 11.7366 -0.0283
35.2800 11.7432 -0.0256
35.3000 11.7499 -0.0298
35.3200 11.7567 -0.0316
35.3400 11.7634 -0.0247
35.3600 11.7701 -0.0273
35.3800 11.7767 -0.0331
35.4000 11.7834 -0.0307
35.4200 11.7901 -0.0291
35.4400 11.7967 -0.0302
35.4600 11.8033 -0.0199
35.4800 11.8100 -0.0337
35.5000 11.8166 -0.0326
35.5200 11.8233 -0.0298
35.5400 11.8300 -0.0317
35.5600 11.8367 -0.0276
35.5800 11.8434 -0.0269
35.6000 11.8501 -0.0435
35.6200 11.8567 -0.0333
35.6400 11.8632 -0.0260
35.6600 11.8699 -0.0348
35.6800 11.8766 -0.0281
35.7000 11.8833 -0.0299
35.7200 11.8900 -0.0450
35.7400 11.8967 -0.0243
35.7600 11.9034 -0.0270
35.7800 11.9100 -0.0414
35.8000 11.9167 -0.0320
35.8200 11.9233 -0.0298
35.8400 11.9299 -0.0398
35.8600 11.9366 -0.0289
35.8800 11.9433 -0.0304
35.9000 11.9500 -0.0406
35.9200 11.9567 -0.0235
35.9400 11.9634 -0.0333
35.9600 11.9701 -0.0437
35.9800 11.9767 -0.0267
36.0000 11.9833 -0.0325
36.0200 11.9899 -0.0433
36.0400 11.9966 -0.0278
36.0600 12.0033 -0.0340
36.0800 12.0100 -0.0410
36.1000 12.0167 -0.0308
36.1200 12.0234 -0.0311
36.1400 12.0301 -0.0442
36.1600 12.0367 -0.0336
36.1800 12.0433 -0.0379
36.2000 12.0499 -0.0391
36.2200 12.0566 -0.0329
36.2400 12.0634 -0.0400
36.2600 12.0700 -0.0425
36.2800 12.0767 -0.0334
36.3000 12.0834 -0.0424
36.3200 12.0900 -0.0406
36.3400 12.0967 -0.0349
36.3600 12.1033 -0.0377
36.3800 12.1099 -0.0373
36.4000 12.1166 -0.0396
36.4200 12.1233 -0.0435
36.4400 12.1300 -0.0398
36.4600 12.1367 -0.0440
36.4800 12.1433 -0.0345
36.5000 12.1500 -0.0463
36.5200 12.1567 -0.0444
36.5400 12.1633 -0.0341
36.5600 12.1699 -0.0451
36.5800 12.1766 -0.0420
36.6000 12.1833 -0.0407
36.6200 12.1900 -0.0449
36.6400 12.1967 -0.0428
36.6600 12.2034 -0.0421
36.6800 12.2101 -0.0438
36.7000 12.2167 -0.0400
36.7200 12.2233 -0.0496
36.7400 12.2299 -0.0464
36.7600 12.2367 -0.0373
36.7800 12.2434 -0.0444
36.8000 12.2501 -0.0461
36.8200 12.2567 -0.0417
36.8400 12.2634 -0.0541
36.8600 12.2700 -0.0436
36.8800 12.2766 -0.0423
36.9000 12.2833 -0.0529
36.9200 12.2899 -0.0445
36.9400 12.2966 -0.0448
36.9600 12.3033 -0.0581
36.9800 12.3100 -0.0410
37.0000 12.3167 -0.0444
37.0200 12.3234 -0.0518
37.0400 12.3301 -0.0447
37.0600 12.3367 -0.0485
37.0800 12.3433 -0.0502
37.1000 12.3499 -0.0435
37.1200 12.3566 -0.0502
37.1400 12.3633 -0.0471
37.1600 12.3700 -0.0464
37.1800 12.3767 -0.0559
37.2000 12.3834 -0.0460
37.2200 12.3901 -0.0462
37.2400 12.3967 -0.0549
37.2600 12.4033 -0.0460
37.2800 12.4099 -0.0493
37.3000 12.4166 -0.0563
37.3200 12.4233 -0.0493
37.3400 12.4300 -0.0536
37.3600 12.4367 -0.0510
37.3800 12.4434 -0.0552
37.4000 12.4501 -0.0548
37.4200 12.4567 -0.0526
37.4400 12.4633 -0.0494
37.4600 12.4700 -0.0533
37.4800 12.4766 -0.0508
37.5000 12.4833 -0.0545
37.5200 12.4900 -0.0536
37.5400 12.4967 -0.0528
37.5600 12.5034 -0.0562
37.5800 12.5101 -0.0545
37.6000 12.5167 -0.0501
37.6200 12.5233 -0.0636
37.6400 12.5299 -0.0500
37.6600 12.5366 -0.0521
37.6800 12.5433 -0.0628
37.7000 12.5500 -0.0412
37.7200 12.5567 -0.0572
37.7400 12.5634 -0.0652
37.7600 12.5701 -0.0482
37.7800 12.5767 -0.0637
37.8000 12.5833 -0.0587
37.8200 12.5899 -0.0447
37.8400 12.5966 -0.0648
37.8600 12.6033 -0.0636
37.8800 12.6100 -0.0473
37.9000 12.6166 -0.0597
37.9200 12.6233 -0.0586
37.9400 12.6300 -0.0466
37.9600 12.6367 -0.0703
37.9800 12.6433 -0.0625
38.0000 12.6499 -0.0512
38.0200 12.6566 -0.0628
38.0400 12.6633 -0.0628
38.0600 12.6700 -0.0555
38.0800 12.6767 -0.0639
38.1000 12.6834 -0.0569
38.1200 12.6901 -0.0545
38.1400 12.6968 -0.0623
38.1600 12.7033 -0.0619
38.1800 12.7099 -0.0560
38.2000 12.7166 -0.0673
38.2200 12.7233 -0.0632
38.2400 12.7300 -0.0563
38.2600 12.7367 -0.0617
38.2800 12.7434 -0.0670
38.3000 12.7501 -0.0572
38.3200 12.7567 -0.0623
38.3400 12.7633 -0.0639
38.3600 12.7699 -0.0558
38.3800 12.7766 -0.0637
38.4000 12.7833 -0.0698
38.4200 12.7900 -0.0607
38.4400 12.7967 -0.0665
38.4600 12.8033 -0.0651
38.4800 12.8100 -0.0574
38.5000 12.8167 -0.0682
38.5200 12.8233 -0.0735
38.5400 12.8299 -0.0617
38.5600 12.8366 -0.0580
38.5800 12.8433 -0.0678
38.6000 12.8500 -0.0618
38.6200 12.8566 -0.0697
38.6400 12.8633 -0.0685
38.6600 12.8700 -0.0556
38.6800 12.8767 -0.0696
38.7000 12.8833 -0.0739
38.7200 12.8899 -0.0605
38.7400 12.8966 -0.0696
38.7600 12.9033 -0.0685
38.7800 12.9100 -0.0674
38.8000 12.9167 -0.0686
38.8200 12.9234 -0.0743
38.8400 12.9301 -0.0667
38.8600 12.9367 -0.0709
38.8800 12.9433 -0.0710
38.9000 12.9499 -0.0708
38.9200 12.9566 -0.0710
38.9400 12.9634 -0.0681
38.9600 12.9701 -0.0714
38.9800 12.9768 -0.0699
39.0000 12.9834 -0.0760
39.0200 12.9901 -0.0703
39.0400 12.9967 -0.0705
39.0600 13.0033 -0.0749
39.0800 13.0100 -0.0736
39.1000 13.0166 -0.0752
39.1200 13.0233 -0.0778
39.1400 13.0300 -0.0704
39.1600 13.0366 -0.0706
39.1800 13.0433 -0.0796
39.2000 13.0500 -0.0757
39.2200 13.0567 -0.0723
39.2400 13.0633 -0.0803
39.2600 13.0699 -0.0716
39.2800 13.0765 -0.0757
39.3000 13.0832 -0.0857
39.3200 13.0900 -0.0754
39.3400 13.0967 -0.0733
39.3600 13.1034 -0.0886
39.3800 13.1101 -0.0741
39.4000 13.1167 -0.0749
39.4200 13.1234 -0.0836
39.4400 13.1300 -0.0760
39.4600 13.1366 -0.0730
39.4800 13.1433 -0.0853
39.5000 13.1500 -0.0808
39.5200 13.1567 -0.0772
39.5400 13.1633 -0.0878
39.5600 13.1700 -0.0791
39.5800 13.1767 -0.0801
39.6000 13.1833 -0.0929
39.6200 13.1900 -0.0840
39.6400 13.1966 -0.0773
39.6600 13.2033 -0.0895
39.6800 13.2100 -0.0818
39.7000 13.2167 -0.0786
39.7200 13.2234 -0.0915
39.7400 13.2301 -0.0883
39.7600 13.2367 -0.0790
39.7800 13.2433 -0.0972
39.8000 13.2499 -0.0778
39.8200 13.2566 -0.0804
39.8400 13.2633 -0.0973
39.8600 13.2700 -0.0770
39.8800 13.2767 -0.0856
39.9000 13.2834 -0.0957
39.9200 13.2901 -0.0739
39.9400 13.2967 -0.0834
39.9600 13.3033 -0.1004
39.9800 13.3099 -0.0794
40.0000 13.3166 -0.0860
40.0200 13.3233 -0.0982
40.0400 13.3300 -0.0759
40.0600 13.3366 -0.0926
40.0800 13.3433 -0.0909
40.1000 13.3500 -0.0759
40.1200 13.3566 -0.0894
40.1400 13.3633 -0.0956
40.1600 13.3699 -0.0808
40.1800 13.3766 -0.0922
40.2000 13.3833 -0.0960
40.2200 13.3900 -0.0819
40.2400 13.3967 -0.0963
40.2600 13.4034 -0.0963
40.2800 13.4101 -0.0884
40.3000 13.4168 -0.0899
40.3200 13.4234 -0.0917
40.3400 13.4300 -0.0918
40.3600 13.4366 -0.0879
40.3800 13.4433 -0.0857
40.4000 13.4500 -0.0927
40.4200 13.4567 -0.0948
40.4400 13.4634 -0.0907
40.4600 13.4701 -0.0920
40.4800 13.4767 -0.0975
40.5000 13.4833 -0.0869
40.5200 13.4899 -0.1003
40.5400 13.4966 -0.0860
40.5600 13.5033 -0.0845
40.5800 13.5100 -0.1061
40.6000 13.5166 -0.0898
40.6200 13.5233 -0.0848
40.6400 13.5300 -0.1045
40.6600 13.5367 -0.0914
40.6800 13.5433 -0.0942
40.7000 13.5499 -0.1031
40.7200 13.5565 -0.0851
40.7400 13.5632 -0.0912
40.7600 13.5700 -0.1042
40.7800 13.5767 -0.0858
40.8000 13.5833 -0.0991
40.8200 13.5900 -0.1047
40.8400 13.5967 -0.0901
40.8600 13.6033 -0.0979
40.8800 13.6099 -0.1007
40.9000 13.6165 -0.0912
40.9200 13.6232 -0.1039
40.9400 13.6300 -0.0944
40.9600 13.6367 -0.0883
40.9800 13.6434 -0.1065
41.0000 13.6501 -0.0965
41.0200 13.6567 -0.0963
41.0400 13.6634 -0.1070
41.0600 13.6700 -0.0973
41.0800 13.6767 -0.0952
41.1000 13.6834 -0.1085
41.1200 13.6900 -0.0978
41.1400 13.6967 -0.0993
41.1600 13.7034 -0.0985
41.1800 13.7101 -0.0981
41.2000 13.7168 -0.1029
41.2200 13.7234 -0.1024
41.2400 13.7300 -0.0975
41.2600 13.7366 -0.1027
41.2800 13.7433 -0.1029
41.3000 13.7500 -0.1015
41.3200 13.7567 -0.1069
41.3400 13.7634 -0.0988
41.3600 13.7700 -0.1029
41.3800 13.7767 -0.1101
41.4000 13.7833 -0.0956
41.4200 13.7899 -0.1032
41.4400 13.7966 -0.1081
41.4600 13.8032 -0.0984
41.4800 13.8100 -0.1083
41.5000 13.8167 -0.1063
41.5200 13.8233 -0.0992
41.5400 13.8300 -0.1142
41.5600 13.8367 -0.1059
41.5800 13.8434 -0.1022
41.6000 13.8500 -0.1149
41.6200 13.8566 -0.0994
41.6400 13.8633 -0.1061
41.6600 13.8700 -0.1120
41.6800 13.8767 -0.1003
41.7000 13.8833 -0.1117
41.7200 13.8900 -0.1109
41.7400 13.8967 -0.1025
41.7600 13.9034 -0.1200
41.7800 13.9099 -0.1023
41.8000 13.9166 -0.0987
41.8200 13.9233 -0.1233
41.8400 13.9300 -0.1133
41.8600 13.9367 -0.0961
41.8800 13.9434 -0.1155
41.9000 13.9501 -0.1074
41.9200 13.9568 -0.1108
41.9400 13.9634 -0.1193
41.9600 13.9700 -0.1046
41.9800 13.9766 -0.1106
42.0000 13.9833 -0.1206
42.0200 13.9900 -0.1042
42.0400 13.9967 -0.1138
42.0600 14.0034 -0.1192
42.0800 14.0100 -0.1100
42.1000 14.0167 -0.1136
42.1200 14.0234 -0.1135
42.1400 14.0300 -0.1155
42.1600 14.0365 -0.1159
42.1800 14.0432 -0.1091
42.2000 14.0499 -0.1132
42.2200 14.0566 -0.1217
42.2400 14.0633 -0.1111
42.2600 14.0700 -0.1135
42.2800 14.0767 -0.1167
42.3000 14.0834 -0.1143
42.3200 14.0900 -0.1172
42.3400 14.0966 -0.1162
42.3600 14.1033 -0.1118
42.3800 14.1100 -0.1227
42.4000 14.1167 -0.1206
42.4200 14.1234 -0.1119
42.4400 14.1301 -0.1194
42.4600 14.1368 -0.1266
42.4800 14.1434 -0.1122
42.5000 14.1500 -0.1171
42.5200 14.1566 -0.1201
42.5400 14.1633 -0.1138
42.5600 14.1700 -0.1221
42.5800 14.1767 -0.1272
42.6000 14.1833 -0.1128
42.6200 14.1900 -0.1160
42.6400 14.1967 -0.1269
42.6600 14.2034 -0.1265
42.6800 14.2100 -0.1239
42.7000 14.2166 -0.1216
42.7200 14.2233 -0.1177
42.7400 14.2300 -0.1261
42.7600 14.2367 -0.1240
42.7800 14.2434 -0.1196
42.8000 14.2500 -0.1196
42.8200 14.2567 -0.1224
42.8400 14.2634 -0.1241
42.8600 14.2700 -0.1268
42.8800 14.2766 -0.1275
42.9000 14.2832 -0.1207
42.9200 14.2899 -0.1242
42.9400 14.2967 -0.1268
42.9600 14.3034 -0.1174
42.9800 14.3100 -0.1252
43.0000 14.3167 -0.1294
43.0200 14.3234 -0.1183
43.0400 14.3300 -0.1296
43.0600 14.3366 -0.1296
43.0800 14.3433 -0.1200
43.1000 14.3500 -0.1269
43.1200 14.3567 -0.1359
43.1400 14.3634 -0.1184
43.1600 14.3701 -0.1300
43.1800 14.3767 -0.1315
43.2000 14.3834 -0.1157
43.2200 14.3900 -0.1338
43.2400 14.3966 -0.1347
43.2600 14.4033 -0.1177
43.2800 14.4100 -0.1338
43.3000 14.4167 -0.1319
43.3200 14.4234 -0.1210
43.3400 14.4301 -0.1369
43.3600 14.4368 -0.1362
43.3800 14.4434 -0.1153
43.4000 14.4500 -0.1324
43.4200 14.4566 -0.1344
43.4400 14.4633 -0.1206
43.4600 14.4700 -0.1355
43.4800 14.4767 -0.1343
43.5000 14.4833 -0.1238
43.5200 14.4900 -0.1362
43.5400 14.4967 -0.1340
43.5600 14.5034 -0.1290
43.5800 14.5100 -0.1359
43.6000 14.5166 -0.1313
43.6200 14.5232 -0.1226
43.6400 14.5299 -0.1391
43.6600 14.5366 -0.1379
43.6800 14.5433 -0.1223
43.7000 14.5500 -0.1370
43.7200 14.5567 -0.1386
43.7400 14.5634 -0.1299
43.7600 14.5700 -0.1354
43.7800 14.5766 -0.1412
43.8000 14.5833 -0.1301
43.8200 14.5900 -0.1361
43.8400 14.5967 -0.1378
43.8600 14.6034 -0.1279
43.8800 14.6101 -0.1389
43.9000 14.6168 -0.1391
43.9200 14.6234 -0.1318
43.9400 14.6300 -0.1429
43.9600 14.6366 -0.1416
43.9800 14.6433 -0.1309
44.0000 14.6500 -0.1415
44.0200 14.6567 -0.1423
44.0400 14.6634 -0.1335
44.0600 14.6701 -0.1458
44.0800 14.6767 -0.1384
44.1000 14.6834 -0.1371
44.1200 14.6900 -0.1473
44.1400 14.6966 -0.1397
44.1600 14.7032 -0.1373
44.1800 14.7099 -0.1423
44.2000 14.7166 -0.1379
44.2200 14.7233 -0.1435
44.2400 14.7300 -0.1425
44.2600 14.7367 -0.1371
44.2800 14.7434 -0.1472
44.3000 14.7500 -0.1427
44.3200 14.7566 -0.1395
44.3400 14.7632 -0.1452
44.3600 14.7699 -0.1430
44.3800 14.7766 -0.1420
44.4000 14.7833 -0.1499
44.4200 14.7900 -0.1380
44.4400 14.7967 -0.1459
44.4600 14.8033 -0.1509
44.4800 14.8100 -0.1391
44.5000 14.8166 -0.1434
44.5200 14.8233 -0.1533
44.5400 14.8300 -0.1405
44.5600 14.8367 -0.1539
44.5800 14.8434 -0.1487
44.6000 14.8501 -0.1431
44.6200 14.8567 -0.1510
44.6400 14.8634 -0.1504
44.6600 14.8701 -0.1461
44.6800 14.8767 -0.1553
44.7000 14.8833 -0.1462
44.7200 14.8900 -0.1474
44.7400 14.8967 -0.1524
44.7600 14.9034 -0.1482
44.7800 14.9101 -0.1533
44.8000 14.9168 -0.1512
44.8200 14.9234 -0.1492
44.8400 14.9300 -0.1543
44.8600 14.9366 -0.1528
44.8800 14.9432 -0.1474
44.9000 14.9499 -0.1566
44.9200 14.9566 -0.1521
44.9400 14.9633 -0.1515
44.9600 14.9700 -0.1526
44.9800 14.9767 -0.1506
45.0000 14.9833 -0.1503
45.0200 14.9900 -0.1581
45.0400 14.9966 -0.1539
45.0600 15.0032 -0.1519
45.0800 15.0100 -0.1569
45.1000 15.0167 -0.1573
45.1200 15.0234 -0.1527
45.1400 15.0300 -0.1548
45.1600 15.0367 -0.1561
45.1800 15.0434 -0.1547
45.2000 15.0500 -0.1564
45.2200 15.0567 -0.1533
45.2400 15.0633 -0.1519
45.2600 15.0700 -0.1607
45.2800 15.0767 -0.1548
45.3000 15.0834 -0.1557
45.3200 15.0901 -0.1587
45.3400 15.0968 -0.1575
45.3600 15.1034 -0.1576
45.3800 15.1101 -0.1594
45.4000 15.1166 -0.1526
45.4200 15.1232 -0.1566
45.4400 15.1299 -0.1555
45.4600 15.1367 -0.1579
45.4800 15.1434 -0.1622
45.5000 15.1501 -0.1573
45.5200 15.1568 -0.1521
45.5400 15.1634 -0.1678
45.5600 15.1700 -0.1572
45.5800 15.1766 -0.1532
45.6000 15.1832 -0.1661
45.6200 15.1899 -0.1492
45.6400 15.1967 -0.1575
45.6600 15.2034 -0.1663
45.6800 15.2100 -0.1533
45.7000 15.2167 -0.1567
45.7200 15.2234 -0.1716
45.7400 15.2300 -0.1540
45.7600 15.2366 -0.1599
45.7800 15.2432 -0.1697
45.8000 15.2499 -0.1578
45.8200 15.2566 -0.1563
45.8400 15.2633 -0.1664
45.8600 15.2700 -0.1542
45.8800 15.2767 -0.1674
45.9000 15.2834 -0.1606
45.9200 15.2901 -0.1604
45.9400 15.2966 -0.1679
45.9600 15.3033 -0.1597
45.9800 15.3099 -0.1620
46.0000 15.3167 -0.1703
46.0200 15.3233 -0.1628
46.0400 15.3300 -0.1640
46.0600 15.3367 -0.1668
46.0800 15.3434 -0.1592
46.1000 15.3501 -0.1684
46.1200 15.3567 -0.1690
46.1400 15.3633 -0.1595
46.1600 15.3700 -0.1672
46.1800 15.3767 -0.1699
46.2000 15.3834 -0.1669
46.2200 15.3901 -0.1688
46.2400 15.3967 -0.1670
46.2600 15.4034 -0.1726
46.2800 15.4100 -0.1692
46.3000 15.4166 -0.1656
46.3200 15.4233 -0.1708
46.3400 15.4299 -0.1680
46.3600 15.4366 -0.1623
46.3800 15.4433 -0.1742
46.4000 15.4500 -0.1733
46.4200 15.4567 -0.1646
46.4400 15.4634 -0.1759
46.4600 15.4700 -0.1744
46.4800 15.4766 -0.1661
46.5000 15.4832 -0.1817
46.5200 15.4899 -0.1682
46.5400 15.4966 -0.1675
46.5600 15.5033 -0.1773
46.5800 15.5100 -0.1689
46.6000 15.5167 -0.1707
46.6200 15.5234 -0.1785
46.6400 15.5300 -0.1734
46.6600 15.5366 -0.1698
46.6800 15.5433 -0.1781
46.7000 15.5499 -0.1745
46.7200 15.5566 -0.1763
46.7400 15.5633 -0.1825
46.7600 15.5700 -0.1702
46.7800 15.5767 -0.1755
46.8000 15.5834 -0.1797
46.8200 15.5901 -0.1778
46.8400 15.5967 -0.1757
46.8600 15.6033 -0.1793
46.8800 15.6100 -0.1775
46.9000 15.6167 -0.1751
46.9200 15.6234 -0.1871
46.9400 15.6301 -0.1801
46.9600 15.6367 -0.1745
46.9800 15.6434 -0.1798
47.0000 15.6500 -0.1801
47.0200 15.6566 -0.1761
47.0400 15.6632 -0.1818
47.0600 15.6699 -0.1827
47.0800 15.6766 -0.1744
47.1000 15.6834 -0.1803
47.1200 15.6900 -0.1864
47.1400 15.6967 -0.1768
47.1600 15.7034 -0.1837
47.1800 15.7100 -0.1848
47.2000 15.7167 -0.1758
47.2200 15.7233 -0.1795
47.2400 15.7299 -0.1856
47.2600 15.7366 -0.1798
47.2800 15.7433 -0.1860
47.3000 15.7500 -0.1822
47.3200 15.7567 -0.1803
47.3400 15.7634 -0.1842
47.3600 15.7700 -0.1861
47.3800 15.7766 -0.1797
47.4000 15.7832 -0.1846
47.4200 15.7899 -0.1842
47.4400 15.7966 -0.1762
47.4600 15.8034 -0.1892
47.4800 15.8101 -0.1843
47.5000 15.8168 -0.1811
47.5200 15.8234 -0.1899
47.5400 15.8301 -0.1901
47.5600 15.8366 -0.1827
47.5800 15.8433 -0.1889
47.6000 15.8499 -0.1846
47.6200 15.8567 -0.1795
47.6400 15.8634 -0.1966
47.6600 15.8701 -0.1876
47.6800 15.8768 -0.1761
47.7000 15.8834 -0.1975
47.7200 15.8901 -0.1910
47.7400 15.8967 -0.1823
47.7600 15.9033 -0.1933
47.7800 15.9099 -0.1927
47.8000 15.9167 -0.1815
47.8200 15.9233 -0.1936
47.8400 15.9300 -0.1886
47.8600 15.9367 -0.1863
47.8800 15.9434 -0.1931
47.9000 15.9500 -0.1898
47.9200 15.9566 -0.1854
47.9400 15.9632 -0.1964
47.9600 15.9699 -0.1872
47.9800 15.9766 -0.1863
48.0000 15.9833 -0.1964
48.0200 15.9900 -0.1925
48.0400 15.9967 -0.1896
48.0600 16.0034 -0.1944
48.0800 16.0100 -0.1945
48.1000 16.0167 -0.1909
48.1200 16.0233 -0.1909
48.1400 16.0300 -0.1974
48.1600 16.0367 -0.1928
48.1800 16.0434 -0.1961
48.2000 16.0501 -0.2011
48.2200 16.0567 -0.1888
48.2400 16.0634 -0.1948
48.2600 16.0701 -0.2054
48.2800 16.0767 -0.1896
48.3000 16.0833 -0.1915
48.3200 16.0899 -0.2011
48.3400 16.0966 -0.1915
48.3600 16.1033 -0.2014
48.3800 16.1100 -0.2026
48.4000 16.1167 -0.1948
48.4200 16.1234 -0.1990
48.4400 16.1301 -0.2029
48.4600 16.1367 -0.1943
48.4800 16.1433 -0.2028
48.5000 16.1499 -0.2010
48.5200 16.1566 -0.1901
48.5400 16.1633 -0.1984
48.5600 16.1700 -0.2104
48.5800 16.1767 -0.1977
48.6000 16.1834 -0.2023
48.6200 16.1901 -0.2070
48.6400 16.1966 -0.1969
48.6600 16.2032 -0.2007
48.6800 16.2099 -0.2071
48.7000 16.2166 -0.1971
48.7200 16.2233 -0.2034
48.7400 16.2300 -0.2064
48.7600 16.2367 -0.2015
48.7800 16.2433 -0.2057
48.8000 16.2500 -0.2074
48.8200 16.2567 -0.2057
48.8400 16.2633 -0.2041
48.8600 16.2699 -0.2054
48.8800 16.2766 -0.2018
48.9000 16.2833 -0.2042
48.9200 16.2900 -0.2093
48.9400 16.2967 -0.2029
48.9600 16.3034 -0.2004
48.9800 16.3101 -0.2085
49.0000 16.3167 -0.2055
49.0200 16.3233 -0.1995
49.0400 16.3299 -0.2119
49.0600 16.3366 -0.2042
49.0800 16.3434 -0.2020
49.1000 16.3501 -0.2131
49.1200 16.3567 -0.2050
49.1400 16.3634 -0.2028
49.1600 16.3700 -0.2117
49.1800 16.3766 -0.2045
49.2000 16.3832 -0.2019
49.2200 16.3899 -0.2105
49.2400 16.3966 -0.2014
49.2600 16.4033 -0.2110
49.2800 16.4100 -0.2191
49.3000 16.4167 -0.2027
49.3200 16.4233 -0.2053
49.3400 16.4300 -0.2207
49.3600 16.4366 -0.2064
49.3800 16.4433 -0.2107
49.4000 16.4499 -0.2140
49.4200 16.4566 -0.2063
49.4400 16.4633 -0.2089
49.4600 16.4700 -0.2102
49.4800 16.4767 -0.2081
49.5000 16.4834 -0.2136
49.5200 16.4901 -0.2141
49.5400 16.4967 -0.2071
49.5600 16.5033 -0.2174
49.5800 16.5099 -0.2118
49.6000 16.5166 -0.2093
49.6200 16.5234 -0.2188
49.6400 16.5301 -0.2145
49.6600 16.5367 -0.2103
49.6800 16.5434 -0.2150
49.7000 16.5501 -0.2122
49.7200 16.5567 -0.2164
49.7400 16.5633 -0.2148
49.7600 16.5699 -0.2126
49.7800 16.5766 -0.2162
49.8000 16.5833 -0.2204
49.8200 16.5900 -0.2104
49.8400 16.5967 -0.2169
49.8600 16.6034 -0.2152
49.8800 16.6101 -0.2119
49.9000 16.6167 -0.2197
49.9200 16.6233 -0.2131
49.9400 16.6300 -0.2137
49.9600 16.6366 -0.2265
49.9800 16.6433 -0.2154
50.0000 16.6500 -0.2126
50.0200 16.6567 -0.2245
50.0400 16.6634 -0.2205
50.0600 16.6701 -0.2155
50.0800 16.6767 -0.2236
50.1000 16.6833 -0.2160
50.1200 16.6899 -0.2137
50.1400 16.6966 -0.2300
50.1600 16.7033 -0.2230
50.1800 16.7100 -0.2196
50.2000 16.7167 -0.2263
50.2200 16.7234 -0.2212
50.2400 16.7300 -0.2214
50.2600 16.7367 -0.2313
50.2800 16.7433 -0.2185
50.3000 16.7499 -0.2181
50.3200 16.7566 -0.2283
50.3400 16.7633 -0.2191
50.3600 16.7700 -0.2231
50.3800 16.7767 -0.2338
50.4000 16.7834 -0.2206
50.4200 16.7901 -0.2289
50.4400 16.7967 -0.2286
50.4600 16.8033 -0.2204
50.4800 16.8100 -0.2312
50.5000 16.8166 -0.2306
50.5200 16.8233 -0.2210
50.5400 16.8300 -0.2307
50.5600 16.8367 -0.2304
50.5800 16.8434 -0.2227
50.6000 16.8501 -0.2319
50.6200 16.8567 -0.2319
50.6400 16.8633 -0.2233
50.6600 16.8699 -0.2348
50.6800 16.8766 -0.2244
50.7000 16.8833 -0.2290
50.7200 16.8901 -0.2323
50.7400 16.8967 -0.2262
50.7600 16.9034 -0.2288
50.7800 16.9100 -0.2345
50.8000 16.9167 -0.2260
50.8200 16.9233 -0.2309
50.8400 16.9299 -0.2353
50.8600 16.9366 -0.2281
50.8800 16.9433 -0.2351
50.9000 16.9500 -0.2352
50.9200 16.9566 -0.2313
50.9400 16.9633 -0.2355
50.9600 16.9700 -0.2300
50.9800 16.9767 -0.2300
51.0000 16.9833 -0.2401
51.0200 16.9899 -0.2277
51.0400 16.9966 -0.2356
51.0600 17.0033 -0.2359
51.0800 17.0100 -0.2327
51.1000 17.0167 -0.2397
51.1200 17.0234 -0.2337
51.1400 17.0301 -0.2357
51.1600 17.0367 -0.2426
51.1800 17.0433 -0.2306
51.2000 17.0499 -0.2345
51.2200 17.0566 -0.2422
51.2400 17.0633 -0.2356
51.2600 17.0700 -0.2349
51.2800 17.0767 -0.2469
51.3000 17.0834 -0.2290
51.3200 17.0901 -0.2383
51.3400 17.0967 -0.2470
51.3600 17.1033 -0.2358
51.3800 17.1099 -0.2405
51.4000 17.1166 -0.2406
51.4200 17.1233 -0.2348
51.4400 17.1300 -0.2427
51.4600 17.1367 -0.2451
51.4800 17.1434 -0.2406
51.5000 17.1501 -0.2442
51.5200 17.1567 -0.2456
51.5400 17.1633 -0.2366
51.5600 17.1699 -0.2456
51.5800 17.1766 -0.2465
51.6000 17.1833 -0.2434
51.6200 17.1900 -0.2408
51.6400 17.1967 -0.2457
51.6600 17.2034 -0.2439
51.6800 17.2101 -0.2393
51.7000 17.2167 -0.2536
51.7200 17.2233 -0.2457
51.7400 17.2299 -0.2382
51.7600 17.2366 -0.2493
51.7800 17.2433 -0.2481
51.8000 17.2500 -0.2419
51.8200 17.2567 -0.2513
51.8400 17.2634 -0.2448
51.8600 17.2701 -0.2414
51.8800 17.2767 -0.2538
51.9000 17.2833 -0.2485
51.9200 17.2900 -0.2442
51.9400 17.2966 -0.2551
51.9600 17.3033 -0.2464
51.9800 17.3100 -0.2498
52.0000 17.3167 -0.2515
52.0200 17.3234 -0.2501
52.0400 17.3301 -0.2469
52.0600 17.3367 -0.2551
52.0800 17.3433 -0.2481
52.1000 17.3499 -0.2492
52.1200 17.3566 -0.2611
52.1400 17.3633 -0.2433
52.1600 17.3700 -0.2520
52.1800 17.3767 -0.2614
52.2000 17.3834 -0.2534
52.2200 17.3901 -0.2545
52.2400 17.3967 -0.2596
52.2600 17.4033 -0.2553
52.2800 17.4099 -0.2527
52.3000 17.4166 -0.2535
52.3200 17.4233 -0.2596
52.3400 17.4300 -0.2611
52.3600 17.4366 -0.2557
52.3800 17.4433 -0.2547
52.4000 17.4500 -0.2613
52.4200 17.4567 -0.2623
52.4400 17.4633 -0.2618
52.4600 17.4699 -0.2543
52.4800 17.4766 -0.2593
52.5000 17.4833 -0.2630
52.5200 17.4900 -0.2571
52.5400 17.4967 -0.2591
52.5600 17.5034 -0.2677
52.5800 17.5101 -0.2576
52.6000 17.5167 -0.2601
52.6200 17.5234 -0.2674
52.6400 17.5299 -0.2652
52.6600 17.5366 -0.2621
52.6800 17.5433 -0.2645
52.7000 17.5500 -0.2597
52.7200 17.5567 -0.2686
52.7400 17.5634 -0.2601
52.7600 17.5701 -0.2624
52.7800 17.5767 -0.2744
52.8000 17.5833 -0.2649
52.8200 17.5899 -0.2602
52.8400 17.5966 -0.2719
52.8600 17.6033 -0.2688
52.8800 17.6100 -0.2660
52.9000 17.6167 -0.2717
52.9200 17.6234 -0.2633
52.9400 17.6300 -0.2656
52.9600 17.6367 -0.2779
52.9800 17.6433 -0.2670
53.0000 17.6499 -0.2661
53.0200 17.6566 -0.2771
53.0400 17.6633 -0.2608
53.0600 17.6700 -0.2718
53.0800 17.6767 -0.2750
53.1000 17.6833 -0.2694
53.1200 17.6900 -0.2676
53.1400 17.6967 -0.2730
53.1600 17.7033 -0.2674
53.1800 17.7099 -0.2725
53.2000 17.7166 -0.2760
53.2200 17.7233 -0.2687
53.2400 17.7300 -0.2730
53.2600 17.7367 -0.2781
53.2800 17.7434 -0.2714
53.3000 17.7501 -0.2788
53.3200 17.7567 -0.2761
53.3400 17.7633 -0.2748
53.3600 17.7699 -0.2743
53.3800 17.7766 -0.2753
53.4000 17.7833 -0.2794
53.4200 17.7901 -0.2797
53.4400 17.7968 -0.2782
53.4600 17.8034 -0.2748
53.4800 17.8101 -0.2795
53.5000 17.8167 -0.2833
53.5200 17.8233 -0.2788
53.5400 17.8299 -0.2772
53.5600 17.8366 -0.2837
53.5800 17.8433 -0.2802
53.6000 17.8500 -0.2771
53.6200 17.8566 -0.2837
53.6400 17.8633 -0.2853
53.6600 17.8700 -0.2763
53.6800 17.8767 -0.2868
53.7000 17.8833 -0.2875
53.7200 17.8899 -0.2801
53.7400 17.8966 -0.2778
53.7600 17.9033 -0.2860
53.7800 17.9100 -0.2854
53.8000 17.9167 -0.2830
53.8200 17.9233 -0.2873
53.8400 17.9300 -0.2810
53.8600 17.9367 -0.2866
53.8800 17.9433 -0.2913
53.9000 17.9499 -0.2807
53.9200 17.9566 -0.2901
53.9400 17.9633 -0.2888
53.9600 17.9700 -0.2829
53.9800 17.9767 -0.2938
54.0000 17.9834 -0.2928
54.0200 17.9901 -0.2805
54.0400 17.9967 -0.2979
54.0600 18.0034 -0.2934
54.0800 18.0100 -0.2838
54.1000 18.0166 -0.2980
54.1200 18.0233 -0.2949
54.1400 18.0300 -0.2844
54.1600 18.0367 -0.2984
54.1800 18.0434 -0.2937
54.2000 18.0501 -0.2841
54.2200 18.0567 -0.2976
54.2400 18.0634 -0.2967
54.2600 18.0700 -0.2834
54.2800 18.0766 -0.2995
54.3000 18.0833 -0.2972
54.3200 18.0900 -0.2840
54.3400 18.0967 -0.3006
54.3600 18.1034 -0.2963
54.3800 18.1100 -0.2921
54.4000 18.1167 -0.3013
54.4200 18.1233 -0.2967
54.4400 18.1299 -0.2893
54.4600 18.1366 -0.3034
54.4800 18.1433 -0.2936
54.5000 18.1500 -0.2968
54.5200 18.1566 -0.3041
54.5400 18.1633 -0.2964
54.5600 18.1700 -0.2935
54.5800 18.1767 -0.3046
54.6000 18.1833 -0.2997
54.6200 18.1899 -0.2965
54.6400 18.1966 -0.3027
54.6600 18.2033 -0.2992
54.6800 18.2100 -0.2962
54.7000 18.2167 -0.3104
54.7200 18.2234 -0.2983
54.7400 18.2301 -0.2989
54.7600 18.2368 -0.3093
54.7800 18.2434 -0.3028
54.8000 18.2500 -0.2994
54.8200 18.2566 -0.3071
54.8400 18.2633 -0.3070
54.8600 18.2700 -0.2999
54.8800 18.2767 -0.3086
54.9000 18.2834 -0.3030
54.9200 18.2901 -0.3041
54.9400 18.2967 -0.3053
54.9600 18.3034 -0.3094
54.9800 18.3099 -0.3045
55.0000 18.3166 -0.3033
55.0200 18.3233 -0.3108
55.0400 18.3300 -0.3055
55.0600 18.3367 -0.3071
55.0800 18.3433 -0.3088
55.1000 18.3500 -0.3078
55.1200 18.3567 -0.3122
55.1400 18.3633 -0.3119
55.1600 18.3699 -0.3069
55.1800 18.3765 -0.3056
55.2000 18.3832 -0.3180
55.2200 18.3899 -0.3084
55.2400 18.3966 -0.3082
55.2600 18.4033 -0.3178
55.2800 18.4100 -0.3103
55.3000 18.4167 -0.3085
55.3200 18.4233 -0.3153
55.3400 18.4299 -0.3127
55.3600 18.4366 -0.3120
55.3800 18.4433 -0.3171
55.4000 18.4500 -0.3141
55.4200 18.4567 -0.3186
55.4400 18.4634 -0.3168
55.4600 18.4701 -0.3119
55.4800 18.4768 -0.3166
55.5000 18.4834 -0.3211
55.5200 18.4900 -0.3138
55.5400 18.4966 -0.3137
55.5600 18.5033 -0.3155
55.5800 18.5100 -0.3175
55.6000 18.5167 -0.3164
55.6200 18.5234 -0.3182
55.6400 18.5301 -0.3190
55.6600 18.5368 -0.3190
55.6800 18.5434 -0.3156
55.7000 18.5500 -0.3227
55.7200 18.5566 -0.3179
55.7400 18.5632 -0.3165
55.7600 18.5700 -0.3194
55.7800 18.5767 -0.3218
55.8000 18.5834 -0.3201
55.8200 18.5900 -0.3293
55.8400 18.5967 -0.3223
55.8600 18.6034 -0.3189
55.8800 18.6100 -0.3272
55.9000 18.6166 -0.3219
55.9200 18.6232 -0.3216
55.9400 18.6300 -0.3293
55.9600 18.6367 -0.3195
55.9800 18.6433 -0.3250
56.0000 18.6500 -0.3289
56.0200 18.6567 -0.3208
56.0400 18.6634 -0.3282
56.0600 18.6700 -0.3314
56.0800 18.6766 -0.3206
56.1000 18.6833 -0.3283
56.1200 18.6900 -0.3292
56.1400 18.6967 -0.3242
56.1600 18.7034 -0.3349
56.1800 18.7101 -0.3262
56.2000 18.7168 -0.3249
56.2200 18.7234 -0.3365
56.2400 18.7300 -0.3303
56.2600 18.7366 -0.3237
56.2800 18.7433 -0.3353
56.3000 18.7500 -0.3296
56.3200 18.7567 -0.3328
56.3400 18.7634 -0.3301
56.3600 18.7701 -0.3306
56.3800 18.7767 -0.3306
56.4000 18.7834 -0.3345
56.4200 18.7900 -0.3296
56.4400 18.7966 -0.3346
56.4600 18.8033 -0.3317
56.4800 18.8100 -0.3322
56.5000 18.8167 -0.3372
56.5200 18.8234 -0.3347
56.5400 18.8300 -0.3396
56.5600 18.8367 -0.3361
56.5800 18.8434 -0.3344
56.6000 18.8500 -0.3350
56.6200 18.8566 -0.3298
56.6400 18.8632 -0.3384
56.6600 18.8699 -0.3348
56.6800 18.8766 -0.3359
56.7000 18.8833 -0.3387
56.7200 18.8900 -0.3379
56.7400 18.8967 -0.3425
56.7600 18.9034 -0.3386
56.7800 18.9100 -0.3413
56.8000 18.9166 -0.3404
56.8200 18.9233 -0.3393
56.8400 18.9300 -0.3392
56.8600 18.9367 -0.3410
56.8800 18.9434 -0.3405
56.9000 18.9501 -0.3427
56.9200 18.9568 -0.3441
56.9400 18.9634 -0.3429
56.9600 18.9700 -0.3366
56.9800 18.9766 -0.3498
57.0000 18.9833 -0.3415
57.0200 18.9900 -0.3429
57.0400 18.9967 -0.3469
57.0600 19.0034 -0.3408
57.0800 19.0100 -0.3434
57.1000 19.0167 -0.3500
57.1200 19.0234 -0.3444
57.1400 19.0300 -0.3455
57.1600 19.0366 -0.3514
57.1800 19.0432 -0.3438
57.2000 19.0499 -0.3423
57.2200 19.0566 -0.3565
57.2400 19.0633 -0.3456
57.2600 19.0700 -0.3443
57.2800 19.0767 -0.3539
57.3000 19.0834 -0.3431
57.3200 19.0900 -0.3504
57.3400 19.0966 -0.3544
57.3600 19.1032 -0.3469
57.3800 19.1099 -0.3516
57.4000 19.1167 -0.3535
57.4200 19.1233 -0.3413
57.4400 19.1300 -0.3595
57.4600 19.1367 -0.3542
57.4800 19.1434 -0.3468
57.5000 19.1500 -0.3580
57.5200 19.1566 -0.3499
57.5400 19.1633 -0.3507
57.5600 19.1700 -0.3591
57.5800 19.1767 -0.3533
57.6000 19.1834 -0.3577
57.6200 19.1900 -0.3569
57.6400 19.1967 -0.3554
57.6600 19.2034 -0.3534
57.6800 19.2100 -0.3612
57.7000 19.2166 -0.3566
57.7200 19.2233 -0.3553
57.7400 19.2300 -0.3615
57.7600 19.2367 -0.3617
57.7800 19.2434 -0.3546
57.8000 19.2501 -0.3620
57.8200 19.2568 -0.3612
57.8400 19.2634 -0.3587
57.8600 19.2700 -0.3615
57.8800 19.2766 -0.3594
57.9000 19.2832 -0.3540
57.9200 19.2899 -0.3611
57.9400 19.2966 -0.3664
57.9600 19.3033 -0.3575
57.9800 19.3100 -0.3632
58.0000 19.3167 -0.3670
58.0200 19.3234 -0.3620
58.0400 19.3300 -0.3682
58.0600 19.3366 -0.3698
58.0800 19.3432 -0.3645
58.1000 19.3499 -0.3671
58.1200 19.3566 -0.3671
58.1400 19.3633 -0.3663
58.1600 19.3700 -0.3717
58.1800 19.3767 -0.3710
58.2000 19.3834 -0.3641
58.2200 19.3900 -0.3772
58.2400 19.3966 -0.3708
58.2600 19.4033 -0.3685
58.2800 19.4100 -0.3763
58.3000 19.4167 -0.3752
58.3200 19.4233 -0.3674
58.3400 19.4300 -0.3783
58.3600 19.4368 -0.3751
58.3800 19.4434 -0.3730
58.4000 19.4501 -0.3771
58.4200 19.4566 -0.3754
58.4400 19.4633 -0.3705
58.4600 19.4700 -0.3812
58.4800 19.4767 -0.3725
58.5000 19.4834 -0.3781
58.5200 19.4900 -0.3839
58.5400 19.4967 -0.3753
58.5600 19.5034 -0.3771
58.5800 19.5100 -0.3794
58.6000 19.5166 -0.3811
58.6200 19.5233 -0.3735
58.6400 19.5300 -0.3825
58.6600 19.5367 -0.3903
58.6800 19.5434 -0.3789
58.7000 19.5500 -0.3812
58.7200 19.5567 -0.3868
58.7400 19.5634 -0.3832
58.7600 19.5700 -0.3854
58.7800 19.5766 -0.3881
58.8000 19.5832 -0.3813
58.8200 19.5899 -0.3881
58.8400 19.5966 -0.3976
58.8600 19.6033 -0.3722
58.8800 19.6100 -0.3908
58.9000 19.6167 -0.3946
58.9200 19.6233 -0.3812
58.9400 19.6300 -0.3968
58.9600 19.6366 -0.3947
58.9800 19.6432 -0.3802
59.0000 19.6499 -0.3944
59.0200 19.6567 -0.3977
59.0400 19.6634 -0.3840
59.0600 19.6700 -0.3974
59.0800 19.6767 -0.4016
59.1000 19.6834 -0.3850
59.1200 19.6901 -0.4011
59.1400 19.6967 -0.3987
59.1600 19.7033 -0.3900
59.1800 19.7100 -0.4064
59.2000 19.7167 -0.3940
59.2200 19.7234 -0.3904
59.2400 19.7301 -0.4045
59.2600 19.7367 -0.4006
59.2800 19.7434 -0.3966
59.3000 19.7500 -0.4222
59.3010 19.7503 -0.4239
