Raw Data
Time Displacement Force
(s) (mm) (N)
0.0000 0.0000 0.2724
0.0200 0.0000 0.2855
0.0400 0.0008 0.3403
0.0600 0.0039 0.3585
0.0800 0.0094 0.3596
0.1000 0.0151 0.3984
0.1200 0.0210 0.4395
0.1400 0.0276 0.4739
0.1600 0.0350 0.4830
0.1800 0.0424 0.4796
0.2000 0.0496 0.4829
0.2200 0.0565 0.4827
0.2400 0.0632 0.4764
0.2600 0.0698 0.4873
0.2800 0.0765 0.4862
0.3000 0.0832 0.4830
0.3200 0.0899 0.4879
0.3400 0.0967 0.4842
0.3600 0.1033 0.4863
0.3800 0.1100 0.4939
0.4000 0.1166 0.4887
0.4200 0.1233 0.4893
0.4400 0.1300 0.4932
0.4600 0.1367 0.4868
0.4800 0.1434 0.4984
0.5000 0.1501 0.4912
0.5200 0.1568 0.4929
0.5400 0.1634 0.4998
0.5600 0.1700 0.4976
0.5800 0.1766 0.5005
0.6000 0.1833 0.5078
0.6200 0.1900 0.4965
0.6400 0.1967 0.5067
0.6600 0.2034 0.5064
0.6800 0.2100 0.5069
0.7000 0.2167 0.5082
0.7200 0.2234 0.5074
0.7400 0.2300 0.5102
0.7600 0.2366 0.5194
0.7800 0.2433 0.5129
0.8000 0.2500 0.5123
0.8200 0.2566 0.5226
0.8400 0.2633 0.5175
0.8600 0.2700 0.5118
0.8800 0.2767 0.5277
0.9000 0.2833 0.5168
0.9200 0.2899 0.5175
0.9400 0.2965 0.5309
0.9600 0.3032 0.5197
0.9800 0.3099 0.5204
1.0000 0.3166 0.5300
1.0200 0.3233 0.5183
1.0400 0.3300 0.5183
1.0600 0.3367 0.5322
1.0800 0.3433 0.5236
1.1000 0.3499 0.5233
1.1200 0.3566 0.5280
1.1400 0.3633 0.5242
1.1600 0.3700 0.5216
1.1800 0.3767 0.5281
1.2000 0.3834 0.5230
1.2200 0.3901 0.5274
1.2400 0.3967 0.5237
1.2600 0.4034 0.5239
1.2800 0.4100 0.5230
1.3000 0.4166 0.5235
1.3200 0.4233 0.5236
1.3400 0.4300 0.5247
1.3600 0.4367 0.5152
1.3800 0.4434 0.5240
1.4000 0.4501 0.5251
1.4200 0.4567 0.5126
1.4400 0.4634 0.5208
1.4600 0.4700 0.5199
1.4800 0.4766 0.5112
1.5000 0.4832 0.5205
1.5200 0.4899 0.5169
1.5400 0.4966 0.5079
1.5600 0.5033 0.5186
1.5800 0.5100 0.5082
1.6000 0.5167 0.5017
1.6200 0.5233 0.5172
1.6400 0.5299 0.5068
1.6600 0.5365 0.5021
1.6800 0.5432 0.5160
1.7000 0.5500 0.5005
1.7200 0.5567 0.4981
1.7400 0.5633 0.5128
1.7600 0.5700 0.4969
1.7800 0.5767 0.4943
1.8000 0.5833 0.5084
1.8200 0.5900 0.4905
1.8400 0.5966 0.4961
1.8600 0.6033 0.5056
1.8800 0.6100 0.4907
1.9000 0.6167 0.4956
1.9200 0.6233 0.4985
1.9400 0.6300 0.4886
1.9600 0.6367 0.4954
1.9800 0.6434 0.4921
2.0000 0.6500 0.4883
2.0200 0.6566 0.4951
2.0400 0.6633 0.4958
2.0600 0.6700 0.4834
2.0800 0.6767 0.4887
2.1000 0.6834 0.4929
2.1200 0.6900 0.4867
2.1400 0.6967 0.4878
2.1600 0.7034 0.4911
2.1800 0.7100 0.4856
2.2000 0.7166 0.4844
2.2200 0.7233 0.4887
2.2400 0.7300 0.4873
2.2600 0.7367 0.4805
2.2800 0.7433 0.4883
2.3000 0.7500 0.4904
2.3200 0.7567 0.4732
2.3400 0.7633 0.4905
2.3600 0.7700 0.4855
2.3800 0.7766 0.4752
2.4000 0.7832 0.4884
2.4200 0.7899 0.4817
2.4400 0.7966 0.4705
2.4600 0.8033 0.4889
2.4800 0.8100 0.4761
2.5000 0.8167 0.4693
2.5200 0.8234 0.4844
2.5400 0.8300 0.4751
2.5600 0.8366 0.4724
2.5800 0.8433 0.4819
2.6000 0.8500 0.4660
2.6200 0.8567 0.4751
2.6400 0.8634 0.4805
2.6600 0.8701 0.4705
2.6800 0.8767 0.4753
2.7000 0.8834 0.4700
2.7200 0.8900 0.4699
2.7400 0.8966 0.4747
2.7600 0.9033 0.4714
2.7800 0.9100 0.4691
2.8000 0.9167 0.4700
2.8200 0.9234 0.4652
2.8400 0.9301 0.4713
2.8600 0.9368 0.4678
2.8800 0.9434 0.4715
2.9000 0.9500 0.4695
2.9200 0.9566 0.4633
2.9400 0.9632 0.4660
2.9600 0.9699 0.4764
2.9800 0.9766 0.4613
3.0000 0.9833 0.4683
3.0200 0.9900 0.4701
3.0400 0.9967 0.4603
3.0600 1.0034 0.4658
3.0800 1.0100 0.4691
3.1000 1.0166 0.4624
3.1200 1.0232 0.4762
3.1400 1.0299 0.4667
3.1600 1.0366 0.4570
3.1800 1.0433 0.4735
3.2000 1.0500 0.4647
3.2200 1.0567 0.4590
3.2400 1.0634 0.4687
3.2600 1.0700 0.4588
3.2800 1.0766 0.4617
3.3000 1.0833 0.4715
3.3200 1.0900 0.4585
3.3400 1.0967 0.4566
3.3600 1.1034 0.4681
3.3800 1.1101 0.4633
3.4000 1.1167 0.4578
3.4200 1.1234 0.4648
3.4400 1.1300 0.4567
3.4600 1.1366 0.4572
3.4800 1.1433 0.4677
3.5000 1.1500 0.4569
3.5200 1.1567 0.4525
3.5400 1.1634 0.4625
3.5600 1.1701 0.4525
3.5800 1.1767 0.4559
3.6000 1.1834 0.4610
3.6200 1.1900 0.4597
3.6400 1.1966 0.4513
3.6600 1.2032 0.4567
3.6800 1.2100 0.4543
3.7000 1.2167 0.4506
3.7200 1.2234 0.4540
3.7400 1.2300 0.4582
3.7600 1.2367 0.4524
3.7800 1.2434 0.4494
3.8000 1.2500 0.4527
3.8200 1.2566 0.4565
3.8400 1.2633 0.4512
3.8600 1.2700 0.4550
3.8800 1.2767 0.4468
3.9000 1.2833 0.4445
3.9200 1.2900 0.4555
3.9400 1.2967 0.4471
3.9600 1.3034 0.4494
3.9800 1.3100 0.4532
4.0000 1.3166 0.4469
4.0200 1.3232 0.4402
4.0400 1.3299 0.4561
4.0600 1.3367 0.4455
4.0800 1.3434 0.4430
4.1000 1.3500 0.4501
4.1200 1.3567 0.4394
4.1400 1.3634 0.4401
4.1600 1.3700 0.4516
4.1800 1.3766 0.4428
4.2000 1.3833 0.4403
4.2200 1.3900 0.4472
4.2400 1.3967 0.4392
4.2600 1.4034 0.4377
4.2800 1.4101 0.4566
4.3000 1.4167 0.4339
4.3200 1.4234 0.4356
4.3400 1.4300 0.4489
4.3600 1.4366 0.4330
4.3800 1.4433 0.4383
4.4000 1.4500 0.4500
4.4200 1.4567 0.4281
4.4400 1.4633 0.4418
4.4600 1.4700 0.4496
4.4800 1.4767 0.4301
4.5000 1.4834 0.4421
4.5200 1.4900 0.4416
4.5400 1.4966 0.4313
4.5600 1.5032 0.4415
4.5800 1.5099 0.4394
4.6000 1.5166 0.4335
4.6200 1.5233 0.4371
4.6400 1.5300 0.4335
4.6600 1.5367 0.4387
4.6800 1.5434 0.4350
4.7000 1.5500 0.4323
4.7200 1.5566 0.4338
4.7400 1.5633 0.4407
4.7600 1.5700 0.4353
4.7800 1.5767 0.4326
4.8000 1.5834 0.4261
4.8200 1.5901 0.4358
4.8400 1.5967 0.4358
4.8600 1.6034 0.4240
4.8800 1.6100 0.4317
4.9000 1.6166 0.4375
4.9200 1.6233 0.4244
4.9400 1.6300 0.4319
4.9600 1.6367 0.4313
4.9800 1.6434 0.4272
5.0000 1.6501 0.4334
5.0200 1.6567 0.4276
5.0400 1.6634 0.4229
5.0600 1.6700 0.4290
5.0800 1.6766 0.4253
5.1000 1.6832 0.4252
5.1200 1.6899 0.4341
5.1400 1.6966 0.4237
5.1600 1.7033 0.4258
5.1800 1.7100 0.4245
5.2000 1.7167 0.4263
5.2200 1.7234 0.4238
5.2400 1.7300 0.4279
5.2600 1.7366 0.4237
5.2800 1.7432 0.4187
5.3000 1.7499 0.4210
5.3200 1.7566 0.4236
5.3400 1.7633 0.4195
5.3600 1.7700 0.4238
5.3800 1.7767 0.4203
5.4000 1.7833 0.4172
5.4200 1.7900 0.4178
5.4400 1.7966 0.4270
5.4600 1.8033 0.4197
5.4800 1.8099 0.4188
5.5000 1.8167 0.4156
5.5200 1.8234 0.4142
5.5400 1.8301 0.4190
5.5600 1.8367 0.4204
5.5800 1.8434 0.4137
5.6000 1.8500 0.4136
5.6200 1.8566 0.4174
5.6400 1.8632 0.4159
5.6600 1.8699 0.4142
5.6800 1.8767 0.4180
5.7000 1.8834 0.4135
5.7200 1.8901 0.4115
5.7400 1.8967 0.4199
5.7600 1.9034 0.4101
5.7800 1.9100 0.4099
5.8000 1.9166 0.4129
5.8200 1.9232 0.4127
5.8400 1.9299 0.4071
5.8600 1.9366 0.4157
5.8800 1.9433 0.4076
5.9000 1.9500 0.4121
5.9200 1.9566 0.4124
5.9400 1.9633 0.4010
5.9600 1.9700 0.4073
5.9800 1.9766 0.4130
6.0000 1.9832 0.3977
6.0200 1.9899 0.4084
6.0400 1.9966 0.4109
6.0600 2.0033 0.3998
6.0800 2.0100 0.4060
6.1000 2.0167 0.4046
6.1200 2.0234 0.4050
6.1400 2.0301 0.4062
6.1600 2.0367 0.3976
6.1800 2.0433 0.4079
6.2000 2.0499 0.4035
6.2200 2.0567 0.3997
6.2400 2.0634 0.4019
6.2600 2.0701 0.3942
6.2800 2.0767 0.4044
6.3000 2.0834 0.4017
6.3200 2.0900 0.3905
6.3400 2.0966 0.4007
6.3600 2.1033 0.4081
6.3800 2.1099 0.3869
6.4000 2.1166 0.4026
6.4200 2.1233 0.4048
6.4400 2.1300 0.3870
6.4600 2.1367 0.4034
6.4800 2.1434 0.3958
6.5000 2.1501 0.3844
6.5200 2.1567 0.4059
6.5400 2.1633 0.3916
6.5600 2.1700 0.3865
6.5800 2.1767 0.4051
6.6000 2.1833 0.3950
6.6200 2.1900 0.3841
6.6400 2.1967 0.4047
6.6600 2.2034 0.3887
6.6800 2.2100 0.3868
6.7000 2.2166 0.4009
6.7200 2.2232 0.3888
6.7400 2.2299 0.3881
6.7600 2.2366 0.3983
6.7800 2.2433 0.3842
6.8000 2.2500 0.3887
6.8200 2.2567 0.3993
6.8400 2.2634 0.3862
6.8600 2.2700 0.3880
6.8800 2.2766 0.3979
6.9000 2.2833 0.3867
6.9200 2.2899 0.3879
6.9400 2.2966 0.3958
6.9600 2.3033 0.3845
6.9800 2.3100 0.3876
7.0000 2.3167 0.3920
7.0200 2.3234 0.3870
7.0400 2.3300 0.3833
7.0600 2.3367 0.3928
7.0800 2.3433 0.3867
7.1000 2.3499 0.3835
7.1200 2.3566 0.3898
7.1400 2.3633 0.3858
7.1600 2.3700 0.3776
7.1800 2.3767 0.3906
7.2000 2.3834 0.3831
7.2200 2.3900 0.3805
7.2400 2.3966 0.3861
7.2600 2.4032 0.3858
7.2800 2.4099 0.3775
7.3000 2.4167 0.3895
7.3200 2.4234 0.3811
7.3400 2.4301 0.3800
7.3600 2.4367 0.3903
7.3800 2.4434 0.3776
7.4000 2.4500 0.3760
7.4200 2.4566 0.3862
7.4400 2.4632 0.3797
7.4600 2.4699 0.3769
7.4800 2.4766 0.3859
7.5000 2.4833 0.3772
7.5200 2.4900 0.3724
7.5400 2.4967 0.3847
7.5600 2.5033 0.3813
7.5800 2.5100 0.3720
7.6000 2.5167 0.3866
7.6200 2.5233 0.3762
7.6400 2.5299 0.3751
7.6600 2.5366 0.3793
7.6800 2.5433 0.3798
7.7000 2.5500 0.3745
7.7200 2.5567 0.3798
7.7400 2.5634 0.3730
7.7600 2.5701 0.3723
7.7800 2.5767 0.3791
7.8000 2.5833 0.3780
7.8200 2.5900 0.3704
7.8400 2.5967 0.3793
7.8600 2.6034 0.3688
7.8800 2.6101 0.3687
7.9000 2.6167 0.3816
7.9200 2.6234 0.3721
7.9400 2.6300 0.3690
7.9600 2.6366 0.3793
7.9800 2.6433 0.3668
8.0000 2.6499 0.3693
8.0200 2.6566 0.3790
8.0400 2.6633 0.3662
8.0600 2.6699 0.3684
8.0800 2.6766 0.3735
8.1000 2.6833 0.3691
8.1200 2.6901 0.3660
8.1400 2.6967 0.3747
8.1600 2.7033 0.3674
8.1800 2.7099 0.3648
8.2000 2.7166 0.3667
8.2200 2.7233 0.3712
8.2400 2.7300 0.3629
8.2600 2.7367 0.3683
8.2800 2.7434 0.3653
8.3000 2.7501 0.3628
8.3200 2.7567 0.3645
8.3400 2.7633 0.3737
8.3600 2.7699 0.3599
8.3800 2.7766 0.3649
8.4000 2.7833 0.3658
8.4200 2.7900 0.3570
8.4400 2.7967 0.3677
8.4600 2.8034 0.3689
8.4800 2.8101 0.3530
8.5000 2.8167 0.3666
8.5200 2.8233 0.3671
8.5400 2.8299 0.3573
8.5600 2.8366 0.3643
8.5800 2.8434 0.3608
8.6000 2.8501 0.3550
8.6200 2.8567 0.3638
8.6400 2.8634 0.3627
8.6600 2.8701 0.3500
8.6800 2.8767 0.3628
8.7000 2.8833 0.3639
8.7200 2.8899 0.3559
8.7400 2.8966 0.3590
8.7600 2.9033 0.3636
8.7800 2.9100 0.3488
8.8000 2.9167 0.3609
8.8200 2.9234 0.3602
8.8400 2.9300 0.3518
8.8600 2.9366 0.3570
8.8800 2.9432 0.3605
8.9000 2.9499 0.3465
8.9200 2.9566 0.3621
8.9400 2.9633 0.3539
8.9600 2.9700 0.3437
8.9800 2.9766 0.3573
9.0000 2.9833 0.3503
9.0200 2.9900 0.3463
9.0400 2.9967 0.3599
9.0600 3.0033 0.3554
9.0800 3.0099 0.3476
9.1000 3.0166 0.3559
9.1200 3.0233 0.3518
9.1400 3.0300 0.3461
9.1600 3.0367 0.3549
9.1800 3.0434 0.3497
9.2000 3.0501 0.3456
9.2200 3.0567 0.3498
9.2400 3.0633 0.3497
9.2600 3.0699 0.3519
9.2800 3.0766 0.3470
9.3000 3.0833 0.3523
9.3200 3.0901 0.3471
9.3400 3.0967 0.3496
9.3600 3.1034 0.3501
9.3800 3.1101 0.3475
9.4000 3.1167 0.3429
9.4200 3.1233 0.3524
9.4400 3.1299 0.3458
9.4600 3.1366 0.3421
9.4800 3.1433 0.3516
9.5000 3.1500 0.3451
9.5200 3.1567 0.3392
9.5400 3.1634 0.3515
9.5600 3.1701 0.3428
9.5800 3.1767 0.3449
9.6000 3.1833 0.3467
9.6200 3.1899 0.3428
9.6400 3.1966 0.3375
9.6600 3.2033 0.3464
9.6800 3.2100 0.3408
9.7000 3.2167 0.3388
9.7200 3.2233 0.3459
9.7400 3.2300 0.3396
9.7600 3.2367 0.3391
9.7800 3.2433 0.3390
9.8000 3.2499 0.3432
9.8200 3.2566 0.3408
9.8400 3.2634 0.3398
9.8600 3.2701 0.3383
9.8800 3.2767 0.3396
9.9000 3.2834 0.3390
9.9200 3.2901 0.3393
9.9400 3.2967 0.3380
9.9600 3.3033 0.3408
9.9800 3.3099 0.3358
10.0000 3.3166 0.3400
10.0200 3.3234 0.3356
10.0400 3.3301 0.3349
10.0600 3.3367 0.3351
10.0800 3.3434 0.3383
10.1000 3.3500 0.3337
10.1200 3.3567 0.3390
10.1400 3.3633 0.3354
10.1600 3.3699 0.3355
10.1800 3.3766 0.3344
10.2000 3.3833 0.3303
10.2200 3.3900 0.3351
10.2400 3.3967 0.3364
10.2600 3.4034 0.3296
10.2800 3.4100 0.3308
10.3000 3.4167 0.3336
10.3200 3.4232 0.3283
10.3400 3.4299 0.3354
10.3600 3.4366 0.3296
10.3800 3.4433 0.3309
10.4000 3.4500 0.3312
10.4200 3.4567 0.3211
10.4400 3.4633 0.3285
10.4600 3.4700 0.3367
10.4800 3.4766 0.3193
10.5000 3.4833 0.3302
10.5200 3.4899 0.3351
10.5400 3.4966 0.3243
10.5600 3.5034 0.3264
10.5800 3.5100 0.3300
10.6000 3.5167 0.3237
10.6200 3.5234 0.3297
10.6400 3.5301 0.3254
10.6600 3.5367 0.3197
10.6800 3.5434 0.3292
10.7000 3.5500 0.3294
10.7200 3.5566 0.3200
10.7400 3.5633 0.3258
10.7600 3.5700 0.3263
10.7800 3.5767 0.3252
10.8000 3.5834 0.3217
10.8200 3.5901 0.3232
10.8400 3.5967 0.3237
10.8600 3.6033 0.3188
10.8800 3.6099 0.3227
10.9000 3.6166 0.3240
10.9200 3.6233 0.3173
10.9400 3.6300 0.3198
10.9600 3.6367 0.3207
10.9800 3.6434 0.3165
11.0000 3.6500 0.3273
11.0200 3.6567 0.3175
11.0400 3.6633 0.3149
11.0600 3.6699 0.3239
11.0800 3.6766 0.3205
11.1000 3.6833 0.3127
11.1200 3.6900 0.3235
11.1400 3.6966 0.3156
11.1600 3.7033 0.3110
11.1800 3.7100 0.3210
11.2000 3.7167 0.3146
11.2200 3.7233 0.3089
11.2400 3.7299 0.3275
11.2600 3.7365 0.3072
11.2800 3.7432 0.3118
11.3000 3.7500 0.3247
11.3200 3.7567 0.3087
11.3400 3.7634 0.3123
11.3600 3.7702 0.3196
11.3800 3.7768 0.3066
11.4000 3.7834 0.3150
11.4200 3.7899 0.3216
11.4400 3.7966 0.3108
11.4600 3.8033 0.3184
11.4800 3.8101 0.3144
11.5000 3.8168 0.3100
11.5200 3.8234 0.3155
11.5400 3.8301 0.3132
11.5600 3.8367 0.3111
11.5800 3.8433 0.3130
11.6000 3.8499 0.3097
11.6200 3.8566 0.3130
11.6400 3.8633 0.3113
11.6600 3.8700 0.3145
11.6800 3.8767 0.3079
11.7000 3.8833 0.3108
11.7200 3.8900 0.3116
11.7400 3.8967 0.3081
11.7600 3.9033 0.3064
11.7800 3.9099 0.3137
11.8000 3.9165 0.3087
11.8200 3.9232 0.3050
11.8400 3.9300 0.3125
11.8600 3.9366 0.3113
11.8800 3.9433 0.3028
11.9000 3.9500 0.3114
11.9200 3.9567 0.3068
11.9400 3.9633 0.3019
11.9600 3.9699 0.3141
11.9800 3.9766 0.3100
12.0000 3.9833 0.2973
12.0200 3.9900 0.3094
12.0400 3.9967 0.3108
12.0600 4.0034 0.2946
12.0800 4.0100 0.3142
12.1000 4.0167 0.3068
12.1200 4.0233 0.2958
12.1400 4.0300 0.3109
12.1600 4.0366 0.3041
12.1800 4.0434 0.2996
12.2000 4.0500 0.3124
12.2200 4.0567 0.2983
12.2400 4.0634 0.2954
12.2600 4.0701 0.3132
12.2800 4.0768 0.3000
12.3000 4.0834 0.2955
12.3200 4.0899 0.3111
12.3400 4.0966 0.2968
12.3600 4.1033 0.3003
12.3800 4.1100 0.3043
12.4000 4.1167 0.2970
12.4200 4.1234 0.3019
12.4400 4.1301 0.3025
12.4600 4.1367 0.2979
12.4800 4.1433 0.2972
12.5000 4.1499 0.3001
12.5200 4.1566 0.3014
12.5400 4.1633 0.2959
12.5600 4.1700 0.2964
12.5800 4.1767 0.3031
12.6000 4.1833 0.2927
12.6200 4.1900 0.2935
12.6400 4.1967 0.3044
12.6600 4.2034 0.2902
12.6800 4.2100 0.2987
12.7000 4.2166 0.3035
12.7200 4.2233 0.2846
12.7400 4.2300 0.2989
12.7600 4.2367 0.3019
12.7800 4.2434 0.2857
12.8000 4.2501 0.2982
12.8200 4.2568 0.3007
12.8400 4.2634 0.2776
12.8600 4.2699 0.2996
12.8800 4.2766 0.3011
12.9000 4.2833 0.2826
12.9200 4.2900 0.2972
12.9400 4.2967 0.2947
12.9600 4.3034 0.2811
12.9800 4.3101 0.3007
13.0000 4.3168 0.2894
13.0200 4.3234 0.2847
13.0400 4.3299 0.3010
13.0600 4.3366 0.2891
13.0800 4.3433 0.2831
13.1000 4.3500 0.2963
13.1200 4.3567 0.2860
13.1400 4.3634 0.2812
13.1600 4.3700 0.2953
13.1800 4.3767 0.2837
13.2000 4.3833 0.2799
13.2200 4.3899 0.2935
13.2400 4.3966 0.2889
13.2600 4.4032 0.2839
13.2800 4.4100 0.2915
13.3000 4.4167 0.2819
13.3200 4.4234 0.2800
13.3400 4.4300 0.2861
13.3600 4.4367 0.2863
13.3800 4.4433 0.2835
13.4000 4.4499 0.2861
13.4200 4.4566 0.2841
13.4400 4.4633 0.2877
13.4600 4.4700 0.2809
13.4800 4.4767 0.2848
13.5000 4.4834 0.2867
13.5200 4.4901 0.2783
13.5400 4.4967 0.2798
13.5600 4.5034 0.2848
13.5800 4.5100 0.2776
13.6000 4.5166 0.2836
13.6200 4.5233 0.2806
13.6400 4.5300 0.2820
13.6600 4.5367 0.2807
13.6800 4.5433 0.2814
13.7000 4.5500 0.2785
13.7200 4.5566 0.2836
13.7400 4.5633 0.2790
13.7600 4.5699 0.2764
13.7800 4.5766 0.2815
13.8000 4.5833 0.2773
13.8200 4.5900 0.2772
13.8400 4.5967 0.2806
13.8600 4.6034 0.2781
13.8800 4.6101 0.2749
13.9000 4.6167 0.2746
13.9200 4.6234 0.2771
13.9400 4.6299 0.2790
13.9600 4.6366 0.2770
13.9800 4.6433 0.2821
14.0000 4.6500 0.2695
14.0200 4.6567 0.2756
14.0400 4.6634 0.2818
14.0600 4.6700 0.2697
14.0800 4.6767 0.2730
14.1000 4.6833 0.2821
14.1200 4.6899 0.2628
14.1400 4.6966 0.2832
14.1600 4.7033 0.2785
14.1800 4.7100 0.2620
14.2000 4.7167 0.2738
14.2200 4.7234 0.2761
14.2400 4.7301 0.2644
14.2600 4.7367 0.2796
14.2800 4.7434 0.2735
14.3000 4.7500 0.2579
14.3200 4.7566 0.2794
14.3400 4.7633 0.2758
14.3600 4.7700 0.2611
14.3800 4.7767 0.2757
14.4000 4.7834 0.2723
14.4200 4.7901 0.2589
14.4400 4.7968 0.2747
14.4600 4.8034 0.2700
14.4800 4.8099 0.2653
14.5000 4.8165 0.2734
14.5200 4.8232 0.2672
14.5400 4.8299 0.2579
14.5600 4.8367 0.2786
14.5800 4.8434 0.2648
14.6000 4.8500 0.2597
14.6200 4.8567 0.2722
14.6400 4.8633 0.2660
14.6600 4.8699 0.2584
14.6800 4.8766 0.2736
14.7000 4.8833 0.2636
14.7200 4.8900 0.2574
14.7400 4.8967 0.2689
14.7600 4.9033 0.2613
14.7800 4.9100 0.2556
14.8000 4.9167 0.2686
14.8200 4.9233 0.2577
14.8400 4.9300 0.2606
14.8600 4.9366 0.2668
14.8800 4.9433 0.2632
14.9000 4.9500 0.2578
14.9200 4.9567 0.2620
14.9400 4.9634 0.2611
14.9600 4.9701 0.2591
14.9800 4.9768 0.2592
15.0000 4.9834 0.2606
15.0200 4.9900 0.2585
15.0400 4.9966 0.2602
15.0600 5.0033 0.2617
15.0800 5.0100 0.2514
15.1000 5.0167 0.2559
15.1200 5.0234 0.2601
15.1400 5.0301 0.2498
15.1600 5.0367 0.2573
15.1800 5.0434 0.2613
15.2000 5.0500 0.2464
15.2200 5.0566 0.2568
15.2400 5.0633 0.2550
15.2600 5.0700 0.2539
15.2800 5.0767 0.2529
15.3000 5.0833 0.2539
15.3200 5.0900 0.2511
15.3400 5.0966 0.2549
15.3600 5.1033 0.2528
15.3800 5.1100 0.2511
15.4000 5.1166 0.2481
15.4200 5.1232 0.2577
15.4400 5.1299 0.2494
15.4600 5.1366 0.2445
15.4800 5.1433 0.2578
15.5000 5.1500 0.2479
15.5200 5.1567 0.2470
15.5400 5.1633 0.2561
15.5600 5.1699 0.2444
15.5800 5.1766 0.2420
15.6000 5.1833 0.2572
15.6200 5.1900 0.2416
15.6400 5.1967 0.2429
15.6600 5.2034 0.2616
15.6800 5.2101 0.2391
15.7000 5.2168 0.2422
15.7200 5.2234 0.2570
15.7400 5.2300 0.2328
15.7600 5.2367 0.2483
15.7800 5.2433 0.2559
15.8000 5.2500 0.2334
15.8200 5.2567 0.2450
15.8400 5.2634 0.2554
15.8600 5.2701 0.2350
15.8800 5.2768 0.2478
15.9000 5.2834 0.2497
15.9200 5.2900 0.2340
15.9400 5.2966 0.2444
15.9600 5.3032 0.2478
15.9800 5.3099 0.2339
16.0000 5.3166 0.2457
16.0200 5.3233 0.2457
16.0400 5.3300 0.2365
16.0600 5.3367 0.2420
16.0800 5.3433 0.2438
16.1000 5.3499 0.2322
16.1200 5.3565 0.2438
16.1400 5.3632 0.2472
16.1600 5.3700 0.2313
16.1800 5.3767 0.2399
16.2000 5.3834 0.2418
16.2200 5.3900 0.2321
16.2400 5.3967 0.2410
16.2600 5.4034 0.2429
16.2800 5.4100 0.2311
16.3000 5.4166 0.2424
16.3200 5.4233 0.2403
16.3400 5.4300 0.2321
16.3600 5.4367 0.2368
16.3800 5.4434 0.2428
16.4000 5.4501 0.2325
16.4200 5.4568 0.2375
16.4400 5.4634 0.2371
16.4600 5.4700 0.2334
16.4800 5.4766 0.2356
16.5000 5.4832 0.2396
16.5200 5.4900 0.2343
16.5400 5.4967 0.2340
16.5600 5.5034 0.2407
16.5800 5.5100 0.2338
16.6000 5.5167 0.2296
16.6200 5.5234 0.2400
16.6400 5.5300 0.2322
16.6600 5.5366 0.2329
16.6800 5.5432 0.2428
16.7000 5.5500 0.2307
16.7200 5.5567 0.2312
16.7400 5.5633 0.2396
16.7600 5.5700 0.2322
16.7800 5.5767 0.2295
16.8000 5.5834 0.2398
16.8200 5.5900 0.2263
16.8400 5.5966 0.2300
16.8600 5.6032 0.2375
16.8800 5.6099 0.2309
16.9000 5.6166 0.2267
16.9200 5.6233 0.2369
16.9400 5.6300 0.2320
16.9600 5.6367 0.2257
16.9800 5.6434 0.2338
17.0000 5.6500 0.2303
17.0200 5.6566 0.2258
17.0400 5.6633 0.2354
17.0600 5.6700 0.2277
17.0800 5.6767 0.2269
17.1000 5.6834 0.2297
17.1200 5.6901 0.2286
17.1400 5.6968 0.2228
17.1600 5.7034 0.2284
17.1800 5.7100 0.2276
17.2000 5.7166 0.2226
17.2200 5.7233 0.2334
17.2400 5.7300 0.2284
17.2600 5.7367 0.2193
17.2800 5.7434 0.2296
17.3000 5.7501 0.2239
17.3200 5.7567 0.2219
17.3400 5.7634 0.2302
17.3600 5.7700 0.2227
17.3800 5.7766 0.2203
17.4000 5.7832 0.2294
17.4200 5.7899 0.2245
17.4400 5.7966 0.2177
17.4600 5.8033 0.2305
17.4800 5.8100 0.2187
17.5000 5.8167 0.2228
17.5200 5.8234 0.2237
17.5400 5.8300 0.2189
17.5600 5.8366 0.2246
17.5800 5.8432 0.2270
17.6000 5.8499 0.2191
17.6200 5.8566 0.2231
17.6400 5.8633 0.2214
17.6600 5.8700 0.2196
17.6800 5.8767 0.2164
17.7000 5.8833 0.2216
17.7200 5.8900 0.2177
17.7400 5.8966 0.2208
17.7600 5.9033 0.2154
17.7800 5.9100 0.2176
17.8000 5.9167 0.2214
17.8200 5.9234 0.2146
17.8400 5.9301 0.2164
17.8600 5.9368 0.2199
17.8800 5.9435 0.2124
17.9000 5.9501 0.2157
17.9200 5.9567 0.2226
17.9400 5.9633 0.2150
17.9600 5.9700 0.2228
17.9800 5.9767 0.2203
18.0000 5.9834 0.2066
18.0200 5.9901 0.2200
18.0400 5.9967 0.2190
18.0600 6.0034 0.2064
18.0800 6.0100 0.2175
18.1000 6.0166 0.2151
18.1200 6.0232 0.2115
18.1400 6.0299 0.2192
18.1600 6.0367 0.2126
18.1800 6.0434 0.1999
18.2000 6.0500 0.2202
18.2200 6.0567 0.2133
18.2400 6.0634 0.1995
18.2600 6.0700 0.2171
18.2800 6.0766 0.2123
18.3000 6.0833 0.2017
18.3200 6.0900 0.2203
18.3400 6.0967 0.2058
18.3600 6.1033 0.2062
18.3800 6.1100 0.2125
18.4000 6.1167 0.2044
18.4200 6.1234 0.2078
18.4400 6.1300 0.2125
18.4600 6.1366 0.2016
18.4800 6.1432 0.2085
18.5000 6.1499 0.2167
18.5200 6.1566 0.1973
18.5400 6.1633 0.2050
18.5600 6.1700 0.2132
18.5800 6.1767 0.1985
18.6000 6.1834 0.2056
18.6200 6.1900 0.2105
18.6400 6.1966 0.1999
18.6600 6.2033 0.2085
18.6800 6.2100 0.2047
18.7000 6.2167 0.2027
18.7200 6.2234 0.2062
18.7400 6.2300 0.2067
18.7600 6.2367 0.2017
18.7800 6.2434 0.2044
18.8000 6.2500 0.2026
18.8200 6.2566 0.2042
18.8400 6.2633 0.2027
18.8600 6.2700 0.2025
18.8800 6.2767 0.2015
18.9000 6.2833 0.2021
18.9200 6.2900 0.1993
18.9400 6.2967 0.2039
18.9600 6.3034 0.1999
18.9800 6.3100 0.2013
19.0000 6.3166 0.1987
19.0200 6.3232 0.2015
19.0400 6.3299 0.2005
19.0600 6.3366 0.1975
19.0800 6.3433 0.1976
19.1000 6.3500 0.2010
19.1200 6.3567 0.1965
19.1400 6.3634 0.1973
19.1600 6.3700 0.2036
19.1800 6.3766 0.1984
19.2000 6.3833 0.2026
19.2200 6.3900 0.1971
19.2400 6.3967 0.1990
19.2600 6.4034 0.1968
19.2800 6.4101 0.1941
19.3000 6.4167 0.1969
19.3200 6.4234 0.1979
19.3400 6.4300 0.1905
19.3600 6.4366 0.2019
19.3800 6.4433 0.1948
19.4000 6.4500 0.1918
19.4200 6.4567 0.2027
19.4400 6.4634 0.1908
19.4600 6.4700 0.1873
19.4800 6.4767 0.2038
19.5000 6.4834 0.1843
19.5200 6.4900 0.1893
19.5400 6.4966 0.2009
19.5600 6.5032 0.1842
19.5800 6.5099 0.1993
19.6000 6.5166 0.2003
19.6200 6.5233 0.1766
19.6400 6.5300 0.1975
19.6600 6.5367 0.1968
19.6800 6.5434 0.1790
19.7000 6.5500 0.1950
19.7200 6.5566 0.1933
19.7400 6.5632 0.1830
19.7600 6.5699 0.1980
19.7800 6.5766 0.1899
19.8000 6.5833 0.1751
19.8200 6.5900 0.1981
19.8400 6.5966 0.1871
19.8600 6.6033 0.1764
19.8800 6.6100 0.1937
19.9000 6.6166 0.1869
19.9200 6.6233 0.1776
19.9400 6.6299 0.1953
19.9600 6.6366 0.1851
19.9800 6.6433 0.1828
20.0000 6.6500 0.1920
20.0200 6.6567 0.1844
20.0400 6.6634 0.1777
20.0600 6.6701 0.1885
20.0800 6.6767 0.1794
20.1000 6.6833 0.1782
20.1200 6.6900 0.1888
20.1400 6.6967 0.1817
20.1600 6.7034 0.1815
20.1800 6.7101 0.1870
20.2000 6.7168 0.1776
20.2200 6.7234 0.1808
20.2400 6.7300 0.1858
20.2600 6.7366 0.1789
20.2800 6.7432 0.1851
20.3000 6.7499 0.1807
20.3200 6.7566 0.1784
20.3400 6.7633 0.1863
20.3600 6.7700 0.1717
20.3800 6.7767 0.1811
20.4000 6.7833 0.1875
20.4200 6.7900 0.1731
20.4400 6.7966 0.1782
20.4600 6.8032 0.1831
20.4800 6.8099 0.1763
20.5000 6.8166 0.1792
20.5200 6.8233 0.1823
20.5400 6.8300 0.1715
20.5600 6.8367 0.1817
20.5800 6.8434 0.1764
20.6000 6.8501 0.1716
20.6200 6.8567 0.1803
20.6400 6.8633 0.1767
20.6600 6.8699 0.1728
20.6800 6.8766 0.1799
20.7000 6.8834 0.1739
20.7200 6.8901 0.1704
20.7400 6.8968 0.1787
20.7600 6.9034 0.1740
20.7800 6.9100 0.1649
20.8000 6.9166 0.1797
20.8200 6.9233 0.1718
20.8400 6.9299 0.1667
20.8600 6.9367 0.1810
20.8800 6.9434 0.1724
20.9000 6.9500 0.1675
20.9200 6.9567 0.1748
20.9400 6.9634 0.1711
20.9600 6.9701 0.1648
20.9800 6.9767 0.1788
21.0000 6.9833 0.1690
21.0200 6.9900 0.1673
21.0400 6.9966 0.1781
21.0600 7.0033 0.1680
21.0800 7.0100 0.1637
21.1000 7.0167 0.1787
21.1200 7.0234 0.1650
21.1400 7.0301 0.1603
21.1600 7.0366 0.1782
21.1800 7.0432 0.1670
21.2000 7.0499 0.1618
21.2200 7.0566 0.1795
21.2400 7.0633 0.1620
21.2600 7.0700 0.1663
21.2800 7.0767 0.1769
21.3000 7.0833 0.1613
21.3200 7.0900 0.1640
21.3400 7.0966 0.1729
21.3600 7.1032 0.1582
21.3800 7.1099 0.1643
21.4000 7.1166 0.1713
21.4200 7.1233 0.1604
21.4400 7.1300 0.1633
21.4600 7.1367 0.1683
21.4800 7.1434 0.1599
21.5000 7.1501 0.1609
21.5200 7.1567 0.1671
21.5400 7.1633 0.1583
21.5600 7.1700 0.1637
21.5800 7.1766 0.1609
21.6000 7.1833 0.1621
21.6200 7.1900 0.1564
21.6400 7.1967 0.1602
21.6600 7.2034 0.1651
21.6800 7.2101 0.1541
21.7000 7.2167 0.1579
21.7200 7.2233 0.1626
21.7400 7.2299 0.1541
21.7600 7.2366 0.1608
21.7800 7.2434 0.1596
21.8000 7.2501 0.1551
21.8200 7.2567 0.1549
21.8400 7.2634 0.1651
21.8600 7.2700 0.1505
21.8800 7.2766 0.1575
21.9000 7.2832 0.1622
21.9200 7.2899 0.1515
21.9400 7.2966 0.1552
21.9600 7.3033 0.1545
21.9800 7.3100 0.1522
22.0000 7.3167 0.1560
22.0200 7.3233 0.1506
22.0400 7.3300 0.1538
22.0600 7.3367 0.1576
22.0800 7.3433 0.1518
22.1000 7.3499 0.1518
22.1200 7.3566 0.1518
22.1400 7.3633 0.1508
22.1600 7.3700 0.1496
22.1800 7.3767 0.1479
22.2000 7.3834 0.1529
22.2200 7.3901 0.1539
22.2400 7.3967 0.1451
22.2600 7.4033 0.1540
22.2800 7.4099 0.1541
22.3000 7.4167 0.1457
22.3200 7.4234 0.1533
22.3400 7.4301 0.1492
22.3600 7.4367 0.1419
22.3800 7.4434 0.1602
22.4000 7.4500 0.1430
22.4200 7.4567 0.1437
22.4400 7.4633 0.1573
22.4600 7.4699 0.1432
22.4800 7.4766 0.1435
22.5000 7.4833 0.1543
22.5200 7.4900 0.1402
22.5400 7.4967 0.1447
22.5600 7.5034 0.1503
22.5800 7.5101 0.1399
22.6000 7.5167 0.1466
22.6200 7.5233 0.1532
22.6400 7.5299 0.1392
22.6600 7.5366 0.1438
22.6800 7.5433 0.1517
22.7000 7.5500 0.1344
22.7200 7.5567 0.1481
22.7400 7.5634 0.1479
22.7600 7.5701 0.1339
22.7800 7.5767 0.1457
22.8000 7.5833 0.1496
22.8200 7.5899 0.1357
22.8400 7.5966 0.1474
22.8600 7.6033 0.1431
22.8800 7.6100 0.1348
22.9000 7.6167 0.1445
22.9200 7.6234 0.1462
22.9400 7.6301 0.1313
22.9600 7.6367 0.1433
22.9800 7.6433 0.1445
23.0000 7.6500 0.1337
23.0200 7.6566 0.1396
23.0400 7.6633 0.1417
23.0600 7.6700 0.1294
23.0800 7.6767 0.1438
23.1000 7.6834 0.1414
23.1200 7.6901 0.1289
23.1400 7.6967 0.1374
23.1600 7.7033 0.1387
23.1800 7.7099 0.1366
23.2000 7.7166 0.1423
23.2200 7.7233 0.1368
23.2400 7.7300 0.1316
23.2600 7.7367 0.1310
23.2800 7.7434 0.1399
23.3000 7.7500 0.1379
23.3200 7.7566 0.1300
23.3400 7.7632 0.1377
23.3600 7.7699 0.1367
23.3800 7.7766 0.1317
23.4000 7.7833 0.1378
23.4200 7.7900 0.1376
23.4400 7.7966 0.1279
23.4600 7.8033 0.1348
23.4800 7.8100 0.1315
23.5000 7.8167 0.1320
23.5200 7.8233 0.1312
23.5400 7.8299 0.1325
23.5600 7.8366 0.1292
23.5800 7.8433 0.1367
23.6000 7.8500 0.1274
23.6200 7.8567 0.1232
23.6400 7.8634 0.1321
23.6600 7.8701 0.1312
23.6800 7.8767 0.1241
23.7000 7.8833 0.1318
23.7200 7.8899 0.1349
23.7400 7.8966 0.1271
23.7600 7.9033 0.1263
23.7800 7.9100 0.1305
23.8000 7.9167 0.1256
23.8200 7.9234 0.1307
23.8400 7.9301 0.1274
23.8600 7.9367 0.1193
23.8800 7.9433 0.1372
23.9000 7.9499 0.1297
23.9200 7.9566 0.1222
23.9400 7.9633 0.1288
23.9600 7.9700 0.1278
23.9800 7.9767 0.1166
24.0000 7.9834 0.1300
24.0200 7.9900 0.1263
24.0400 7.9967 0.1140
24.0600 8.0033 0.1322
24.0800 8.0099 0.1212
24.1000 8.0166 0.1213
24.1200 8.0233 0.1318
24.1400 8.0300 0.1201
24.1600 8.0367 0.1190
24.1800 8.0433 0.1238
24.2000 8.0500 0.1203
24.2200 8.0567 0.1238
24.2400 8.0633 0.1263
24.2600 8.0699 0.1163
24.2800 8.0766 0.1210
24.3000 8.0833 0.1234
24.3200 8.0900 0.1185
24.3400 8.0967 0.1237
24.3600 8.1034 0.1190
24.3800 8.1101 0.1162
24.4000 8.1167 0.1197
24.4200 8.1233 0.1197
24.4400 8.1299 0.1222
24.4600 8.1366 0.1187
24.4800 8.1433 0.1182
24.5000 8.1501 0.1198
24.5200 8.1567 0.1123
24.5400 8.1634 0.1177
24.5600 8.1701 0.1191
24.5800 8.1767 0.1171
24.6000 8.1833 0.1128
24.6200 8.1899 0.1190
24.6400 8.1966 0.1093
24.6600 8.2033 0.1175
24.6800 8.2100 0.1206
24.7000 8.2166 0.1064
24.7200 8.2233 0.1145
24.7400 8.2300 0.1198
24.7600 8.2367 0.1046
24.7800 8.2433 0.1162
24.8000 8.2499 0.1192
24.8200 8.2566 0.1041
24.8400 8.2633 0.1149
24.8600 8.2700 0.1236
24.8800 8.2767 0.1043
24.9000 8.2833 0.1189
24.9200 8.2900 0.1177
24.9400 8.2967 0.0977
24.9600 8.3033 0.1218
24.9800 8.3099 0.1178
25.0000 8.3166 0.0984
25.0200 8.3233 0.1163
25.0400 8.3300 0.1138
25.0600 8.3367 0.1017
25.0800 8.3434 0.1230
25.1000 8.3501 0.1093
25.1200 8.3567 0.0968
25.1400 8.3633 0.1178
25.1600 8.3699 0.1068
25.1800 8.3766 0.1020
25.2000 8.3833 0.1204
25.2200 8.3900 0.1028
25.2400 8.3967 0.1095
25.2600 8.4034 0.1158
25.2800 8.4101 0.1030
25.3000 8.4167 0.1035
25.3200 8.4233 0.1170
25.3400 8.4299 0.1027
25.3600 8.4366 0.1065
25.3800 8.4433 0.1122
25.4000 8.4500 0.0994
25.4200 8.4567 0.1102
25.4400 8.4634 0.1097
25.4600 8.4701 0.1004
25.4800 8.4767 0.1054
25.5000 8.4833 0.1014
25.5200 8.4899 0.1029
25.5400 8.4966 0.1080
25.5600 8.5033 0.1021
25.5800 8.5100 0.1030
25.6000 8.5166 0.1046
25.6200 8.5233 0.1023
25.6400 8.5300 0.1078
25.6600 8.5367 0.1022
25.6800 8.5433 0.1013
25.7000 8.5499 0.1115
25.7200 8.5566 0.0958
25.7400 8.5633 0.0995
25.7600 8.5700 0.1106
25.7800 8.5767 0.0948
25.8000 8.5834 0.0982
25.8200 8.5901 0.1142
25.8400 8.5968 0.0933
25.8600 8.6034 0.0987
25.8800 8.6100 0.1057
25.9000 8.6166 0.0956
25.9200 8.6233 0.1031
25.9400 8.6300 0.0988
25.9600 8.6367 0.0904
25.9800 8.6434 0.1046
26.0000 8.6501 0.0989
26.0200 8.6567 0.0908
26.0400 8.6633 0.1019
26.0600 8.6699 0.0995
26.0800 8.6766 0.0927
26.1000 8.6833 0.1006
26.1200 8.6900 0.0995
26.1400 8.6967 0.0917
26.1600 8.7033 0.1021
26.1800 8.7100 0.0990
26.2000 8.7167 0.0862
26.2200 8.7233 0.0936
26.2400 8.7299 0.0977
26.2600 8.7365 0.0910
26.2800 8.7432 0.0990
26.3000 8.7499 0.0951
26.3200 8.7566 0.0876
26.3400 8.7633 0.0946
26.3600 8.7700 0.0985
26.3800 8.7767 0.0855
26.4000 8.7833 0.0938
26.4200 8.7899 0.0953
26.4400 8.7966 0.0876
26.4600 8.8033 0.0918
26.4800 8.8100 0.0961
26.5000 8.8167 0.0859
26.5200 8.8234 0.0916
26.5400 8.8301 0.0947
26.5600 8.8367 0.0880
26.5800 8.8434 0.0906
26.6000 8.8500 0.0939
26.6200 8.8566 0.0874
26.6400 8.8633 0.0921
26.6600 8.8700 0.0906
26.6800 8.8767 0.0843
26.7000 8.8834 0.0909
26.7200 8.8901 0.0861
26.7400 8.8968 0.0881
26.7600 8.9034 0.0907
26.7800 8.9099 0.0814
26.8000 8.9166 0.0878
26.8200 8.9233 0.0895
26.8400 8.9300 0.0797
26.8600 8.9367 0.0881
26.8800 8.9434 0.0920
26.9000 8.9500 0.0815
26.9200 8.9567 0.0821
26.9400 8.9633 0.0880
26.9600 8.9699 0.0831
26.9800 8.9766 0.0874
27.0000 8.9833 0.0881
27.0200 8.9900 0.0791
27.0400 8.9967 0.0822
27.0600 9.0033 0.0908
27.0800 9.0100 0.0790
27.1000 9.0167 0.0870
27.1200 9.0233 0.0837
27.1400 9.0299 0.0760
27.1600 9.0366 0.0836
27.1800 9.0433 0.0829
27.2000 9.0500 0.0758
27.2200 9.0567 0.0861
27.2400 9.0634 0.0790
27.2600 9.0701 0.0772
27.2800 9.0768 0.0859
27.3000 9.0834 0.0788
27.3200 9.0900 0.0749
27.3400 9.0966 0.0864
27.3600 9.1033 0.0753
27.3800 9.1100 0.0719
27.4000 9.1167 0.0869
27.4200 9.1234 0.0713
27.4400 9.1301 0.0726
27.4600 9.1367 0.0875
27.4800 9.1433 0.0716
27.5000 9.1499 0.0727
27.5200 9.1566 0.0864
27.5400 9.1633 0.0714
27.5600 9.1700 0.0740
27.5800 9.1767 0.0801
27.6000 9.1834 0.0726
27.6200 9.1900 0.0737
27.6400 9.1967 0.0824
27.6600 9.2034 0.0690
27.6800 9.2099 0.0771
27.7000 9.2165 0.0765
27.7200 9.2232 0.0748
27.7400 9.2299 0.0721
27.7600 9.2366 0.0761
27.7800 9.2433 0.0714
27.8000 9.2500 0.0719
27.8200 9.2567 0.0722
27.8400 9.2633 0.0711
27.8600 9.2699 0.0706
27.8800 9.2766 0.0683
27.9000 9.2833 0.0744
27.9200 9.2900 0.0699
27.9400 9.2967 0.0672
27.9600 9.3034 0.0702
27.9800 9.3101 0.0677
28.0000 9.3168 0.0706
28.0200 9.3234 0.0695
28.0400 9.3300 0.0663
28.0600 9.3366 0.0760
28.0800 9.3433 0.0653
28.1000 9.3500 0.0584
28.1200 9.3567 0.0686
28.1400 9.3634 0.0719
28.1600 9.3700 0.0625
28.1800 9.3767 0.0716
28.2000 9.3833 0.0668
28.2200 9.3899 0.0637
28.2400 9.3966 0.0758
28.2600 9.4032 0.0662
28.2800 9.4100 0.0611
28.3000 9.4167 0.0734
28.3200 9.4233 0.0610
28.3400 9.4300 0.0570
28.3600 9.4367 0.0730
28.3800 9.4434 0.0659
28.4000 9.4500 0.0604
28.4200 9.4566 0.0718
28.4400 9.4632 0.0586
28.4600 9.4700 0.0640
28.4800 9.4767 0.0656
28.5000 9.4833 0.0550
28.5200 9.4900 0.0669
28.5400 9.4967 0.0691
28.5600 9.5034 0.0540
28.5800 9.5100 0.0641
28.6000 9.5166 0.0688
28.6200 9.5233 0.0555
28.6400 9.5300 0.0636
28.6600 9.5367 0.0617
28.6800 9.5434 0.0615
28.7000 9.5500 0.0611
28.7200 9.5567 0.0593
28.7400 9.5634 0.0592
28.7600 9.5700 0.0637
28.7800 9.5766 0.0621
28.8000 9.5833 0.0613
28.8200 9.5900 0.0593
28.8400 9.5967 0.0604
28.8600 9.6034 0.0583
28.8800 9.6101 0.0573
28.9000 9.6168 0.0638
28.9200 9.6234 0.0625
28.9400 9.6300 0.0513
28.9600 9.6366 0.0670
28.9800 9.6433 0.0647
29.0000 9.6500 0.0503
29.0200 9.6566 0.0617
29.0400 9.6633 0.0609
29.0600 9.6700 0.0475
29.0800 9.6767 0.0636
29.1000 9.6834 0.0614
29.1200 9.6900 0.0535
29.1400 9.6966 0.0634
29.1600 9.7032 0.0566
29.1800 9.7100 0.0524
29.2000 9.7167 0.0658
29.2200 9.7233 0.0525
29.2400 9.7300 0.0512
29.2600 9.7367 0.0645
29.2800 9.7434 0.0468
29.3000 9.7500 0.0567
29.3200 9.7566 0.0637
29.3400 9.7633 0.0541
29.3600 9.7700 0.0556
29.3800 9.7767 0.0574
29.4000 9.7834 0.0472
29.4200 9.7901 0.0546
29.4400 9.7968 0.0496
29.4600 9.8034 0.0501
29.4800 9.8100 0.0528
29.5000 9.8166 0.0527
29.5200 9.8233 0.0536
29.5400 9.8300 0.0518
29.5600 9.8367 0.0491
29.5800 9.8434 0.0506
29.6000 9.8501 0.0483
29.6200 9.8567 0.0494
29.6400 9.8634 0.0516
29.6600 9.8700 0.0512
29.6800 9.8766 0.0466
29.7000 9.8833 0.0553
29.7200 9.8900 0.0533
29.7400 9.8967 0.0418
29.7600 9.9033 0.0506
29.7800 9.9100 0.0501
29.8000 9.9167 0.0452
29.8200 9.9234 0.0477
29.8400 9.9300 0.0462
29.8600 9.9365 0.0436
29.8800 9.9432 0.0547
29.9000 9.9499 0.0413
29.9200 9.9566 0.0384
29.9400 9.9633 0.0525
29.9600 9.9700 0.0464
29.9800 9.9767 0.0366
30.0000 9.9833 0.0492
30.0200 9.9900 0.0417
30.0400 9.9966 0.0443
30.0600 10.0033 0.0445
30.0800 10.0100 0.0419
30.1000 10.0167 0.0408
30.1200 10.0234 0.0437
30.1400 10.0301 0.0355
30.1600 10.0367 0.0415
30.1800 10.0434 0.0425
30.2000 10.0500 0.0381
30.2200 10.0566 0.0410
30.2400 10.0633 0.0433
30.2600 10.0700 0.0384
30.2800 10.0767 0.0416
30.3000 10.0834 0.0413
30.3200 10.0901 0.0410
30.3400 10.0967 0.0408
30.3600 10.1034 0.0345
30.3800 10.1100 0.0438
30.4000 10.1166 0.0420
30.4200 10.1232 0.0399
30.4400 10.1299 0.0374
30.4600 10.1367 0.0345
30.4800 10.1433 0.0358
30.5000 10.1500 0.0409
30.5200 10.1567 0.0358
30.5400 10.1633 0.0344
30.5600 10.1700 0.0345
30.5800 10.1766 0.0389
30.6000 10.1832 0.0346
30.6200 10.1900 0.0369
30.6400 10.1967 0.0335
30.6600 10.2034 0.0342
30.6800 10.2100 0.0339
30.7000 10.2167 0.0345
30.7200 10.2234 0.0322
30.7400 10.2300 0.0381
30.7600 10.2366 0.0313
30.7800 10.2433 0.0318
30.8000 10.2500 0.0368
30.8200 10.2567 0.0287
30.8400 10.2634 0.0356
30.8600 10.2700 0.0361
30.8800 10.2767 0.0303
30.9000 10.2834 0.0331
30.9200 10.2900 0.0328
30.9400 10.2966 0.0280
30.9600 10.3033 0.0361
30.9800 10.3100 0.0324
31.0000 10.3167 0.0305
31.0200 10.3234 0.0351
31.0400 10.3301 0.0299
31.0600 10.3367 0.0287
31.0800 10.3434 0.0344
31.1000 10.3500 0.0283
31.1200 10.3566 0.0353
31.1400 10.3632 0.0285
31.1600 10.3699 0.0294
31.1800 10.3767 0.0265
31.2000 10.3833 0.0275
31.2200 10.3900 0.0275
31.2400 10.3967 0.0320
31.2600 10.4034 0.0259
31.2800 10.4100 0.0215
31.3000 10.4166 0.0313
31.3200 10.4232 0.0271
31.3400 10.4299 0.0269
31.3600 10.4366 0.0292
31.3800 10.4433 0.0263
31.4000 10.4500 0.0274
31.4200 10.4567 0.0241
31.4400 10.4634 0.0246
31.4600 10.4700 0.0242
31.4800 10.4766 0.0250
31.5000 10.4832 0.0250
31.5200 10.4899 0.0251
31.5400 10.4967 0.0241
31.5600 10.5034 0.0234
31.5800 10.5101 0.0235
31.6000 10.5167 0.0202
31.6200 10.5234 0.0247
31.6400 10.5300 0.0209
31.6600 10.5366 0.0215
31.6800 10.5433 0.0195
31.7000 10.5500 0.0206
31.7200 10.5567 0.0247
31.7400 10.5634 0.0187
31.7600 10.5701 0.0156
31.7800 10.5767 0.0274
31.8000 10.5834 0.0142
31.8200 10.5900 0.0193
31.8400 10.5966 0.0236
31.8600 10.6033 0.0191
31.8800 10.6099 0.0170
31.9000 10.6167 0.0197
31.9200 10.6234 0.0200
31.9400 10.6300 0.0150
31.9600 10.6367 0.0181
31.9800 10.6434 0.0138
32.0000 10.6500 0.0157
32.0200 10.6566 0.0171
32.0400 10.6632 0.0147
32.0600 10.6699 0.0205
32.0800 10.6766 0.0160
32.1000 10.6833 0.0137
32.1200 10.6900 0.0147
32.1400 10.6967 0.0133
32.1600 10.7034 0.0128
32.1800 10.7100 0.0115
32.2000 10.7166 0.0138
32.2200 10.7233 0.0126
32.2400 10.7300 0.0147
32.2600 10.7367 0.0108
32.2800 10.7434 0.0157
32.3000 10.7500 0.0119
32.3200 10.7568 0.0094
32.3400 10.7634 0.0128
32.3600 10.7701 0.0151
32.3800 10.7767 0.0104
32.4000 10.7833 0.0126
32.4200 10.7900 0.0123
32.4400 10.7967 0.0083
32.4600 10.8034 0.0074
32.4800 10.8100 0.0175
32.5000 10.8167 0.0067
32.5200 10.8234 0.0048
32.5400 10.8300 0.0139
32.5600 10.8366 0.0087
32.5800 10.8432 0.0049
32.6000 10.8499 0.0131
32.6200 10.8567 0.0065
32.6400 10.8634 -0.0002
32.6600 10.8700 0.0156
32.6800 10.8767 0.0047
32.7000 10.8834 0.0013
32.7200 10.8900 0.0119
32.7400 10.8966 0.0097
32.7600 10.9032 0.0021
32.7800 10.9099 0.0121
32.8000 10.9166 0.0066
32.8200 10.9233 -0.0004
32.8400 10.9300 0.0039
32.8600 10.9367 0.0078
32.8800 10.9434 0.0025
32.9000 10.9500 0.0048
32.9200 10.9566 0.0032
32.9400 10.9633 0.0078
32.9600 10.9699 0.0006
32.9800 10.9766 0.0032
33.0000 10.9833 0.0040
33.0200 10.9900 -0.0034
33.0400 10.9967 0.0013
33.0600 11.0034 0.0050
33.0800 11.0100 -0.0022
33.1000 11.0166 0.0012
33.1200 11.0233 0.0049
33.1400 11.0299 0.0019
33.1600 11.0367 -0.0028
33.1800 11.0434 0.0002
33.2000 11.0501 0.0036
33.2200 11.0568 -0.0030
33.2400 11.0634 -0.0002
33.2600 11.0700 -0.0001
33.2800 11.0766 -0.0038
33.3000 11.0833 -0.0021
33.3200 11.0899 0.0063
33.3400 11.0966 -0.0098
33.3600 11.1033 -0.0092
33.3800 11.1100 0.0120
33.4000 11.1167 -0.0112
33.4200 11.1234 -0.0111
33.4400 11.1300 0.0135
33.4600 11.1366 -0.0109
33.4800 11.1432 -0.0094
33.5000 11.1499 0.0116
33.5200 11.1566 -0.0130
33.5400 11.1633 -0.0131
33.5600 11.1700 0.0142
33.5800 11.1767 -0.0179
33.6000 11.1834 -0.0072
33.6200 11.1900 0.0106
33.6400 11.1966 -0.0180
33.6600 11.2033 -0.0093
33.6800 11.2099 0.0094
33.7000 11.2167 -0.0180
33.7200 11.2234 -0.0079
33.7400 11.2301 0.0076
33.7600 11.2368 -0.0207
33.7800 11.2434 -0.0081
33.8000 11.2501 0.0017
33.8200 11.2566 -0.0239
33.8400 11.2633 -0.0049
33.8600 11.2699 -0.0011
33.8800 11.2766 -0.0247
33.9000 11.2834 -0.0049
33.9200 11.2900 -0.0046
33.9400 11.2967 -0.0163
33.9600 11.3034 -0.0044
33.9800 11.3101 -0.0097
34.0000 11.3167 -0.0181
34.0200 11.3232 -0.0010
34.0400 11.3299 -0.0099
34.0600 11.3366 -0.0128
34.0800 11.3433 -0.0045
34.1000 11.3500 -0.0156
34.1200 11.3567 -0.0133
34.1400 11.3634 -0.0092
34.1600 11.3700 -0.0185
34.1800 11.3766 -0.0077
34.2000 11.3832 -0.0116
34.2200 11.3899 -0.0190
34.2400 11.3966 -0.0063
34.2600 11.4033 -0.0179
34.2800 11.4100 -0.0234
34.3000 11.4167 0.0006
34.3200 11.4233 -0.0184
34.3400 11.4300 -0.0250
34.3600 11.4366 -0.0038
34.3800 11.4433 -0.0189
34.4000 11.4499 -0.0171
34.4200 11.4566 -0.0096
34.4400 11.4633 -0.0216
34.4600 11.4700 -0.0160
34.4800 11.4767 -0.0091
34.5000 11.4834 -0.0264
34.5200 11.4901 -0.0134
34.5400 11.4967 -0.0107
34.5600 11.5033 -0.0208
34.5800 11.5099 -0.0192
34.6000 11.5167 -0.0123
34.6200 11.5234 -0.0214
34.6400 11.5301 -0.0197
34.6600 11.5367 -0.0179
34.6800 11.5434 -0.0201
34.7000 11.5500 -0.0212
34.7200 11.5566 -0.0139
34.7400 11.5632 -0.0247
34.7600 11.5699 -0.0183
34.7800 11.5766 -0.0118
34.8000 11.5833 -0.0305
34.8200 11.5900 -0.0221
34.8400 11.5966 -0.0111
34.8600 11.6033 -0.0277
34.8800 11.6100 -0.0207
34.9000 11.6166 -0.0203
34.9200 11.6232 -0.0305
34.9400 11.6299 -0.0199
34.9600 11.6366 -0.0154
34.9800 11.6433 -0.0365
35.0000 11.6500 -0.0212
35.0200 11.6567 -0.0148
35.0400 11.6634 -0.0342
35.0600 11.6701 -0.0188
35.0800 11.6767 -0.0230
35.1000 11.6833 -0.0305
35.1200 11.6899 -0.0196
35.1400 11.6966 -0.0230
35.1600 11.7033 -0.0313
35.1800 11.7100 -0.0191
35.2000 11.7167 -0.0302
35.2200 11.7234 -0.0354
35.2400 11.7301 -0.0201
35.2600 11.7367 -0.0242
35.2800 11.7433 -0.0324
35.3000 11.7499 -0.0232
35.3200 11.7566 -0.0269
35.3400 11.7633 -0.0320
35.3600 11.7700 -0.0240
35.3800 11.7767 -0.0218
35.4000 11.7834 -0.0379
35.4200 11.7901 -0.0259
35.4400 11.7967 -0.0258
35.4600 11.8033 -0.0335
35.4800 11.8100 -0.0224
35.5000 11.8166 -0.0342
35.5200 11.8233 -0.0359
35.5400 11.8300 -0.0171
35.5600 11.8367 -0.0346
35.5800 11.8434 -0.0331
35.6000 11.8501 -0.0174
35.6200 11.8567 -0.0416
35.6400 11.8632 -0.0349
35.6600 11.8699 -0.0148
35.6800 11.8766 -0.0365
35.7000 11.8833 -0.0353
35.7200 11.8900 -0.0244
35.7400 11.8967 -0.0398
35.7600 11.9034 -0.0260
35.7800 11.9100 -0.0263
35.8000 11.9167 -0.0449
35.8200 11.9233 -0.0242
35.8400 11.9299 -0.0216
35.8600 11.9366 -0.0507
35.8800 11.9433 -0.0216
35.9000 11.9500 -0.0269
35.9200 11.9567 -0.0468
35.9400 11.9634 -0.0180
35.9600 11.9701 -0.0307
35.9800 11.9767 -0.0489
36.0000 11.9833 -0.0180
36.0200 11.9899 -0.0361
36.0400 11.9966 -0.0434
36.0600 12.0033 -0.0128
36.0800 12.0100 -0.0351
36.1000 12.0167 -0.0482
36.1200 12.0234 -0.0170
36.1400 12.0301 -0.0402
36.1600 12.0367 -0.0446
36.1800 12.0433 -0.0174
36.2000 12.0499 -0.0407
36.2200 12.0566 -0.0467
36.2400 12.0633 -0.0199
36.2600 12.0700 -0.0403
36.2800 12.0767 -0.0439
36.3000 12.0834 -0.0210
36.3200 12.0900 -0.0487
36.3400 12.0967 -0.0347
36.3600 12.1033 -0.0252
36.3800 12.1099 -0.0468
36.4000 12.1166 -0.0344
36.4200 12.1233 -0.0270
36.4400 12.1300 -0.0490
36.4600 12.1366 -0.0334
36.4800 12.1433 -0.0316
36.5000 12.1500 -0.0481
36.5200 12.1567 -0.0347
36.5400 12.1633 -0.0339
36.5600 12.1699 -0.0478
36.5800 12.1766 -0.0332
36.6000 12.1833 -0.0395
36.6200 12.1900 -0.0478
36.6400 12.1967 -0.0362
36.6600 12.2034 -0.0450
36.6800 12.2101 -0.0491
36.7000 12.2167 -0.0382
36.7200 12.2233 -0.0446
36.7400 12.2299 -0.0426
36.7600 12.2366 -0.0400
36.7800 12.2434 -0.0491
36.8000 12.2501 -0.0465
36.8200 12.2567 -0.0437
36.8400 12.2634 -0.0450
36.8600 12.2700 -0.0485
36.8800 12.2767 -0.0479
36.9000 12.2833 -0.0454
36.9200 12.2899 -0.0425
36.9400 12.2966 -0.0543
36.9600 12.3033 -0.0401
36.9800 12.3100 -0.0495
37.0000 12.3167 -0.0558
37.0200 12.3234 -0.0415
37.0400 12.3300 -0.0473
37.0600 12.3367 -0.0561
37.0800 12.3433 -0.0412
37.1000 12.3499 -0.0546
37.1200 12.3566 -0.0548
37.1400 12.3633 -0.0445
37.1600 12.3700 -0.0538
37.1800 12.3767 -0.0539
37.2000 12.3834 -0.0473
37.2200 12.3901 -0.0574
37.2400 12.3967 -0.0542
37.2600 12.4033 -0.0490
37.2800 12.4099 -0.0503
37.3000 12.4166 -0.0550
37.3200 12.4233 -0.0491
37.3400 12.4300 -0.0555
37.3600 12.4367 -0.0555
37.3800 12.4434 -0.0480
37.4000 12.4501 -0.0582
37.4200 12.4567 -0.0601
37.4400 12.4633 -0.0518
37.4600 12.4700 -0.0564
37.4800 12.4766 -0.0594
37.5000 12.4833 -0.0517
37.5200 12.4900 -0.0631
37.5400 12.4967 -0.0550
37.5600 12.5034 -0.0518
37.5800 12.5101 -0.0611
37.6000 12.5167 -0.0568
37.6200 12.5233 -0.0534
37.6400 12.5299 -0.0639
37.6600 12.5366 -0.0550
37.6800 12.5433 -0.0556
37.7000 12.5500 -0.0581
37.7200 12.5567 -0.0600
37.7400 12.5634 -0.0600
37.7600 12.5700 -0.0573
37.7800 12.5767 -0.0586
37.8000 12.5833 -0.0595
37.8200 12.5899 -0.0553
37.8400 12.5965 -0.0599
37.8600 12.6033 -0.0627
37.8800 12.6100 -0.0574
37.9000 12.6166 -0.0597
37.9200 12.6233 -0.0635
37.9400 12.6300 -0.0560
37.9600 12.6367 -0.0644
37.9800 12.6433 -0.0620
38.0000 12.6499 -0.0587
38.0200 12.6566 -0.0629
38.0400 12.6633 -0.0602
38.0600 12.6700 -0.0614
38.0800 12.6767 -0.0646
38.1000 12.6834 -0.0614
38.1200 12.6901 -0.0568
38.1400 12.6968 -0.0687
38.1600 12.7034 -0.0588
38.1800 12.7100 -0.0609
38.2000 12.7166 -0.0645
38.2200 12.7233 -0.0595
38.2400 12.7301 -0.0627
38.2600 12.7367 -0.0702
38.2800 12.7434 -0.0551
38.3000 12.7501 -0.0625
38.3200 12.7567 -0.0696
38.3400 12.7633 -0.0613
38.3600 12.7699 -0.0596
38.3800 12.7766 -0.0711
38.4000 12.7833 -0.0701
38.4200 12.7900 -0.0581
38.4400 12.7967 -0.0604
38.4600 12.8033 -0.0701
38.4800 12.8100 -0.0638
38.5000 12.8167 -0.0667
38.5200 12.8233 -0.0690
38.5400 12.8299 -0.0560
38.5600 12.8366 -0.0632
38.5800 12.8433 -0.0852
38.6000 12.8500 -0.0603
38.6200 12.8566 -0.0555
38.6400 12.8633 -0.0838
38.6600 12.8700 -0.0599
38.6800 12.8767 -0.0607
38.7000 12.8833 -0.0841
38.7200 12.8899 -0.0587
38.7400 12.8966 -0.0580
38.7600 12.9033 -0.0849
38.7800 12.9100 -0.0561
38.8000 12.9167 -0.0627
38.8200 12.9234 -0.0901
38.8400 12.9301 -0.0578
38.8600 12.9367 -0.0605
38.8800 12.9433 -0.0848
38.9000 12.9499 -0.0644
38.9200 12.9566 -0.0659
38.9400 12.9633 -0.0848
38.9600 12.9701 -0.0684
38.9800 12.9767 -0.0680
39.0000 12.9834 -0.0783
39.0200 12.9901 -0.0667
39.0400 12.9967 -0.0755
39.0600 13.0033 -0.0847
39.0800 13.0100 -0.0630
39.1000 13.0166 -0.0743
39.1200 13.0233 -0.0773
39.1400 13.0300 -0.0680
39.1600 13.0367 -0.0803
39.1800 13.0433 -0.0764
39.2000 13.0500 -0.0712
39.2200 13.0567 -0.0861
39.2400 13.0633 -0.0727
39.2600 13.0699 -0.0777
39.2800 13.0766 -0.0820
39.3000 13.0833 -0.0732
39.3200 13.0900 -0.0827
39.3400 13.0967 -0.0797
39.3600 13.1034 -0.0721
39.3800 13.1100 -0.0884
39.4000 13.1167 -0.0781
39.4200 13.1233 -0.0773
39.4400 13.1299 -0.0866
39.4600 13.1366 -0.0759
39.4800 13.1433 -0.0789
39.5000 13.1500 -0.0922
39.5200 13.1567 -0.0745
39.5400 13.1634 -0.0834
39.5600 13.1700 -0.0934
39.5800 13.1767 -0.0739
39.6000 13.1833 -0.0874
39.6200 13.1900 -0.0902
39.6400 13.1966 -0.0773
39.6600 13.2033 -0.0873
39.6800 13.2100 -0.0852
39.7000 13.2167 -0.0831
39.7200 13.2234 -0.0892
39.7400 13.2301 -0.0833
39.7600 13.2367 -0.0838
39.7800 13.2433 -0.0949
39.8000 13.2499 -0.0813
39.8200 13.2566 -0.0825
39.8400 13.2633 -0.0920
39.8600 13.2700 -0.0878
39.8800 13.2767 -0.0934
39.9000 13.2834 -0.0871
39.9200 13.2901 -0.0894
39.9400 13.2967 -0.0920
39.9600 13.3034 -0.0912
39.9800 13.3099 -0.0836
40.0000 13.3166 -0.0897
40.0200 13.3233 -0.0894
40.0400 13.3300 -0.0884
40.0600 13.3366 -0.0895
40.0800 13.3433 -0.0877
40.1000 13.3500 -0.0889
40.1200 13.3567 -0.0971
40.1400 13.3633 -0.0860
40.1600 13.3699 -0.0911
40.1800 13.3766 -0.0939
40.2000 13.3833 -0.0875
40.2200 13.3900 -0.0917
40.2400 13.3967 -0.0947
40.2600 13.4034 -0.0887
40.2800 13.4101 -0.0957
40.3000 13.4168 -0.0956
40.3200 13.4234 -0.0882
40.3400 13.4300 -0.0972
40.3600 13.4366 -0.0921
40.3800 13.4433 -0.0875
40.4000 13.4500 -0.0984
40.4200 13.4567 -0.0951
40.4400 13.4634 -0.0903
40.4600 13.4701 -0.0942
40.4800 13.4767 -0.0929
40.5000 13.4833 -0.0943
40.5200 13.4899 -0.0945
40.5400 13.4965 -0.0953
40.5600 13.5033 -0.0886
40.5800 13.5100 -0.1003
40.6000 13.5167 -0.0916
40.6200 13.5233 -0.0921
40.6400 13.5300 -0.0996
40.6600 13.5367 -0.0920
40.6800 13.5433 -0.0897
40.7000 13.5499 -0.0990
40.7200 13.5566 -0.0947
40.7400 13.5632 -0.0951
40.7600 13.5699 -0.1006
40.7800 13.5766 -0.0991
40.8000 13.5833 -0.0934
40.8200 13.5900 -0.1044
40.8400 13.5967 -0.0969
40.8600 13.6033 -0.0931
40.8800 13.6099 -0.1052
40.9000 13.6166 -0.0983
40.9200 13.6233 -0.0919
40.9400 13.6300 -0.1063
40.9600 13.6367 -0.0996
40.9800 13.6434 -0.0945
41.0000 13.6501 -0.1095
41.0200 13.6567 -0.0992
41.0400 13.6634 -0.0972
41.0600 13.6700 -0.1094
41.0800 13.6766 -0.0994
41.1000 13.6833 -0.1008
41.1200 13.6900 -0.1056
41.1400 13.6967 -0.0903
41.1600 13.7034 -0.1094
41.1800 13.7101 -0.1077
41.2000 13.7168 -0.0956
41.2200 13.7234 -0.1111
41.2400 13.7299 -0.1068
41.2600 13.7366 -0.0898
41.2800 13.7432 -0.1139
41.3000 13.7499 -0.1025
41.3200 13.7566 -0.0978
41.3400 13.7633 -0.1185
41.3600 13.7700 -0.1030
41.3800 13.7767 -0.1000
41.4000 13.7833 -0.1126
41.4200 13.7899 -0.0999
41.4400 13.7966 -0.1064
41.4600 13.8033 -0.1128
41.4800 13.8100 -0.1015
41.5000 13.8167 -0.1070
41.5200 13.8233 -0.1097
41.5400 13.8300 -0.1036
41.5600 13.8367 -0.1136
41.5800 13.8434 -0.1157
41.6000 13.8500 -0.0980
41.6200 13.8566 -0.1132
41.6400 13.8633 -0.1108
41.6600 13.8700 -0.1054
41.6800 13.8767 -0.1126
41.7000 13.8833 -0.1149
41.7200 13.8900 -0.1068
41.7400 13.8967 -0.1107
41.7600 13.9034 -0.1140
41.7800 13.9100 -0.1087
41.8000 13.9166 -0.1082
41.8200 13.9233 -0.1175
41.8400 13.9300 -0.1099
41.8600 13.9367 -0.1147
41.8800 13.9434 -0.1120
41.9000 13.9501 -0.1131
41.9200 13.9567 -0.1149
41.9400 13.9634 -0.1124
41.9600 13.9700 -0.1152
41.9800 13.9766 -0.1077
42.0000 13.9833 -0.1129
42.0200 13.9900 -0.1193
42.0400 13.9967 -0.1086
42.0600 14.0033 -0.1168
42.0800 14.0100 -0.1192
42.1000 14.0167 -0.1151
42.1200 14.0233 -0.1145
42.1400 14.0299 -0.1199
42.1600 14.0365 -0.1093
42.1800 14.0432 -0.1172
42.2000 14.0499 -0.1222
42.2200 14.0567 -0.1091
42.2400 14.0633 -0.1197
42.2600 14.0700 -0.1198
42.2800 14.0767 -0.1165
42.3000 14.0834 -0.1224
42.3200 14.0900 -0.1197
42.3400 14.0966 -0.1101
42.3600 14.1033 -0.1247
42.3800 14.1100 -0.1189
42.4000 14.1167 -0.1164
42.4200 14.1234 -0.1232
42.4400 14.1301 -0.1181
42.4600 14.1368 -0.1173
42.4800 14.1434 -0.1290
42.5000 14.1500 -0.1134
42.5200 14.1566 -0.1190
42.5400 14.1633 -0.1252
42.5600 14.1700 -0.1167
42.5800 14.1767 -0.1197
42.6000 14.1834 -0.1256
42.6200 14.1900 -0.1206
42.6400 14.1967 -0.1221
42.6600 14.2034 -0.1282
42.6800 14.2100 -0.1173
42.7000 14.2166 -0.1270
42.7200 14.2232 -0.1243
42.7400 14.2299 -0.1169
42.7600 14.2367 -0.1274
42.7800 14.2434 -0.1293
42.8000 14.2501 -0.1196
42.8200 14.2567 -0.1291
42.8400 14.2634 -0.1272
42.8600 14.2700 -0.1250
42.8800 14.2766 -0.1240
42.9000 14.2832 -0.1255
42.9200 14.2899 -0.1244
42.9400 14.2966 -0.1289
42.9600 14.3033 -0.1203
42.9800 14.3100 -0.1285
43.0000 14.3167 -0.1300
43.0200 14.3234 -0.1263
43.0400 14.3300 -0.1304
43.0600 14.3366 -0.1289
43.0800 14.3433 -0.1244
43.1000 14.3500 -0.1284
43.1200 14.3567 -0.1279
43.1400 14.3634 -0.1288
43.1600 14.3700 -0.1301
43.1800 14.3767 -0.1294
43.2000 14.3834 -0.1290
43.2200 14.3900 -0.1323
43.2400 14.3966 -0.1322
43.2600 14.4033 -0.1268
43.2800 14.4100 -0.1325
43.3000 14.4167 -0.1318
43.3200 14.4234 -0.1340
43.3400 14.4301 -0.1319
43.3600 14.4368 -0.1319
43.3800 14.4434 -0.1360
43.4000 14.4500 -0.1347
43.4200 14.4566 -0.1290
43.4400 14.4632 -0.1357
43.4600 14.4700 -0.1322
43.4800 14.4767 -0.1337
43.5000 14.4833 -0.1368
43.5200 14.4900 -0.1324
43.5400 14.4967 -0.1333
43.5600 14.5034 -0.1391
43.5800 14.5100 -0.1347
43.6000 14.5166 -0.1351
43.6200 14.5232 -0.1343
43.6400 14.5299 -0.1368
43.6600 14.5366 -0.1355
43.6800 14.5433 -0.1391
43.7000 14.5499 -0.1355
43.7200 14.5566 -0.1368
43.7400 14.5633 -0.1353
43.7600 14.5700 -0.1405
43.7800 14.5766 -0.1407
43.8000 14.5833 -0.1338
43.8200 14.5900 -0.1429
43.8400 14.5967 -0.1404
43.8600 14.6034 -0.1367
43.8800 14.6101 -0.1407
43.9000 14.6168 -0.1389
43.9200 14.6234 -0.1384
43.9400 14.6300 -0.1391
43.9600 14.6366 -0.1393
43.9800 14.6433 -0.1427
44.0000 14.6500 -0.1406
44.0200 14.6567 -0.1420
44.0400 14.6634 -0.1449
44.0600 14.6701 -0.1439
44.0800 14.6767 -0.1382
44.1000 14.6834 -0.1465
44.1200 14.6900 -0.1413
44.1400 14.6966 -0.1438
44.1600 14.7033 -0.1426
44.1800 14.7100 -0.1404
44.2000 14.7167 -0.1425
44.2200 14.7233 -0.1438
44.2400 14.7300 -0.1419
44.2600 14.7367 -0.1452
44.2800 14.7434 -0.1475
44.3000 14.7500 -0.1449
44.3200 14.7566 -0.1410
44.3400 14.7632 -0.1474
44.3600 14.7699 -0.1459
44.3800 14.7766 -0.1472
44.4000 14.7833 -0.1470
44.4200 14.7900 -0.1418
44.4400 14.7967 -0.1503
44.4600 14.8033 -0.1490
44.4800 14.8099 -0.1423
44.5000 14.8166 -0.1449
44.5200 14.8232 -0.1530
44.5400 14.8299 -0.1440
44.5600 14.8366 -0.1466
44.5800 14.8434 -0.1494
44.6000 14.8501 -0.1466
44.6200 14.8568 -0.1488
44.6400 14.8634 -0.1496
44.6600 14.8701 -0.1494
44.6800 14.8767 -0.1471
44.7000 14.8833 -0.1473
44.7200 14.8900 -0.1549
44.7400 14.8967 -0.1448
44.7600 14.9034 -0.1532
44.7800 14.9101 -0.1483
44.8000 14.9168 -0.1470
44.8200 14.9234 -0.1542
44.8400 14.9300 -0.1517
44.8600 14.9366 -0.1491
44.8800 14.9432 -0.1525
44.9000 14.9499 -0.1502
44.9200 14.9566 -0.1531
44.9400 14.9633 -0.1537
44.9600 14.9700 -0.1517
44.9800 14.9767 -0.1522
45.0000 14.9834 -0.1557
45.0200 14.9900 -0.1499
45.0400 14.9966 -0.1525
45.0600 15.0032 -0.1610
45.0800 15.0100 -0.1517
45.1000 15.0167 -0.1559
45.1200 15.0233 -0.1552
45.1400 15.0300 -0.1581
45.1600 15.0367 -0.1567
45.1800 15.0434 -0.1589
45.2000 15.0500 -0.1551
45.2200 15.0567 -0.1586
45.2400 15.0633 -0.1589
45.2600 15.0700 -0.1536
45.2800 15.0767 -0.1579
45.3000 15.0834 -0.1605
45.3200 15.0900 -0.1542
45.3400 15.0967 -0.1631
45.3600 15.1034 -0.1606
45.3800 15.1100 -0.1574
45.4000 15.1166 -0.1603
45.4200 15.1233 -0.1604
45.4400 15.1300 -0.1520
45.4600 15.1367 -0.1682
45.4800 15.1434 -0.1589
45.5000 15.1501 -0.1509
45.5200 15.1567 -0.1674
45.5400 15.1634 -0.1619
45.5600 15.1700 -0.1592
45.5800 15.1766 -0.1663
45.6000 15.1832 -0.1597
45.6200 15.1899 -0.1556
45.6400 15.1967 -0.1677
45.6600 15.2034 -0.1578
45.6800 15.2100 -0.1639
45.7000 15.2167 -0.1694
45.7200 15.2234 -0.1594
45.7400 15.2300 -0.1585
45.7600 15.2366 -0.1734
45.7800 15.2433 -0.1614
45.8000 15.2499 -0.1604
45.8200 15.2566 -0.1745
45.8400 15.2633 -0.1626
45.8600 15.2700 -0.1603
45.8800 15.2767 -0.1741
45.9000 15.2834 -0.1621
45.9200 15.2900 -0.1665
45.9400 15.2966 -0.1712
45.9600 15.3032 -0.1581
45.9800 15.3099 -0.1658
46.0000 15.3167 -0.1720
46.0200 15.3234 -0.1600
46.0400 15.3301 -0.1718
46.0600 15.3367 -0.1721
46.0800 15.3434 -0.1609
46.1000 15.3500 -0.1704
46.1200 15.3566 -0.1726
46.1400 15.3633 -0.1633
46.1600 15.3699 -0.1689
46.1800 15.3767 -0.1707
46.2000 15.3834 -0.1636
46.2200 15.3901 -0.1736
46.2400 15.3968 -0.1679
46.2600 15.4034 -0.1706
46.2800 15.4101 -0.1709
46.3000 15.4166 -0.1690
46.3200 15.4232 -0.1718
46.3400 15.4299 -0.1710
46.3600 15.4366 -0.1677
46.3800 15.4433 -0.1733
46.4000 15.4500 -0.1683
46.4200 15.4567 -0.1745
46.4400 15.4634 -0.1749
46.4600 15.4700 -0.1708
46.4800 15.4766 -0.1720
46.5000 15.4832 -0.1778
46.5200 15.4899 -0.1651
46.5400 15.4966 -0.1770
46.5600 15.5033 -0.1800
46.5800 15.5100 -0.1700
46.6000 15.5167 -0.1789
46.6200 15.5234 -0.1798
46.6400 15.5300 -0.1730
46.6600 15.5366 -0.1781
46.6800 15.5432 -0.1755
46.7000 15.5499 -0.1689
46.7200 15.5566 -0.1808
46.7400 15.5633 -0.1813
46.7600 15.5700 -0.1745
46.7800 15.5767 -0.1837
46.8000 15.5834 -0.1820
46.8200 15.5901 -0.1740
46.8400 15.5967 -0.1846
46.8600 15.6033 -0.1822
46.8800 15.6100 -0.1745
46.9000 15.6167 -0.1811
46.9200 15.6234 -0.1857
46.9400 15.6301 -0.1739
46.9600 15.6367 -0.1881
46.9800 15.6434 -0.1844
47.0000 15.6500 -0.1716
47.0200 15.6566 -0.1885
47.0400 15.6633 -0.1856
47.0600 15.6700 -0.1692
47.0800 15.6767 -0.1946
47.1000 15.6834 -0.1800
47.1200 15.6900 -0.1744
47.1400 15.6967 -0.1999
47.1600 15.7034 -0.1811
47.1800 15.7100 -0.1765
47.2000 15.7167 -0.2013
47.2200 15.7233 -0.1770
47.2400 15.7299 -0.1815
47.2600 15.7366 -0.1977
47.2800 15.7433 -0.1796
47.3000 15.7500 -0.1823
47.3200 15.7567 -0.1956
47.3400 15.7634 -0.1823
47.3600 15.7700 -0.1862
47.3800 15.7767 -0.1960
47.4000 15.7833 -0.1767
47.4200 15.7899 -0.1917
47.4400 15.7966 -0.1899
47.4600 15.8033 -0.1811
47.4800 15.8100 -0.1894
47.5000 15.8167 -0.1943
47.5200 15.8234 -0.1816
47.5400 15.8300 -0.1944
47.5600 15.8366 -0.1948
47.5800 15.8433 -0.1834
47.6000 15.8499 -0.1937
47.6200 15.8566 -0.1947
47.6400 15.8634 -0.1797
47.6600 15.8701 -0.1942
47.6800 15.8768 -0.1949
47.7000 15.8834 -0.1878
47.7200 15.8901 -0.1919
47.7400 15.8967 -0.1929
47.7600 15.9033 -0.1888
47.7800 15.9099 -0.1943
47.8000 15.9166 -0.1901
47.8200 15.9233 -0.1888
47.8400 15.9300 -0.1990
47.8600 15.9367 -0.1916
47.8800 15.9434 -0.1892
47.9000 15.9500 -0.1976
47.9200 15.9567 -0.1927
47.9400 15.9632 -0.1948
47.9600 15.9699 -0.1975
47.9800 15.9766 -0.1859
48.0000 15.9833 -0.1997
48.0200 15.9900 -0.1951
48.0400 15.9967 -0.1919
48.0600 16.0034 -0.1998
48.0800 16.0100 -0.2020
48.1000 16.0166 -0.1901
48.1200 16.0233 -0.2010
48.1400 16.0300 -0.1974
48.1600 16.0367 -0.1974
48.1800 16.0434 -0.2010
48.2000 16.0501 -0.1981
48.2200 16.0567 -0.1974
48.2400 16.0634 -0.1997
48.2600 16.0701 -0.1994
48.2800 16.0767 -0.2061
48.3000 16.0833 -0.1986
48.3200 16.0899 -0.1946
48.3400 16.0967 -0.2023
48.3600 16.1034 -0.2032
48.3800 16.1100 -0.1992
48.4000 16.1167 -0.2023
48.4200 16.1234 -0.2047
48.4400 16.1301 -0.2018
48.4600 16.1367 -0.2033
48.4800 16.1433 -0.2030
48.5000 16.1499 -0.2081
48.5200 16.1566 -0.2029
48.5400 16.1633 -0.2043
48.5600 16.1700 -0.2022
48.5800 16.1767 -0.2045
48.6000 16.1834 -0.2085
48.6200 16.1901 -0.2056
48.6400 16.1967 -0.2026
48.6600 16.2032 -0.2116
48.6800 16.2099 -0.2011
48.7000 16.2166 -0.2104
48.7200 16.2233 -0.2083
48.7400 16.2300 -0.2005
48.7600 16.2367 -0.2065
48.7800 16.2433 -0.2157
48.8000 16.2500 -0.2004
48.8200 16.2567 -0.2134
48.8400 16.2633 -0.2115
48.8600 16.2699 -0.2016
48.8800 16.2766 -0.2166
48.9000 16.2833 -0.2134
48.9200 16.2900 -0.2032
48.9400 16.2967 -0.2175
48.9600 16.3034 -0.2113
48.9800 16.3101 -0.2072
49.0000 16.3167 -0.2188
49.0200 16.3233 -0.2101
49.0400 16.3299 -0.2076
49.0600 16.3366 -0.2159
49.0800 16.3434 -0.2111
49.1000 16.3501 -0.2094
49.1200 16.3567 -0.2219
49.1400 16.3634 -0.2097
49.1600 16.3700 -0.2131
49.1800 16.3766 -0.2206
49.2000 16.3832 -0.2108
49.2200 16.3899 -0.2167
49.2400 16.3966 -0.2189
49.2600 16.4033 -0.2090
49.2800 16.4100 -0.2222
49.3000 16.4166 -0.2156
49.3200 16.4233 -0.2097
49.3400 16.4300 -0.2266
49.3600 16.4366 -0.2197
49.3800 16.4433 -0.2064
49.4000 16.4499 -0.2272
49.4200 16.4566 -0.2152
49.4400 16.4633 -0.2159
49.4600 16.4700 -0.2241
49.4800 16.4767 -0.2142
49.5000 16.4834 -0.2194
49.5200 16.4901 -0.2281
49.5400 16.4967 -0.2165
49.5600 16.5033 -0.2227
49.5800 16.5099 -0.2251
49.6000 16.5166 -0.2121
49.6200 16.5234 -0.2249
49.6400 16.5301 -0.2240
49.6600 16.5367 -0.2184
49.6800 16.5434 -0.2277
49.7000 16.5501 -0.2207
49.7200 16.5567 -0.2144
49.7400 16.5633 -0.2353
49.7600 16.5699 -0.2164
49.7800 16.5766 -0.2191
49.8000 16.5833 -0.2365
49.8200 16.5900 -0.2190
49.8400 16.5967 -0.2212
49.8600 16.6034 -0.2346
49.8800 16.6101 -0.2185
49.9000 16.6167 -0.2314
49.9200 16.6233 -0.2309
49.9400 16.6299 -0.2165
49.9600 16.6366 -0.2307
49.9800 16.6433 -0.2350
50.0000 16.6500 -0.2208
50.0200 16.6567 -0.2351
50.0400 16.6634 -0.2317
50.0600 16.6701 -0.2252
50.0800 16.6767 -0.2324
50.1000 16.6833 -0.2316
50.1200 16.6899 -0.2250
50.1400 16.6966 -0.2353
50.1600 16.7033 -0.2274
50.1800 16.7100 -0.2274
50.2000 16.7167 -0.2403
50.2200 16.7234 -0.2293
50.2400 16.7300 -0.2323
50.2600 16.7367 -0.2347
50.2800 16.7433 -0.2339
50.3000 16.7499 -0.2321
50.3200 16.7566 -0.2388
50.3400 16.7633 -0.2307
50.3600 16.7700 -0.2378
50.3800 16.7767 -0.2338
50.4000 16.7834 -0.2321
50.4200 16.7901 -0.2375
50.4400 16.7967 -0.2414
50.4600 16.8033 -0.2330
50.4800 16.8099 -0.2349
50.5000 16.8166 -0.2382
50.5200 16.8233 -0.2392
50.5400 16.8300 -0.2330
50.5600 16.8367 -0.2460
50.5800 16.8434 -0.2358
50.6000 16.8501 -0.2350
50.6200 16.8567 -0.2457
50.6400 16.8633 -0.2384
50.6600 16.8699 -0.2349
50.6800 16.8766 -0.2410
50.7000 16.8833 -0.2401
50.7200 16.8900 -0.2382
50.7400 16.8967 -0.2417
50.7600 16.9034 -0.2395
50.7800 16.9101 -0.2459
50.8000 16.9167 -0.2421
50.8200 16.9233 -0.2359
50.8400 16.9299 -0.2444
50.8600 16.9366 -0.2402
50.8800 16.9433 -0.2375
50.9000 16.9500 -0.2532
50.9200 16.9566 -0.2377
50.9400 16.9633 -0.2389
50.9600 16.9700 -0.2500
50.9800 16.9767 -0.2445
51.0000 16.9833 -0.2407
51.0200 16.9899 -0.2547
51.0400 16.9966 -0.2376
51.0600 17.0033 -0.2436
51.0800 17.0100 -0.2562
51.1000 17.0167 -0.2356
51.1200 17.0234 -0.2436
51.1400 17.0301 -0.2570
51.1600 17.0367 -0.2388
51.1800 17.0433 -0.2489
51.2000 17.0499 -0.2500
51.2200 17.0566 -0.2387
51.2400 17.0633 -0.2498
51.2600 17.0700 -0.2526
51.2800 17.0767 -0.2390
51.3000 17.0834 -0.2539
51.3200 17.0900 -0.2549
51.3400 17.0967 -0.2429
51.3600 17.1033 -0.2544
51.3800 17.1099 -0.2502
51.4000 17.1166 -0.2467
51.4200 17.1233 -0.2544
51.4400 17.1300 -0.2497
51.4600 17.1367 -0.2498
51.4800 17.1434 -0.2581
51.5000 17.1500 -0.2520
51.5200 17.1567 -0.2541
51.5400 17.1633 -0.2555
51.5600 17.1699 -0.2504
51.5800 17.1766 -0.2484
51.6000 17.1833 -0.2631
51.6200 17.1900 -0.2461
51.6400 17.1967 -0.2584
51.6600 17.2034 -0.2594
51.6800 17.2101 -0.2480
51.7000 17.2167 -0.2563
51.7200 17.2233 -0.2607
51.7400 17.2299 -0.2541
51.7600 17.2366 -0.2596
51.7800 17.2433 -0.2548
51.8000 17.2500 -0.2543
51.8200 17.2567 -0.2600
51.8400 17.2634 -0.2590
51.8600 17.2701 -0.2557
51.8800 17.2767 -0.2599
51.9000 17.2833 -0.2533
51.9200 17.2900 -0.2578
51.9400 17.2966 -0.2637
51.9600 17.3033 -0.2484
51.9800 17.3100 -0.2638
52.0000 17.3167 -0.2648
52.0200 17.3234 -0.2552
52.0400 17.3301 -0.2576
52.0600 17.3367 -0.2629
52.0800 17.3433 -0.2617
52.1000 17.3499 -0.2648
52.1200 17.3566 -0.2611
52.1400 17.3633 -0.2603
52.1600 17.3700 -0.2606
52.1800 17.3767 -0.2682
52.2000 17.3834 -0.2622
52.2200 17.3900 -0.2664
52.2400 17.3967 -0.2604
52.2600 17.4033 -0.2640
52.2800 17.4099 -0.2675
52.3000 17.4165 -0.2648
52.3200 17.4232 -0.2619
52.3400 17.4299 -0.2694
52.3600 17.4366 -0.2593
52.3800 17.4433 -0.2590
52.4000 17.4500 -0.2742
52.4200 17.4567 -0.2689
52.4400 17.4633 -0.2577
52.4600 17.4699 -0.2618
52.4800 17.4766 -0.2641
52.5000 17.4833 -0.2695
52.5200 17.4900 -0.2691
52.5400 17.4967 -0.2573
52.5600 17.5034 -0.2693
52.5800 17.5101 -0.2714
52.6000 17.5168 -0.2630
52.6200 17.5234 -0.2670
52.6400 17.5299 -0.2716
52.6600 17.5366 -0.2617
52.6800 17.5433 -0.2697
52.7000 17.5500 -0.2711
52.7200 17.5567 -0.2626
52.7400 17.5634 -0.2716
52.7600 17.5701 -0.2730
52.7800 17.5767 -0.2602
52.8000 17.5833 -0.2720
52.8200 17.5899 -0.2694
52.8400 17.5966 -0.2689
52.8600 17.6033 -0.2705
52.8800 17.6100 -0.2740
52.9000 17.6167 -0.2682
52.9200 17.6233 -0.2686
52.9400 17.6300 -0.2726
52.9600 17.6367 -0.2739
52.9800 17.6433 -0.2714
53.0000 17.6499 -0.2706
53.0200 17.6566 -0.2708
53.0400 17.6633 -0.2706
53.0600 17.6700 -0.2738
53.0800 17.6767 -0.2726
53.1000 17.6833 -0.2726
53.1200 17.6900 -0.2781
53.1400 17.6967 -0.2738
53.1600 17.7033 -0.2707
53.1800 17.7099 -0.2773
53.2000 17.7166 -0.2731
53.2200 17.7233 -0.2745
53.2400 17.7300 -0.2746
53.2600 17.7367 -0.2739
53.2800 17.7434 -0.2749
53.3000 17.7501 -0.2829
53.3200 17.7567 -0.2744
53.3400 17.7633 -0.2742
53.3600 17.7699 -0.2842
53.3800 17.7766 -0.2784
53.4000 17.7833 -0.2697
53.4200 17.7900 -0.2820
53.4400 17.7967 -0.2818
53.4600 17.8034 -0.2777
53.4800 17.8101 -0.2767
53.5000 17.8167 -0.2844
53.5200 17.8233 -0.2791
53.5400 17.8299 -0.2759
53.5600 17.8366 -0.2771
53.5800 17.8433 -0.2802
53.6000 17.8500 -0.2868
53.6200 17.8566 -0.2730
53.6400 17.8633 -0.2793
53.6600 17.8700 -0.2909
53.6800 17.8767 -0.2796
53.7000 17.8833 -0.2781
53.7200 17.8899 -0.2925
53.7400 17.8966 -0.2766
53.7600 17.9033 -0.2840
53.7800 17.9100 -0.2900
53.8000 17.9167 -0.2823
53.8200 17.9233 -0.2837
53.8400 17.9300 -0.2842
53.8600 17.9367 -0.2822
53.8800 17.9433 -0.2914
53.9000 17.9499 -0.2850
53.9200 17.9566 -0.2844
53.9400 17.9633 -0.2932
53.9600 17.9700 -0.2826
53.9800 17.9767 -0.2868
54.0000 17.9834 -0.2974
54.0200 17.9901 -0.2805
54.0400 17.9967 -0.2902
54.0600 18.0034 -0.2989
54.0800 18.0100 -0.2900
54.1000 18.0166 -0.2868
54.1200 18.0233 -0.2924
54.1400 18.0300 -0.2919
54.1600 18.0367 -0.2937
54.1800 18.0433 -0.2938
54.2000 18.0501 -0.2884
54.2200 18.0568 -0.2979
54.2400 18.0634 -0.2934
54.2600 18.0700 -0.2952
54.2800 18.0766 -0.2971
54.3000 18.0833 -0.2902
54.3200 18.0900 -0.3007
54.3400 18.0967 -0.3030
54.3600 18.1034 -0.2919
54.3800 18.1100 -0.2983
54.4000 18.1167 -0.2989
54.4200 18.1233 -0.2999
54.4400 18.1299 -0.2942
54.4600 18.1366 -0.2981
54.4800 18.1433 -0.2966
54.5000 18.1500 -0.3021
54.5200 18.1566 -0.2973
54.5400 18.1633 -0.2992
54.5600 18.1700 -0.3032
54.5800 18.1767 -0.3030
54.6000 18.1833 -0.2967
54.6200 18.1899 -0.3036
54.6400 18.1966 -0.3037
54.6600 18.2033 -0.2988
54.6800 18.2100 -0.2965
54.7000 18.2167 -0.3075
54.7200 18.2234 -0.3043
54.7400 18.2301 -0.3006
54.7600 18.2368 -0.3026
54.7800 18.2434 -0.3047
54.8000 18.2500 -0.3046
54.8200 18.2566 -0.3056
54.8400 18.2633 -0.3048
54.8600 18.2700 -0.3008
54.8800 18.2767 -0.3129
54.9000 18.2834 -0.3083
54.9200 18.2901 -0.3013
54.9400 18.2967 -0.3081
54.9600 18.3034 -0.3115
54.9800 18.3100 -0.3006
55.0000 18.3166 -0.3056
55.0200 18.3233 -0.3158
55.0400 18.3300 -0.3025
55.0600 18.3367 -0.2972
55.0800 18.3433 -0.3218
55.1000 18.3500 -0.3074
55.1200 18.3567 -0.3086
55.1400 18.3633 -0.3095
55.1600 18.3699 -0.3158
55.1800 18.3765 -0.3135
55.2000 18.3832 -0.3091
55.2200 18.3899 -0.3073
55.2400 18.3966 -0.3098
55.2600 18.4033 -0.3144
55.2800 18.4100 -0.3096
55.3000 18.4167 -0.3164
55.3200 18.4233 -0.3164
55.3400 18.4299 -0.3123
55.3600 18.4366 -0.3164
55.3800 18.4433 -0.3182
55.4000 18.4500 -0.3105
55.4200 18.4567 -0.3170
55.4400 18.4634 -0.3212
55.4600 18.4701 -0.3093
55.4800 18.4768 -0.3145
55.5000 18.4834 -0.3312
55.5200 18.4900 -0.3074
55.5400 18.4967 -0.3108
55.5600 18.5033 -0.3277
55.5800 18.5100 -0.3185
55.6000 18.5167 -0.3168
55.6200 18.5234 -0.3221
55.6400 18.5301 -0.3149
55.6600 18.5367 -0.3234
55.6800 18.5434 -0.3228
55.7000 18.5500 -0.3134
55.7200 18.5566 -0.3326
55.7400 18.5632 -0.3281
55.7600 18.5700 -0.3094
55.7800 18.5767 -0.3266
55.8000 18.5833 -0.3301
55.8200 18.5900 -0.3164
55.8400 18.5967 -0.3257
55.8600 18.6034 -0.3342
55.8800 18.6100 -0.3191
55.9000 18.6165 -0.3293
55.9200 18.6232 -0.3279
55.9400 18.6299 -0.3187
55.9600 18.6367 -0.3314
55.9800 18.6433 -0.3272
56.0000 18.6500 -0.3219
56.0200 18.6567 -0.3291
56.0400 18.6634 -0.3346
56.0600 18.6700 -0.3244
56.0800 18.6766 -0.3269
56.1000 18.6833 -0.3310
56.1200 18.6900 -0.3295
56.1400 18.6967 -0.3346
56.1600 18.7034 -0.3324
56.1800 18.7101 -0.3160
56.2000 18.7168 -0.3412
56.2200 18.7234 -0.3434
56.2400 18.7300 -0.3229
56.2600 18.7366 -0.3292
56.2800 18.7433 -0.3360
56.3000 18.7500 -0.3298
56.3200 18.7567 -0.3379
56.3400 18.7634 -0.3330
56.3600 18.7701 -0.3313
56.3800 18.7767 -0.3325
56.4000 18.7834 -0.3312
56.4200 18.7900 -0.3359
56.4400 18.7966 -0.3423
56.4600 18.8033 -0.3337
56.4800 18.8100 -0.3263
56.5000 18.8167 -0.3439
56.5200 18.8233 -0.3411
56.5400 18.8300 -0.3309
56.5600 18.8367 -0.3392
56.5800 18.8433 -0.3394
56.6000 18.8499 -0.3384
56.6200 18.8565 -0.3398
56.6400 18.8632 -0.3307
56.6600 18.8699 -0.3403
56.6800 18.8766 -0.3427
56.7000 18.8833 -0.3370
56.7200 18.8900 -0.3385
56.7400 18.8967 -0.3467
56.7600 18.9034 -0.3430
56.7800 18.9100 -0.3422
56.8000 18.9166 -0.3405
56.8200 18.9233 -0.3468
56.8400 18.9300 -0.3467
56.8600 18.9367 -0.3426
56.8800 18.9434 -0.3431
56.9000 18.9501 -0.3480
56.9200 18.9568 -0.3416
56.9400 18.9634 -0.3486
56.9600 18.9700 -0.3507
56.9800 18.9766 -0.3386
57.0000 18.9833 -0.3498
57.0200 18.9900 -0.3569
57.0400 18.9967 -0.3399
57.0600 19.0034 -0.3518
57.0800 19.0100 -0.3545
57.1000 19.0167 -0.3401
57.1200 19.0234 -0.3554
57.1400 19.0300 -0.3527
57.1600 19.0366 -0.3452
57.1800 19.0432 -0.3570
57.2000 19.0499 -0.3530
57.2200 19.0566 -0.3448
57.2400 19.0633 -0.3637
57.2600 19.0700 -0.3537
57.2800 19.0767 -0.3484
57.3000 19.0834 -0.3678
57.3200 19.0900 -0.3556
57.3400 19.0966 -0.3472
57.3600 19.1032 -0.3685
57.3800 19.1099 -0.3570
57.4000 19.1166 -0.3550
57.4200 19.1233 -0.3637
57.4400 19.1300 -0.3539
57.4600 19.1367 -0.3581
57.4800 19.1433 -0.3670
57.5000 19.1500 -0.3519
57.5200 19.1566 -0.3614
57.5400 19.1633 -0.3672
57.5600 19.1700 -0.3579
57.5800 19.1767 -0.3614
57.6000 19.1834 -0.3681
57.6200 19.1900 -0.3633
57.6400 19.1967 -0.3636
57.6600 19.2034 -0.3722
57.6800 19.2100 -0.3604
57.7000 19.2166 -0.3643
57.7200 19.2233 -0.3707
57.7400 19.2300 -0.3640
57.7600 19.2367 -0.3626
57.7800 19.2434 -0.3750
57.8000 19.2501 -0.3653
57.8200 19.2568 -0.3686
57.8400 19.2634 -0.3752
57.8600 19.2700 -0.3683
57.8800 19.2766 -0.3695
57.9000 19.2832 -0.3687
57.9200 19.2899 -0.3649
57.9400 19.2966 -0.3811
57.9600 19.3033 -0.3723
57.9800 19.3100 -0.3666
58.0000 19.3167 -0.3785
58.0200 19.3234 -0.3780
58.0400 19.3300 -0.3687
58.0600 19.3366 -0.3743
58.0800 19.3432 -0.3736
58.1000 19.3499 -0.3799
58.1200 19.3566 -0.3762
58.1400 19.3633 -0.3651
58.1600 19.3700 -0.3849
58.1800 19.3767 -0.3786
58.2000 19.3834 -0.3618
58.2200 19.3900 -0.3861
58.2400 19.3966 -0.3793
58.2600 19.4033 -0.3655
58.2800 19.4100 -0.3845
58.3000 19.4167 -0.3786
58.3200 19.4233 -0.3746
58.3400 19.4300 -0.3859
58.3600 19.4367 -0.3749
58.3800 19.4434 -0.3811
58.4000 19.4500 -0.3928
58.4200 19.4566 -0.3727
58.4400 19.4633 -0.3771
58.4600 19.4699 -0.3919
58.4800 19.4767 -0.3768
58.5000 19.4834 -0.3784
58.5200 19.4900 -0.3955
58.5400 19.4967 -0.3789
58.5600 19.5034 -0.3864
58.5800 19.5100 -0.3934
58.6000 19.5166 -0.3804
58.6200 19.5233 -0.3858
58.6400 19.5300 -0.3893
58.6600 19.5367 -0.3857
58.6800 19.5434 -0.3891
58.7000 19.5500 -0.3879
58.7200 19.5567 -0.3899
58.7400 19.5634 -0.3889
58.7600 19.5700 -0.3906
58.7800 19.5766 -0.3881
58.8000 19.5832 -0.3884
58.8200 19.5899 -0.3885
58.8400 19.5966 -0.3953
58.8600 19.6033 -0.3882
58.8800 19.6100 -0.3856
58.9000 19.6167 -0.3989
58.9200 19.6233 -0.3929
58.9400 19.6300 -0.3920
58.9600 19.6366 -0.3964
58.9800 19.6432 -0.3887
59.0000 19.6499 -0.3939
59.0200 19.6567 -0.3999
59.0400 19.6634 -0.3949
59.0600 19.6701 -0.3990
59.0800 19.6768 -0.3950
59.1000 19.6834 -0.3993
59.1200 19.6901 -0.3975
59.1400 19.6967 -0.4004
59.1600 19.7033 -0.4030
59.1800 19.7100 -0.3999
59.2000 19.7167 -0.3955
59.2200 19.7234 -0.4059
59.2400 19.7300 -0.4041
59.2600 19.7367 -0.3957
59.2800 19.7434 -0.4059
59.3000 19.7500 -0.4169
59.3010 19.7503 -0.4177
