Raw Data
Time Displacement Force
(s) (mm) (N)
0.0000 0.0000 -0.3916
0.0200 -0.0001 -0.3933
0.0400 -0.0019 -0.4092
0.0600 -0.0092 -0.4068
0.0800 -0.0210 -0.3926
0.1000 -0.0335 -0.3972
0.1200 -0.0462 -0.3943
0.1400 -0.0596 -0.3960
0.1600 -0.0736 -0.3958
0.1800 -0.0877 -0.3935
0.2000 -0.1016 -0.3901
0.2200 -0.1152 -0.3920
0.2400 -0.1286 -0.3908
0.2600 -0.1419 -0.3905
0.2800 -0.1552 -0.3912
0.3000 -0.1685 -0.3884
0.3200 -0.1819 -0.3891
0.3400 -0.1953 -0.3880
0.3600 -0.2086 -0.3884
0.3800 -0.2219 -0.3834
0.4000 -0.2352 -0.3864
0.4200 -0.2486 -0.3822
0.4400 -0.2619 -0.3807
0.4600 -0.2753 -0.3813
0.4800 -0.2886 -0.3825
0.5000 -0.3019 -0.3785
0.5200 -0.3153 -0.3808
0.5400 -0.3286 -0.3792
0.5600 -0.3420 -0.3782
0.5800 -0.3553 -0.3771
0.6000 -0.3686 -0.3762
0.6200 -0.3820 -0.3738
0.6400 -0.3953 -0.3759
0.6600 -0.4086 -0.3738
0.6800 -0.4219 -0.3733
0.7000 -0.4353 -0.3740
0.7200 -0.4486 -0.3729
0.7400 -0.4619 -0.3685
0.7600 -0.4752 -0.3707
0.7800 -0.4886 -0.3669
0.8000 -0.5020 -0.3675
0.8200 -0.5153 -0.3673
0.8400 -0.5286 -0.3670
0.8600 -0.5420 -0.3670
0.8800 -0.5553 -0.3672
0.9000 -0.5687 -0.3657
0.9200 -0.5820 -0.3628
0.9400 -0.5953 -0.3651
0.9600 -0.6086 -0.3623
0.9800 -0.6220 -0.3611
1.0000 -0.6353 -0.3629
1.0200 -0.6486 -0.3607
1.0400 -0.6619 -0.3595
1.0600 -0.6752 -0.3605
1.0800 -0.6885 -0.3603
1.1000 -0.7018 -0.3582
1.1200 -0.7151 -0.3562
1.1400 -0.7285 -0.3560
1.1600 -0.7419 -0.3534
1.1800 -0.7552 -0.3576
1.2000 -0.7686 -0.3533
1.2200 -0.7820 -0.3526
1.2400 -0.7954 -0.3508
1.2600 -0.8087 -0.3519
1.2800 -0.8220 -0.3475
1.3000 -0.8353 -0.3500
1.3200 -0.8487 -0.3466
1.3400 -0.8620 -0.3465
1.3600 -0.8753 -0.3459
1.3800 -0.8886 -0.3451
1.4000 -0.9019 -0.3433
1.4200 -0.9153 -0.3430
1.4400 -0.9286 -0.3428
1.4600 -0.9418 -0.3410
1.4800 -0.9552 -0.3431
1.5000 -0.9685 -0.3407
1.5200 -0.9819 -0.3388
1.5400 -0.9952 -0.3422
1.5600 -1.0085 -0.3408
1.5800 -1.0219 -0.3386
1.6000 -1.0353 -0.3392
1.6200 -1.0487 -0.3382
1.6400 -1.0620 -0.3360
1.6600 -1.0753 -0.3367
1.6800 -1.0886 -0.3349
1.7000 -1.1020 -0.3331
1.7200 -1.1153 -0.3332
1.7400 -1.1286 -0.3328
1.7600 -1.1419 -0.3304
1.7800 -1.1553 -0.3326
1.8000 -1.1686 -0.3305
1.8200 -1.1819 -0.3304
1.8400 -1.1952 -0.3303
1.8600 -1.2086 -0.3299
1.8800 -1.2220 -0.3270
1.9000 -1.2353 -0.3277
1.9200 -1.2486 -0.3268
1.9400 -1.2620 -0.3244
1.9600 -1.2753 -0.3262
1.9800 -1.2887 -0.3254
2.0000 -1.3019 -0.3238
2.0200 -1.3152 -0.3245
2.0400 -1.3286 -0.3251
2.0600 -1.3420 -0.3217
2.0800 -1.3553 -0.3228
2.1000 -1.3686 -0.3209
2.1200 -1.3819 -0.3185
2.1400 -1.3953 -0.3192
2.1600 -1.4086 -0.3200
2.1800 -1.4219 -0.3185
2.2000 -1.4353 -0.3196
2.2200 -1.4486 -0.3184
2.2400 -1.4619 -0.3152
2.2600 -1.4752 -0.3183
2.2800 -1.4886 -0.3174
2.3000 -1.5019 -0.3154
2.3200 -1.5153 -0.3168
2.3400 -1.5287 -0.3147
2.3600 -1.5420 -0.3129
2.3800 -1.5553 -0.3124
2.4000 -1.5687 -0.3127
2.4200 -1.5820 -0.3082
2.4400 -1.5953 -0.3107
2.4600 -1.6086 -0.3094
2.4800 -1.6219 -0.3078
2.5000 -1.6352 -0.3077
2.5200 -1.6486 -0.3079
2.5400 -1.6618 -0.3054
2.5600 -1.6752 -0.3065
2.5800 -1.6885 -0.3059
2.6000 -1.7019 -0.3032
2.6200 -1.7153 -0.3037
2.6400 -1.7286 -0.3013
2.6600 -1.7419 -0.3012
2.6800 -1.7553 -0.3022
2.7000 -1.7687 -0.3014
2.7200 -1.7820 -0.2976
2.7400 -1.7953 -0.3022
2.7600 -1.8086 -0.2999
2.7800 -1.8220 -0.2970
2.8000 -1.8353 -0.2973
2.8200 -1.8486 -0.2989
2.8400 -1.8619 -0.2945
2.8600 -1.8753 -0.2959
2.8800 -1.8886 -0.2944
2.9000 -1.9019 -0.2926
2.9200 -1.9152 -0.2927
2.9400 -1.9285 -0.2927
2.9600 -1.9419 -0.2917
2.9800 -1.9553 -0.2919
3.0000 -1.9686 -0.2925
3.0200 -1.9819 -0.2891
3.0400 -1.9953 -0.2899
3.0600 -2.0086 -0.2904
3.0800 -2.0220 -0.2878
3.1000 -2.0353 -0.2891
3.1200 -2.0486 -0.2902
3.1400 -2.0620 -0.2884
3.1600 -2.0753 -0.2871
3.1800 -2.0886 -0.2858
3.2000 -2.1020 -0.2838
3.2200 -2.1153 -0.2866
3.2400 -2.1286 -0.2830
3.2600 -2.1419 -0.2827
3.2800 -2.1552 -0.2818
3.3000 -2.1686 -0.2821
3.3200 -2.1819 -0.2796
3.3400 -2.1953 -0.2807
3.3600 -2.2086 -0.2811
3.3800 -2.2219 -0.2777
3.4000 -2.2353 -0.2806
3.4200 -2.2487 -0.2772
3.4400 -2.2620 -0.2768
3.4600 -2.2753 -0.2751
3.4800 -2.2886 -0.2770
3.5000 -2.3020 -0.2744
3.5200 -2.3153 -0.2790
3.5400 -2.3286 -0.2763
3.5600 -2.3419 -0.2750
3.5800 -2.3553 -0.2723
3.6000 -2.3686 -0.2726
3.6200 -2.3819 -0.2703
3.6400 -2.3952 -0.2741
3.6600 -2.4086 -0.2738
3.6800 -2.4219 -0.2708
3.7000 -2.4353 -0.2698
3.7200 -2.4486 -0.2694
3.7400 -2.4619 -0.2664
3.7600 -2.4753 -0.2658
3.7800 -2.4887 -0.2686
3.8000 -2.5020 -0.2679
3.8200 -2.5153 -0.2679
3.8400 -2.5286 -0.2653
3.8600 -2.5420 -0.2620
3.8800 -2.5553 -0.2632
3.9000 -2.5686 -0.2654
3.9200 -2.5819 -0.2638
3.9400 -2.5953 -0.2631
3.9600 -2.6086 -0.2621
3.9800 -2.6219 -0.2607
4.0000 -2.6352 -0.2603
4.0200 -2.6486 -0.2597
4.0400 -2.6619 -0.2592
4.0600 -2.6753 -0.2589
4.0800 -2.6886 -0.2597
4.1000 -2.7019 -0.2581
4.1200 -2.7153 -0.2562
4.1400 -2.7286 -0.2580
4.1600 -2.7420 -0.2542
4.1800 -2.7553 -0.2562
4.2000 -2.7686 -0.2563
4.2200 -2.7820 -0.2555
4.2400 -2.7953 -0.2524
4.2600 -2.8086 -0.2530
4.2800 -2.8220 -0.2506
4.3000 -2.8353 -0.2512
4.3200 -2.8486 -0.2497
4.3400 -2.8619 -0.2491
4.3600 -2.8752 -0.2494
4.3800 -2.8885 -0.2502
4.4000 -2.9019 -0.2463
4.4200 -2.9152 -0.2474
4.4400 -2.9285 -0.2481
4.4600 -2.9419 -0.2466
4.4800 -2.9552 -0.2463
4.5000 -2.9686 -0.2466
4.5200 -2.9820 -0.2444
4.5400 -2.9953 -0.2458
4.5600 -3.0086 -0.2480
4.5800 -3.0220 -0.2433
4.6000 -3.0354 -0.2438
4.6200 -3.0487 -0.2433
4.6400 -3.0619 -0.2436
4.6600 -3.0753 -0.2421
4.6800 -3.0886 -0.2452
4.7000 -3.1019 -0.2412
4.7200 -3.1152 -0.2424
4.7400 -3.1286 -0.2416
4.7600 -3.1419 -0.2412
4.7800 -3.1553 -0.2393
4.8000 -3.1686 -0.2421
4.8200 -3.1819 -0.2373
4.8400 -3.1953 -0.2405
4.8600 -3.2087 -0.2380
4.8800 -3.2220 -0.2364
4.9000 -3.2353 -0.2354
4.9200 -3.2486 -0.2365
4.9400 -3.2619 -0.2339
4.9600 -3.2753 -0.2359
4.9800 -3.2886 -0.2359
5.0000 -3.3019 -0.2338
5.0200 -3.3153 -0.2323
5.0400 -3.3286 -0.2327
5.0600 -3.3419 -0.2334
5.0800 -3.3552 -0.2328
5.1000 -3.3685 -0.2317
5.1200 -3.3819 -0.2304
5.1400 -3.3953 -0.2289
5.1600 -3.4086 -0.2293
5.1800 -3.4219 -0.2261
5.2000 -3.4353 -0.2281
5.2200 -3.4487 -0.2273
5.2400 -3.4620 -0.2238
5.2600 -3.4753 -0.2257
5.2800 -3.4886 -0.2261
5.3000 -3.5020 -0.2250
5.3200 -3.5153 -0.2236
5.3400 -3.5286 -0.2247
5.3600 -3.5419 -0.2217
5.3800 -3.5553 -0.2227
5.4000 -3.5686 -0.2214
5.4200 -3.5819 -0.2226
5.4400 -3.5952 -0.2209
5.4600 -3.6085 -0.2241
5.4800 -3.6219 -0.2200
5.5000 -3.6352 -0.2216
5.5200 -3.6486 -0.2218
5.5400 -3.6619 -0.2219
5.5600 -3.6753 -0.2216
5.5800 -3.6887 -0.2217
5.6000 -3.7020 -0.2196
5.6200 -3.7153 -0.2204
5.6400 -3.7287 -0.2195
5.6600 -3.7420 -0.2201
5.6800 -3.7553 -0.2177
5.7000 -3.7687 -0.2182
5.7200 -3.7819 -0.2163
5.7400 -3.7953 -0.2162
5.7600 -3.8086 -0.2166
5.7800 -3.8220 -0.2150
5.8000 -3.8352 -0.2132
5.8200 -3.8486 -0.2141
5.8400 -3.8619 -0.2115
5.8600 -3.8753 -0.2125
5.8800 -3.8886 -0.2141
5.9000 -3.9019 -0.2121
5.9200 -3.9152 -0.2125
5.9400 -3.9286 -0.2124
5.9600 -3.9420 -0.2121
5.9800 -3.9553 -0.2102
6.0000 -3.9686 -0.2111
6.0200 -3.9820 -0.2070
6.0400 -3.9953 -0.2077
6.0600 -4.0087 -0.2097
6.0800 -4.0220 -0.2073
6.1000 -4.0353 -0.2055
6.1200 -4.0487 -0.2069
6.1400 -4.0620 -0.2067
6.1600 -4.0752 -0.2049
6.1800 -4.0886 -0.2065
6.2000 -4.1019 -0.2038
6.2200 -4.1153 -0.2027
6.2400 -4.1286 -0.2032
6.2600 -4.1419 -0.2028
6.2800 -4.1552 -0.2015
6.3000 -4.1686 -0.2050
6.3200 -4.1820 -0.2025
6.3400 -4.1953 -0.2011
6.3600 -4.2086 -0.2023
6.3800 -4.2220 -0.1991
6.4000 -4.2353 -0.1985
6.4200 -4.2487 -0.1991
6.4400 -4.2620 -0.1992
6.4600 -4.2753 -0.1976
6.4800 -4.2886 -0.1984
6.5000 -4.3020 -0.1954
6.5200 -4.3152 -0.1954
6.5400 -4.3285 -0.1957
6.5600 -4.3419 -0.1952
6.5800 -4.3553 -0.1945
6.6000 -4.3686 -0.1971
6.6200 -4.3819 -0.1928
6.6400 -4.3952 -0.1922
6.6600 -4.4086 -0.1911
6.6800 -4.4220 -0.1909
6.7000 -4.4353 -0.1918
6.7200 -4.4486 -0.1929
6.7400 -4.4620 -0.1916
6.7600 -4.4753 -0.1897
6.7800 -4.4887 -0.1897
6.8000 -4.5019 -0.1883
6.8200 -4.5152 -0.1883
6.8400 -4.5285 -0.1895
6.8600 -4.5419 -0.1887
6.8800 -4.5552 -0.1878
6.9000 -4.5685 -0.1885
6.9200 -4.5819 -0.1872
6.9400 -4.5953 -0.1852
6.9600 -4.6086 -0.1845
6.9800 -4.6219 -0.1849
7.0000 -4.6353 -0.1835
7.0200 -4.6487 -0.1860
7.0400 -4.6620 -0.1827
7.0600 -4.6753 -0.1831
7.0800 -4.6886 -0.1824
7.1000 -4.7020 -0.1822
7.1200 -4.7153 -0.1802
7.1400 -4.7287 -0.1810
7.1600 -4.7420 -0.1796
7.1800 -4.7553 -0.1805
7.2000 -4.7686 -0.1825
7.2200 -4.7820 -0.1821
7.2400 -4.7953 -0.1793
7.2600 -4.8086 -0.1794
7.2800 -4.8219 -0.1784
7.3000 -4.8353 -0.1776
7.3200 -4.8486 -0.1788
7.3400 -4.8619 -0.1783
7.3600 -4.8753 -0.1761
7.3800 -4.8886 -0.1773
7.4000 -4.9020 -0.1756
7.4200 -4.9153 -0.1758
7.4400 -4.9286 -0.1775
7.4600 -4.9420 -0.1747
7.4800 -4.9553 -0.1732
7.5000 -4.9687 -0.1717
7.5200 -4.9820 -0.1718
7.5400 -4.9953 -0.1716
7.5600 -5.0086 -0.1719
7.5800 -5.0220 -0.1708
7.6000 -5.0352 -0.1715
7.6200 -5.0485 -0.1706
7.6400 -5.0619 -0.1704
7.6600 -5.0753 -0.1686
7.6800 -5.0886 -0.1706
7.7000 -5.1019 -0.1697
7.7200 -5.1153 -0.1698
7.7400 -5.1286 -0.1690
7.7600 -5.1420 -0.1672
7.7800 -5.1553 -0.1652
7.8000 -5.1686 -0.1676
7.8200 -5.1819 -0.1665
7.8400 -5.1953 -0.1653
7.8600 -5.2086 -0.1644
7.8800 -5.2219 -0.1644
7.9000 -5.2352 -0.1612
7.9200 -5.2486 -0.1648
7.9400 -5.2619 -0.1641
7.9600 -5.2752 -0.1621
7.9800 -5.2885 -0.1627
8.0000 -5.3019 -0.1643
8.0200 -5.3153 -0.1631
8.0400 -5.3286 -0.1616
8.0600 -5.3419 -0.1628
8.0800 -5.3553 -0.1595
8.1000 -5.3686 -0.1602
8.1200 -5.3820 -0.1577
8.1400 -5.3953 -0.1574
8.1600 -5.4086 -0.1579
8.1800 -5.4220 -0.1562
8.2000 -5.4353 -0.1558
8.2200 -5.4487 -0.1569
8.2400 -5.4620 -0.1582
8.2600 -5.4753 -0.1573
8.2800 -5.4886 -0.1568
8.3000 -5.5019 -0.1560
8.3200 -5.5152 -0.1522
8.3400 -5.5285 -0.1542
8.3600 -5.5419 -0.1543
8.3800 -5.5552 -0.1550
8.4000 -5.5686 -0.1532
8.4200 -5.5819 -0.1554
8.4400 -5.5952 -0.1519
8.4600 -5.6086 -0.1552
8.4800 -5.6220 -0.1509
8.5000 -5.6354 -0.1511
8.5200 -5.6487 -0.1506
8.5400 -5.6620 -0.1530
8.5600 -5.6753 -0.1503
8.5800 -5.6887 -0.1530
8.6000 -5.7020 -0.1501
8.6200 -5.7153 -0.1507
8.6400 -5.7286 -0.1496
8.6600 -5.7419 -0.1503
8.6800 -5.7552 -0.1488
8.7000 -5.7685 -0.1496
8.7200 -5.7819 -0.1476
8.7400 -5.7952 -0.1484
8.7600 -5.8086 -0.1469
8.7800 -5.8219 -0.1470
8.8000 -5.8352 -0.1453
8.8200 -5.8486 -0.1454
8.8400 -5.8620 -0.1464
8.8600 -5.8754 -0.1457
8.8800 -5.8887 -0.1462
8.9000 -5.9020 -0.1454
8.9200 -5.9154 -0.1414
8.9400 -5.9287 -0.1417
8.9600 -5.9420 -0.1424
8.9800 -5.9553 -0.1401
9.0000 -5.9686 -0.1425
9.0200 -5.9819 -0.1397
9.0400 -5.9952 -0.1396
9.0600 -6.0086 -0.1378
9.0800 -6.0219 -0.1401
9.1000 -6.0353 -0.1378
9.1200 -6.0486 -0.1393
9.1400 -6.0619 -0.1395
9.1600 -6.0753 -0.1373
9.1800 -6.0886 -0.1371
9.2000 -6.1020 -0.1370
9.2200 -6.1153 -0.1369
9.2400 -6.1286 -0.1357
9.2600 -6.1419 -0.1376
9.2800 -6.1552 -0.1348
9.3000 -6.1686 -0.1360
9.3200 -6.1820 -0.1363
9.3400 -6.1953 -0.1359
9.3600 -6.2086 -0.1344
9.3800 -6.2220 -0.1331
9.4000 -6.2353 -0.1317
9.4200 -6.2486 -0.1332
9.4400 -6.2619 -0.1326
9.4600 -6.2753 -0.1325
9.4800 -6.2886 -0.1323
9.5000 -6.3019 -0.1300
9.5200 -6.3153 -0.1296
9.5400 -6.3286 -0.1296
9.5600 -6.3420 -0.1310
9.5800 -6.3553 -0.1281
9.6000 -6.3686 -0.1300
9.6200 -6.3820 -0.1274
9.6400 -6.3953 -0.1283
9.6600 -6.4087 -0.1253
9.6800 -6.4220 -0.1272
9.7000 -6.4353 -0.1246
9.7200 -6.4486 -0.1268
9.7400 -6.4619 -0.1266
9.7600 -6.4752 -0.1236
9.7800 -6.4885 -0.1226
9.8000 -6.5019 -0.1225
9.8200 -6.5152 -0.1223
9.8400 -6.5286 -0.1223
9.8600 -6.5419 -0.1232
9.8800 -6.5553 -0.1220
9.9000 -6.5686 -0.1225
9.9200 -6.5820 -0.1206
9.9400 -6.5953 -0.1222
9.9600 -6.6086 -0.1210
9.9800 -6.6220 -0.1209
10.0000 -6.6353 -0.1206
10.0200 -6.6487 -0.1186
10.0400 -6.6620 -0.1176
10.0600 -6.6753 -0.1174
10.0800 -6.6886 -0.1180
10.1000 -6.7020 -0.1183
10.1200 -6.7153 -0.1145
10.1400 -6.7286 -0.1150
10.1600 -6.7419 -0.1158
10.1800 -6.7552 -0.1172
10.2000 -6.7686 -0.1155
10.2200 -6.7819 -0.1140
10.2400 -6.7952 -0.1120
10.2600 -6.8086 -0.1128
10.2800 -6.8220 -0.1140
10.3000 -6.8353 -0.1136
10.3200 -6.8486 -0.1145
10.3400 -6.8619 -0.1141
10.3600 -6.8753 -0.1125
10.3800 -6.8886 -0.1115
10.4000 -6.9020 -0.1106
10.4200 -6.9153 -0.1103
10.4400 -6.9286 -0.1117
10.4600 -6.9420 -0.1102
10.4800 -6.9553 -0.1117
10.5000 -6.9686 -0.1114
10.5200 -6.9819 -0.1102
10.5400 -6.9952 -0.1089
10.5600 -7.0086 -0.1079
10.5800 -7.0219 -0.1089
10.6000 -7.0353 -0.1102
10.6200 -7.0486 -0.1096
10.6400 -7.0620 -0.1083
10.6600 -7.0753 -0.1067
10.6800 -7.0886 -0.1097
10.7000 -7.1019 -0.1077
10.7200 -7.1153 -0.1063
10.7400 -7.1286 -0.1046
10.7600 -7.1419 -0.1064
10.7800 -7.1552 -0.1053
10.8000 -7.1686 -0.1051
10.8200 -7.1819 -0.1045
10.8400 -7.1953 -0.1030
10.8600 -7.2086 -0.1026
10.8800 -7.2219 -0.1042
10.9000 -7.2353 -0.1031
10.9200 -7.2486 -0.1008
10.9400 -7.2620 -0.1020
10.9600 -7.2753 -0.1024
10.9800 -7.2886 -0.1011
11.0000 -7.3020 -0.1014
11.0200 -7.3153 -0.1003
11.0400 -7.3286 -0.0980
11.0600 -7.3419 -0.0971
11.0800 -7.3553 -0.0973
11.1000 -7.3686 -0.0957
11.1200 -7.3820 -0.0961
11.1400 -7.3953 -0.0968
11.1600 -7.4086 -0.0964
11.1800 -7.4219 -0.0957
11.2000 -7.4353 -0.0952
11.2200 -7.4486 -0.0979
11.2400 -7.4619 -0.0953
11.2600 -7.4753 -0.0957
11.2800 -7.4886 -0.0923
11.3000 -7.5020 -0.0932
11.3200 -7.5153 -0.0923
11.3400 -7.5286 -0.0919
11.3600 -7.5420 -0.0932
11.3800 -7.5553 -0.0953
11.4000 -7.5686 -0.0922
11.4200 -7.5819 -0.0926
11.4400 -7.5953 -0.0911
11.4600 -7.6086 -0.0905
11.4800 -7.6220 -0.0880
11.5000 -7.6353 -0.0898
11.5200 -7.6487 -0.0899
11.5400 -7.6620 -0.0901
11.5600 -7.6753 -0.0879
11.5800 -7.6886 -0.0882
11.6000 -7.7019 -0.0866
11.6200 -7.7152 -0.0876
11.6400 -7.7286 -0.0874
11.6600 -7.7419 -0.0858
11.6800 -7.7552 -0.0846
11.7000 -7.7686 -0.0867
11.7200 -7.7820 -0.0847
11.7400 -7.7953 -0.0863
11.7600 -7.8086 -0.0857
11.7800 -7.8220 -0.0851
11.8000 -7.8353 -0.0844
11.8200 -7.8487 -0.0847
11.8400 -7.8620 -0.0837
11.8600 -7.8753 -0.0847
11.8800 -7.8886 -0.0829
11.9000 -7.9019 -0.0834
11.9200 -7.9153 -0.0830
11.9400 -7.9286 -0.0816
11.9600 -7.9419 -0.0827
11.9800 -7.9552 -0.0801
12.0000 -7.9686 -0.0802
12.0200 -7.9820 -0.0787
12.0400 -7.9953 -0.0812
12.0600 -8.0086 -0.0755
12.0800 -8.0220 -0.0803
12.1000 -8.0353 -0.0772
12.1200 -8.0486 -0.0751
12.1400 -8.0619 -0.0722
12.1600 -8.0753 -0.0746
12.1800 -8.0886 -0.0721
12.2000 -8.1020 -0.0745
12.2200 -8.1153 -0.0715
12.2400 -8.1286 -0.0733
12.2600 -8.1419 -0.0719
12.2800 -8.1553 -0.0734
12.3000 -8.1686 -0.0710
12.3200 -8.1819 -0.0719
12.3400 -8.1952 -0.0695
12.3600 -8.2086 -0.0678
12.3800 -8.2219 -0.0679
12.4000 -8.2352 -0.0701
12.4200 -8.2486 -0.0695
12.4400 -8.2619 -0.0696
12.4600 -8.2753 -0.0682
12.4800 -8.2886 -0.0690
12.5000 -8.3020 -0.0670
12.5200 -8.3153 -0.0699
12.5400 -8.3287 -0.0669
12.5600 -8.3420 -0.0666
12.5800 -8.3553 -0.0667
12.6000 -8.3686 -0.0668
12.6200 -8.3819 -0.0688
12.6400 -8.3953 -0.0688
12.6600 -8.4086 -0.0656
12.6800 -8.4218 -0.0635
12.7000 -8.4352 -0.0638
12.7200 -8.4486 -0.0633
12.7400 -8.4619 -0.0636
12.7600 -8.4752 -0.0613
12.7800 -8.4886 -0.0624
12.8000 -8.5019 -0.0587
12.8200 -8.5153 -0.0592
12.8400 -8.5286 -0.0593
12.8600 -8.5419 -0.0591
12.8800 -8.5553 -0.0600
12.9000 -8.5686 -0.0587
12.9200 -8.5820 -0.0560
12.9400 -8.5953 -0.0598
12.9600 -8.6086 -0.0574
12.9800 -8.6220 -0.0609
13.0000 -8.6353 -0.0598
13.0200 -8.6486 -0.0579
13.0400 -8.6619 -0.0554
13.0600 -8.6752 -0.0558
13.0800 -8.6886 -0.0559
13.1000 -8.7019 -0.0552
13.1200 -8.7152 -0.0553
13.1400 -8.7286 -0.0561
13.1600 -8.7419 -0.0550
13.1800 -8.7553 -0.0553
13.2000 -8.7686 -0.0558
13.2200 -8.7820 -0.0546
13.2400 -8.7953 -0.0547
13.2600 -8.8087 -0.0548
13.2800 -8.8220 -0.0533
13.3000 -8.8353 -0.0533
13.3200 -8.8487 -0.0539
13.3400 -8.8620 -0.0545
13.3600 -8.8753 -0.0538
13.3800 -8.8886 -0.0550
13.4000 -8.9019 -0.0526
13.4200 -8.9152 -0.0525
13.4400 -8.9286 -0.0531
13.4600 -8.9419 -0.0522
13.4800 -8.9552 -0.0534
13.5000 -8.9686 -0.0522
13.5200 -8.9819 -0.0486
13.5400 -8.9953 -0.0472
13.5600 -9.0086 -0.0484
13.5800 -9.0219 -0.0482
13.6000 -9.0353 -0.0495
13.6200 -9.0486 -0.0484
13.6400 -9.0620 -0.0451
13.6600 -9.0753 -0.0457
13.6800 -9.0886 -0.0466
13.7000 -9.1020 -0.0462
13.7200 -9.1153 -0.0476
13.7400 -9.1286 -0.0455
13.7600 -9.1419 -0.0448
13.7800 -9.1552 -0.0443
13.8000 -9.1686 -0.0434
13.8200 -9.1819 -0.0452
13.8400 -9.1952 -0.0439
13.8600 -9.2085 -0.0449
13.8800 -9.2219 -0.0432
13.9000 -9.2353 -0.0434
13.9200 -9.2487 -0.0425
13.9400 -9.2620 -0.0420
13.9600 -9.2753 -0.0424
13.9800 -9.2887 -0.0407
14.0000 -9.3020 -0.0394
14.0200 -9.3153 -0.0406
14.0400 -9.3286 -0.0406
14.0600 -9.3419 -0.0398
14.0800 -9.3552 -0.0410
14.1000 -9.3685 -0.0378
14.1200 -9.3818 -0.0384
14.1400 -9.3952 -0.0371
14.1600 -9.4086 -0.0381
14.1800 -9.4219 -0.0347
14.2000 -9.4353 -0.0364
14.2200 -9.4486 -0.0373
14.2400 -9.4620 -0.0367
14.2600 -9.4754 -0.0373
14.2800 -9.4887 -0.0368
14.3000 -9.5020 -0.0359
14.3200 -9.5153 -0.0358
14.3400 -9.5286 -0.0347
14.3600 -9.5420 -0.0329
14.3800 -9.5553 -0.0347
14.4000 -9.5686 -0.0337
14.4200 -9.5820 -0.0357
14.4400 -9.5953 -0.0323
14.4600 -9.6086 -0.0326
14.4800 -9.6219 -0.0316
14.5000 -9.6352 -0.0322
14.5200 -9.6486 -0.0299
14.5400 -9.6619 -0.0297
14.5600 -9.6753 -0.0294
14.5800 -9.6886 -0.0308
14.6000 -9.7019 -0.0283
14.6200 -9.7153 -0.0289
14.6400 -9.7287 -0.0279
14.6600 -9.7420 -0.0274
14.6800 -9.7553 -0.0256
14.7000 -9.7686 -0.0260
14.7200 -9.7820 -0.0248
14.7400 -9.7953 -0.0242
14.7600 -9.8086 -0.0271
14.7800 -9.8219 -0.0238
14.8000 -9.8353 -0.0268
14.8200 -9.8486 -0.0241
14.8400 -9.8619 -0.0248
14.8600 -9.8752 -0.0223
14.8800 -9.8886 -0.0247
14.9000 -9.9019 -0.0218
14.9200 -9.9153 -0.0229
14.9400 -9.9286 -0.0206
14.9600 -9.9419 -0.0216
14.9800 -9.9553 -0.0207
15.0000 -9.9687 -0.0236
15.0200 -9.9820 -0.0205
15.0400 -9.9953 -0.0208
15.0600 -10.0086 -0.0204
15.0800 -10.0220 -0.0183
15.1000 -10.0353 -0.0191
15.1200 -10.0486 -0.0197
15.1400 -10.0619 -0.0188
15.1600 -10.0753 -0.0202
15.1800 -10.0886 -0.0175
15.2000 -10.1019 -0.0174
15.2200 -10.1152 -0.0147
15.2400 -10.1286 -0.0177
15.2600 -10.1420 -0.0168
15.2800 -10.1553 -0.0168
15.3000 -10.1686 -0.0155
15.3200 -10.1820 -0.0149
15.3400 -10.1953 -0.0140
15.3600 -10.2087 -0.0149
15.3800 -10.2220 -0.0140
15.4000 -10.2353 -0.0148
15.4200 -10.2486 -0.0158
15.4400 -10.2620 -0.0135
15.4600 -10.2753 -0.0118
15.4800 -10.2886 -0.0114
15.5000 -10.3019 -0.0094
15.5200 -10.3153 -0.0105
15.5400 -10.3286 -0.0137
15.5600 -10.3419 -0.0113
15.5800 -10.3552 -0.0117
15.6000 -10.3685 -0.0120
15.6200 -10.3819 -0.0086
15.6400 -10.3952 -0.0086
15.6600 -10.4086 -0.0100
15.6800 -10.4219 -0.0080
15.7000 -10.4353 -0.0110
15.7200 -10.4487 -0.0064
15.7400 -10.4620 -0.0061
15.7600 -10.4753 -0.0044
15.7800 -10.4887 -0.0084
15.8000 -10.5020 -0.0032
15.8200 -10.5153 -0.0049
15.8400 -10.5286 -0.0043
15.8600 -10.5419 -0.0047
15.8800 -10.5553 -0.0038
15.9000 -10.5686 -0.0044
15.9200 -10.5819 -0.0030
15.9400 -10.5952 -0.0043
15.9600 -10.6085 -0.0040
15.9800 -10.6219 -0.0027
16.0000 -10.6352 -0.0007
16.0200 -10.6486 -0.0028
16.0400 -10.6619 -0.0009
16.0600 -10.6753 -0.0021
16.0800 -10.6887 -0.0030
16.1000 -10.7020 -0.0026
16.1200 -10.7153 0.0002
16.1400 -10.7286 -0.0002
16.1600 -10.7420 0.0024
16.1800 -10.7553 0.0013
16.2000 -10.7686 0.0016
16.2200 -10.7819 0.0008
16.2400 -10.7953 0.0024
16.2600 -10.8086 0.0010
16.2800 -10.8219 0.0010
16.3000 -10.8352 0.0026
16.3200 -10.8486 0.0000
16.3400 -10.8619 0.0011
16.3600 -10.8753 0.0032
16.3800 -10.8886 0.0035
16.4000 -10.9019 0.0037
16.4200 -10.9153 0.0060
16.4400 -10.9287 0.0020
16.4600 -10.9419 0.0058
16.4800 -10.9552 0.0025
16.5000 -10.9686 0.0055
16.5200 -10.9819 0.0044
16.5400 -10.9953 0.0068
16.5600 -11.0086 0.0051
16.5800 -11.0219 0.0068
16.6000 -11.0353 0.0076
16.6200 -11.0486 0.0068
16.6400 -11.0619 0.0081
16.6600 -11.0752 0.0073
16.6800 -11.0886 0.0073
16.7000 -11.1019 0.0078
16.7200 -11.1153 0.0089
16.7400 -11.1286 0.0087
16.7600 -11.1420 0.0091
16.7800 -11.1553 0.0095
16.8000 -11.1687 0.0077
16.8200 -11.1820 0.0102
16.8400 -11.1953 0.0109
16.8600 -11.2087 0.0097
16.8800 -11.2220 0.0107
16.9000 -11.2353 0.0118
16.9200 -11.2486 0.0102
16.9400 -11.2619 0.0152
16.9600 -11.2753 0.0124
16.9800 -11.2886 0.0124
17.0000 -11.3019 0.0139
17.0200 -11.3152 0.0166
17.0400 -11.3285 0.0166
17.0600 -11.3419 0.0164
17.0800 -11.3553 0.0154
17.1000 -11.3686 0.0183
17.1200 -11.3819 0.0186
17.1400 -11.3953 0.0184
17.1600 -11.4087 0.0183
17.1800 -11.4220 0.0194
17.2000 -11.4353 0.0196
17.2200 -11.4486 0.0177
17.2400 -11.4620 0.0220
17.2600 -11.4753 0.0203
17.2800 -11.4886 0.0192
17.3000 -11.5019 0.0199
17.3200 -11.5153 0.0238
17.3400 -11.5286 0.0235
17.3600 -11.5419 0.0240
17.3800 -11.5552 0.0242
17.4000 -11.5686 0.0229
17.4200 -11.5819 0.0243
17.4400 -11.5953 0.0276
17.4600 -11.6086 0.0250
17.4800 -11.6219 0.0242
17.5000 -11.6353 0.0228
17.5200 -11.6486 0.0249
17.5400 -11.6620 0.0281
17.5600 -11.6753 0.0282
17.5800 -11.6886 0.0279
17.6000 -11.7020 0.0254
17.6200 -11.7153 0.0267
17.6400 -11.7286 0.0267
17.6600 -11.7419 0.0273
17.6800 -11.7553 0.0298
17.7000 -11.7686 0.0278
17.7200 -11.7819 0.0291
17.7400 -11.7952 0.0280
17.7600 -11.8086 0.0304
17.7800 -11.8219 0.0293
17.8000 -11.8353 0.0313
17.8200 -11.8486 0.0292
17.8400 -11.8619 0.0308
17.8600 -11.8753 0.0320
17.8800 -11.8887 0.0313
17.9000 -11.9020 0.0311
17.9200 -11.9153 0.0315
17.9400 -11.9286 0.0304
17.9600 -11.9420 0.0287
17.9800 -11.9553 0.0322
18.0000 -11.9686 0.0296
18.0200 -11.9819 0.0322
18.0400 -11.9953 0.0313
18.0600 -12.0086 0.0313
18.0800 -12.0219 0.0323
18.1000 -12.0352 0.0344
18.1200 -12.0486 0.0335
18.1400 -12.0619 0.0325
18.1600 -12.0753 0.0350
18.1800 -12.0886 0.0336
18.2000 -12.1019 0.0349
18.2200 -12.1153 0.0367
18.2400 -12.1287 0.0351
18.2600 -12.1420 0.0337
18.2800 -12.1553 0.0363
18.3000 -12.1686 0.0355
18.3200 -12.1819 0.0358
18.3400 -12.1953 0.0368
18.3600 -12.2086 0.0358
18.3800 -12.2219 0.0351
18.4000 -12.2353 0.0372
18.4200 -12.2486 0.0387
18.4400 -12.2619 0.0380
18.4600 -12.2752 0.0400
18.4800 -12.2886 0.0393
18.5000 -12.3019 0.0392
18.5200 -12.3153 0.0424
18.5400 -12.3286 0.0401
18.5600 -12.3419 0.0403
18.5800 -12.3553 0.0427
18.6000 -12.3687 0.0442
18.6200 -12.3820 0.0421
18.6400 -12.3953 0.0437
18.6600 -12.4086 0.0417
18.6800 -12.4220 0.0449
18.7000 -12.4353 0.0471
18.7200 -12.4486 0.0452
18.7400 -12.4620 0.0448
18.7600 -12.4753 0.0470
18.7800 -12.4887 0.0469
18.8000 -12.5020 0.0465
18.8200 -12.5152 0.0494
18.8400 -12.5285 0.0480
18.8600 -12.5419 0.0471
18.8800 -12.5552 0.0491
18.9000 -12.5685 0.0490
18.9200 -12.5818 0.0475
18.9400 -12.5952 0.0509
18.9600 -12.6086 0.0497
18.9800 -12.6220 0.0496
19.0000 -12.6353 0.0528
19.0200 -12.6487 0.0507
19.0400 -12.6620 0.0494
19.0600 -12.6754 0.0513
19.0800 -12.6887 0.0508
19.1000 -12.7020 0.0522
19.1200 -12.7153 0.0542
19.1400 -12.7286 0.0510
19.1600 -12.7419 0.0537
19.1800 -12.7552 0.0545
19.2000 -12.7686 0.0529
19.2200 -12.7819 0.0549
19.2400 -12.7953 0.0574
19.2600 -12.8086 0.0549
19.2800 -12.8219 0.0521
19.3000 -12.8353 0.0563
19.3200 -12.8486 0.0534
19.3400 -12.8620 0.0558
19.3600 -12.8753 0.0549
19.3800 -12.8886 0.0553
19.4000 -12.9020 0.0524
19.4200 -12.9153 0.0574
19.4400 -12.9287 0.0532
19.4600 -12.9419 0.0571
19.4800 -12.9553 0.0557
19.5000 -12.9686 0.0564
19.5200 -12.9819 0.0542
19.5400 -12.9952 0.0590
19.5600 -13.0085 0.0565
19.5800 -13.0219 0.0578
19.6000 -13.0353 0.0564
19.6200 -13.0486 0.0564
19.6400 -13.0619 0.0571
19.6600 -13.0753 0.0589
19.6800 -13.0886 0.0574
19.7000 -13.1020 0.0587
19.7200 -13.1153 0.0581
19.7400 -13.1286 0.0568
19.7600 -13.1420 0.0584
19.7800 -13.1553 0.0600
19.8000 -13.1687 0.0584
19.8200 -13.1820 0.0592
19.8400 -13.1953 0.0643
19.8600 -13.2086 0.0618
19.8800 -13.2219 0.0617
19.9000 -13.2352 0.0647
19.9200 -13.2485 0.0632
19.9400 -13.2619 0.0624
19.9600 -13.2752 0.0640
19.9800 -13.2886 0.0621
20.0000 -13.3019 0.0603
20.0200 -13.3153 0.0629
20.0400 -13.3287 0.0621
20.0600 -13.3420 0.0608
20.0800 -13.3553 0.0642
20.1000 -13.3686 0.0635
20.1200 -13.3820 0.0636
20.1400 -13.3953 0.0647
20.1600 -13.4087 0.0662
20.1800 -13.4220 0.0645
20.2000 -13.4353 0.0689
20.2200 -13.4486 0.0667
20.2400 -13.4620 0.0675
20.2600 -13.4753 0.0682
20.2800 -13.4886 0.0704
20.3000 -13.5019 0.0691
20.3200 -13.5153 0.0724
20.3400 -13.5286 0.0694
20.3600 -13.5419 0.0688
20.3800 -13.5552 0.0705
20.4000 -13.5686 0.0695
20.4200 -13.5820 0.0691
20.4400 -13.5953 0.0721
20.4600 -13.6086 0.0712
20.4800 -13.6220 0.0704
20.5000 -13.6353 0.0729
20.5200 -13.6487 0.0735
20.5400 -13.6620 0.0712
20.5600 -13.6753 0.0749
20.5800 -13.6886 0.0739
20.6000 -13.7019 0.0743
20.6200 -13.7152 0.0750
20.6400 -13.7285 0.0756
20.6600 -13.7419 0.0736
20.6800 -13.7553 0.0761
20.7000 -13.7686 0.0748
20.7200 -13.7819 0.0753
20.7400 -13.7952 0.0764
20.7600 -13.8086 0.0768
20.7800 -13.8220 0.0737
20.8000 -13.8353 0.0781
20.8200 -13.8486 0.0775
20.8400 -13.8620 0.0769
20.8600 -13.8753 0.0786
20.8800 -13.8887 0.0766
20.9000 -13.9020 0.0765
20.9200 -13.9153 0.0797
20.9400 -13.9286 0.0813
20.9600 -13.9420 0.0785
20.9800 -13.9553 0.0792
21.0000 -13.9685 0.0779
21.0200 -13.9819 0.0795
21.0400 -13.9953 0.0815
21.0600 -14.0086 0.0814
21.0800 -14.0219 0.0786
21.1000 -14.0352 0.0818
21.1200 -14.0486 0.0794
21.1400 -14.0620 0.0800
21.1600 -14.0754 0.0831
21.1800 -14.0887 0.0836
21.2000 -14.1020 0.0810
21.2200 -14.1154 0.0831
21.2400 -14.1287 0.0822
21.2600 -14.1420 0.0830
21.2800 -14.1552 0.0875
21.3000 -14.1685 0.0872
21.3200 -14.1819 0.0847
21.3400 -14.1952 0.0878
21.3600 -14.2085 0.0866
21.3800 -14.2219 0.0882
21.4000 -14.2352 0.0894
21.4200 -14.2486 0.0917
21.4400 -14.2619 0.0896
21.4600 -14.2753 0.0913
21.4800 -14.2887 0.0929
21.5000 -14.3020 0.0936
21.5200 -14.3153 0.0955
21.5400 -14.3286 0.0925
21.5600 -14.3419 0.0954
21.5800 -14.3553 0.0962
21.6000 -14.3687 0.0963
21.6200 -14.3820 0.0959
21.6400 -14.3953 0.0999
21.6600 -14.4086 0.0997
21.6800 -14.4220 0.0971
21.7000 -14.4353 0.1009
21.7200 -14.4486 0.0991
21.7400 -14.4619 0.0982
21.7600 -14.4753 0.1017
21.7800 -14.4886 0.1005
21.8000 -14.5019 0.1000
21.8200 -14.5152 0.1038
21.8400 -14.5286 0.1039
21.8600 -14.5420 0.1034
21.8800 -14.5553 0.1052
21.9000 -14.5686 0.1048
21.9200 -14.5819 0.1036
21.9400 -14.5953 0.1076
21.9600 -14.6086 0.1099
21.9800 -14.6219 0.1069
22.0000 -14.6352 0.1096
22.0200 -14.6486 0.1102
22.0400 -14.6619 0.1094
22.0600 -14.6752 0.1115
22.0800 -14.6885 0.1126
22.1000 -14.7019 0.1119
22.1200 -14.7153 0.1146
22.1400 -14.7286 0.1139
22.1600 -14.7419 0.1128
22.1800 -14.7553 0.1149
22.2000 -14.7686 0.1153
22.2200 -14.7820 0.1158
22.2400 -14.7953 0.1159
22.2600 -14.8086 0.1181
22.2800 -14.8220 0.1156
22.3000 -14.8353 0.1188
22.3200 -14.8486 0.1193
22.3400 -14.8619 0.1173
22.3600 -14.8753 0.1187
22.3800 -14.8886 0.1196
22.4000 -14.9019 0.1176
22.4200 -14.9152 0.1205
22.4400 -14.9285 0.1198
22.4600 -14.9419 0.1187
22.4800 -14.9553 0.1194
22.5000 -14.9686 0.1202
22.5200 -14.9820 0.1172
22.5400 -14.9953 0.1204
22.5600 -15.0086 0.1183
22.5800 -15.0220 0.1195
22.6000 -15.0353 0.1191
22.6200 -15.0486 0.1201
22.6400 -15.0620 0.1190
22.6600 -15.0753 0.1215
22.6800 -15.0887 0.1208
22.7000 -15.1020 0.1197
22.7200 -15.1153 0.1205
22.7400 -15.1286 0.1221
22.7600 -15.1419 0.1215
22.7800 -15.1552 0.1209
22.8000 -15.1685 0.1209
22.8200 -15.1818 0.1202
22.8400 -15.1952 0.1247
22.8600 -15.2086 0.1226
22.8800 -15.2219 0.1235
22.9000 -15.2352 0.1259
22.9200 -15.2486 0.1275
22.9400 -15.2620 0.1236
22.9600 -15.2753 0.1256
22.9800 -15.2887 0.1263
23.0000 -15.3020 0.1261
23.0200 -15.3153 0.1259
23.0400 -15.3287 0.1266
23.0600 -15.3420 0.1252
23.0800 -15.3553 0.1278
23.1000 -15.3686 0.1303
23.1200 -15.3819 0.1286
23.1400 -15.3952 0.1283
23.1600 -15.4085 0.1305
23.1800 -15.4219 0.1268
23.2000 -15.4352 0.1307
23.2200 -15.4486 0.1326
23.2400 -15.4619 0.1328
23.2600 -15.4752 0.1305
23.2800 -15.4886 0.1349
23.3000 -15.5020 0.1302
23.3200 -15.5154 0.1366
23.3400 -15.5287 0.1329
23.3600 -15.5420 0.1333
23.3800 -15.5553 0.1343
23.4000 -15.5687 0.1348
23.4200 -15.5820 0.1333
23.4400 -15.5953 0.1368
23.4600 -15.6086 0.1374
23.4800 -15.6219 0.1357
23.5000 -15.6352 0.1381
23.5200 -15.6485 0.1393
23.5400 -15.6619 0.1373
23.5600 -15.6753 0.1378
23.5800 -15.6886 0.1407
23.6000 -15.7020 0.1373
23.6200 -15.7153 0.1401
23.6400 -15.7286 0.1406
23.6600 -15.7420 0.1374
23.6800 -15.7553 0.1398
23.7000 -15.7686 0.1408
23.7200 -15.7819 0.1398
23.7400 -15.7952 0.1440
23.7600 -15.8086 0.1437
23.7800 -15.8220 0.1404
23.8000 -15.8353 0.1408
23.8200 -15.8486 0.1436
23.8400 -15.8620 0.1398
23.8600 -15.8753 0.1430
23.8800 -15.8886 0.1429
23.9000 -15.9019 0.1413
23.9200 -15.9152 0.1398
23.9400 -15.9286 0.1409
23.9600 -15.9419 0.1407
23.9800 -15.9552 0.1423
24.0000 -15.9686 0.1457
24.0200 -15.9820 0.1432
24.0400 -15.9954 0.1443
24.0600 -16.0087 0.1456
24.0800 -16.0220 0.1452
24.1000 -16.0353 0.1478
24.1200 -16.0487 0.1488
24.1400 -16.0620 0.1487
24.1600 -16.0753 0.1482
24.1800 -16.0886 0.1492
24.2000 -16.1020 0.1475
24.2200 -16.1153 0.1510
24.2400 -16.1286 0.1502
24.2600 -16.1419 0.1506
24.2800 -16.1552 0.1523
24.3000 -16.1686 0.1546
24.3200 -16.1819 0.1528
24.3400 -16.1952 0.1516
24.3600 -16.2086 0.1556
24.3800 -16.2220 0.1553
24.4000 -16.2353 0.1558
24.4200 -16.2486 0.1572
24.4400 -16.2620 0.1562
24.4600 -16.2753 0.1565
24.4800 -16.2887 0.1589
24.5000 -16.3020 0.1575
24.5200 -16.3153 0.1572
24.5400 -16.3286 0.1601
24.5600 -16.3420 0.1610
24.5800 -16.3553 0.1612
24.6000 -16.3685 0.1606
24.6200 -16.3818 0.1613
24.6400 -16.3952 0.1617
24.6600 -16.4086 0.1648
24.6800 -16.4219 0.1627
24.7000 -16.4352 0.1640
24.7200 -16.4486 0.1645
24.7400 -16.4619 0.1653
24.7600 -16.4753 0.1663
24.7800 -16.4886 0.1665
24.8000 -16.5019 0.1685
24.8200 -16.5153 0.1661
24.8400 -16.5287 0.1702
24.8600 -16.5420 0.1675
24.8800 -16.5553 0.1683
24.9000 -16.5686 0.1688
24.9200 -16.5820 0.1703
24.9400 -16.5953 0.1699
24.9600 -16.6086 0.1716
24.9800 -16.6219 0.1704
25.0000 -16.6352 0.1703
25.0200 -16.6486 0.1733
25.0400 -16.6620 0.1713
25.0600 -16.6753 0.1729
25.0800 -16.6886 0.1732
25.1000 -16.7020 0.1752
25.1200 -16.7154 0.1729
25.1400 -16.7286 0.1745
25.1600 -16.7419 0.1758
25.1800 -16.7553 0.1732
25.2000 -16.7686 0.1758
25.2200 -16.7819 0.1762
25.2400 -16.7953 0.1755
25.2600 -16.8086 0.1787
25.2800 -16.8220 0.1753
25.3000 -16.8353 0.1781
25.3200 -16.8486 0.1803
25.3400 -16.8619 0.1804
25.3600 -16.8752 0.1814
25.3800 -16.8886 0.1841
25.4000 -16.9020 0.1812
25.4200 -16.9152 0.1812
25.4400 -16.9286 0.1825
25.4600 -16.9420 0.1813
25.4800 -16.9553 0.1820
25.5000 -16.9687 0.1849
25.5200 -16.9819 0.1833
25.5400 -16.9953 0.1840
25.5600 -17.0086 0.1842
25.5800 -17.0219 0.1850
25.6000 -17.0352 0.1845
25.6200 -17.0485 0.1852
25.6400 -17.0619 0.1843
25.6600 -17.0753 0.1850
25.6800 -17.0886 0.1863
25.7000 -17.1019 0.1860
25.7200 -17.1152 0.1857
25.7400 -17.1286 0.1879
25.7600 -17.1419 0.1875
25.7800 -17.1552 0.1886
25.8000 -17.1686 0.1922
25.8200 -17.1819 0.1886
25.8400 -17.1953 0.1883
25.8600 -17.2086 0.1888
25.8800 -17.2219 0.1906
25.9000 -17.2353 0.1894
25.9200 -17.2487 0.1938
25.9400 -17.2620 0.1909
25.9600 -17.2753 0.1916
25.9800 -17.2887 0.1911
26.0000 -17.3020 0.1934
26.0200 -17.3153 0.1926
26.0400 -17.3286 0.1949
26.0600 -17.3419 0.1911
26.0800 -17.3552 0.1935
26.1000 -17.3686 0.1936
26.1200 -17.3819 0.1947
26.1400 -17.3952 0.1925
26.1600 -17.4086 0.1950
26.1800 -17.4219 0.1941
26.2000 -17.4353 0.1951
26.2200 -17.4487 0.1971
26.2400 -17.4620 0.1946
26.2600 -17.4753 0.1955
26.2800 -17.4887 0.2005
26.3000 -17.5020 0.1993
26.3200 -17.5153 0.1998
26.3400 -17.5286 0.2010
26.3600 -17.5419 0.2002
26.3800 -17.5553 0.2027
26.4000 -17.5686 0.2063
26.4200 -17.5819 0.2039
26.4400 -17.5952 0.2035
26.4600 -17.6086 0.2048
26.4800 -17.6220 0.2052
26.5000 -17.6353 0.2030
26.5200 -17.6486 0.2048
26.5400 -17.6620 0.2061
26.5600 -17.6753 0.2047
26.5800 -17.6887 0.2072
26.6000 -17.7020 0.2043
26.6200 -17.7153 0.2074
26.6400 -17.7286 0.2075
26.6600 -17.7420 0.2077
26.6800 -17.7553 0.2055
26.7000 -17.7686 0.2077
26.7200 -17.7819 0.2064
26.7400 -17.7953 0.2074
26.7600 -17.8086 0.2081
26.7800 -17.8219 0.2094
26.8000 -17.8352 0.2058
26.8200 -17.8486 0.2097
26.8400 -17.8619 0.2079
26.8600 -17.8753 0.2091
26.8800 -17.8886 0.2093
26.9000 -17.9019 0.2087
26.9200 -17.9153 0.2093
26.9400 -17.9286 0.2101
26.9600 -17.9420 0.2108
26.9800 -17.9553 0.2133
27.0000 -17.9687 0.2134
27.0200 -17.9820 0.2135
27.0400 -17.9953 0.2143
27.0600 -18.0086 0.2146
27.0800 -18.0219 0.2141
27.1000 -18.0353 0.2152
27.1200 -18.0486 0.2185
27.1400 -18.0618 0.2187
27.1600 -18.0752 0.2186
27.1800 -18.0885 0.2216
27.2000 -18.1019 0.2200
27.2200 -18.1152 0.2198
27.2400 -18.1286 0.2218
27.2600 -18.1419 0.2213
27.2800 -18.1553 0.2203
27.3000 -18.1687 0.2223
27.3200 -18.1820 0.2217
27.3400 -18.1953 0.2217
27.3600 -18.2087 0.2235
27.3800 -18.2220 0.2244
27.4000 -18.2353 0.2262
27.4200 -18.2486 0.2263
27.4400 -18.2619 0.2260
27.4600 -18.2753 0.2246
27.4800 -18.2886 0.2277
27.5000 -18.3019 0.2271
27.5200 -18.3152 0.2275
27.5400 -18.3286 0.2280
27.5600 -18.3419 0.2273
27.5800 -18.3552 0.2249
27.6000 -18.3686 0.2273
27.6200 -18.3819 0.2264
27.6400 -18.3953 0.2272
27.6600 -18.4086 0.2290
27.6800 -18.4219 0.2305
27.7000 -18.4353 0.2303
27.7200 -18.4486 0.2304
27.7400 -18.4620 0.2304
27.7600 -18.4753 0.2289
27.7800 -18.4887 0.2282
27.8000 -18.5020 0.2309
27.8200 -18.5153 0.2303
27.8400 -18.5286 0.2324
27.8600 -18.5419 0.2329
27.8800 -18.5552 0.2307
27.9000 -18.5686 0.2342
27.9200 -18.5819 0.2350
27.9400 -18.5952 0.2359
27.9600 -18.6086 0.2359
27.9800 -18.6219 0.2377
28.0000 -18.6353 0.2362
28.0200 -18.6486 0.2363
28.0400 -18.6619 0.2361
28.0600 -18.6753 0.2376
28.0800 -18.6886 0.2378
28.1000 -18.7020 0.2422
28.1200 -18.7153 0.2400
28.1400 -18.7286 0.2433
28.1600 -18.7420 0.2437
28.1800 -18.7553 0.2433
28.2000 -18.7686 0.2449
28.2200 -18.7819 0.2460
28.2400 -18.7952 0.2443
28.2600 -18.8086 0.2450
28.2800 -18.8219 0.2458
28.3000 -18.8352 0.2470
28.3200 -18.8486 0.2481
28.3400 -18.8619 0.2474
28.3600 -18.8753 0.2446
28.3800 -18.8887 0.2476
28.4000 -18.9020 0.2470
28.4200 -18.9153 0.2448
28.4400 -18.9287 0.2483
28.4600 -18.9420 0.2462
28.4800 -18.9553 0.2457
28.5000 -18.9686 0.2482
28.5200 -18.9819 0.2473
28.5400 -18.9952 0.2469
28.5600 -19.0085 0.2469
28.5800 -19.0218 0.2492
28.6000 -19.0352 0.2489
28.6200 -19.0486 0.2489
28.6400 -19.0619 0.2494
28.6600 -19.0753 0.2476
28.6800 -19.0886 0.2496
28.7000 -19.1020 0.2497
28.7200 -19.1153 0.2517
28.7400 -19.1287 0.2548
28.7600 -19.1420 0.2554
28.7800 -19.1553 0.2549
28.8000 -19.1686 0.2542
28.8200 -19.1820 0.2552
28.8400 -19.1953 0.2568
28.8600 -19.2086 0.2578
28.8800 -19.2220 0.2569
28.9000 -19.2353 0.2566
28.9200 -19.2486 0.2591
28.9400 -19.2619 0.2556
28.9600 -19.2752 0.2564
28.9800 -19.2886 0.2580
29.0000 -19.3019 0.2602
29.0200 -19.3152 0.2588
29.0400 -19.3286 0.2582
29.0600 -19.3419 0.2574
29.0800 -19.3553 0.2605
29.1000 -19.3686 0.2600
29.1200 -19.3820 0.2607
29.1400 -19.3953 0.2623
29.1600 -19.4086 0.2627
29.1800 -19.4220 0.2641
29.2000 -19.4353 0.2645
29.2200 -19.4486 0.2658
29.2400 -19.4619 0.2646
29.2600 -19.4753 0.2619
29.2800 -19.4886 0.2644
29.3000 -19.5019 0.2639
29.3200 -19.5152 0.2633
29.3400 -19.5286 0.2676
29.3600 -19.5419 0.2670
29.3800 -19.5553 0.2661
29.4000 -19.5686 0.2698
29.4200 -19.5819 0.2708
29.4400 -19.5953 0.2685
29.4600 -19.6087 0.2717
29.4800 -19.6220 0.2723
29.5000 -19.6353 0.2725
29.5200 -19.6486 0.2717
29.5400 -19.6620 0.2752
29.5600 -19.6753 0.2748
29.5800 -19.6886 0.2762
29.6000 -19.7019 0.2751
29.6200 -19.7153 0.2767
29.6400 -19.7286 0.2781
29.6600 -19.7419 0.2808
29.6800 -19.7552 0.2800
29.7000 -19.7686 0.2827
29.7200 -19.7819 0.2842
29.7400 -19.7953 0.2844
29.7600 -19.8086 0.2812
29.7800 -19.8219 0.2836
29.8000 -19.8353 0.2850
29.8200 -19.8487 0.2874
29.8400 -19.8620 0.2850
29.8600 -19.8753 0.2875
29.8800 -19.8886 0.2873
29.9000 -19.9020 0.2870
29.9200 -19.9153 0.2872
29.9400 -19.9286 0.2856
29.9600 -19.9419 0.2885
29.9800 -19.9553 0.2896
30.0000 -19.9686 0.2881
30.0200 -19.9819 0.2881
30.0400 -19.9952 0.2907
30.0600 -20.0085 0.2921
30.0800 -20.0219 0.2946
30.1000 -20.0352 0.2894
30.1200 -20.0486 0.2513
30.1400 -20.0619 0.1789
30.1600 -20.0753 0.1014
30.1800 -20.0887 0.0303
30.2000 -20.1020 -0.0389
30.2200 -20.1153 -0.1109
30.2400 -20.1287 -0.1614
30.2600 -20.1420 -0.1931
30.2800 -20.1553 -0.2290
30.3000 -20.1686 -0.2754
30.3200 -20.1819 -0.3156
30.3400 -20.1953 -0.3541
30.3600 -20.2086 -0.3880
30.3800 -20.2219 -0.4269
30.4000 -20.2352 -0.4622
30.4200 -20.2485 -0.4785
30.4400 -20.2619 -0.4814
30.4600 -20.2752 -0.4763
30.4800 -20.2886 -0.4756
30.5000 -20.3019 -0.4751
30.5200 -20.3153 -0.4740
30.5400 -20.3287 -0.4722
30.5600 -20.3420 -0.4738
30.5800 -20.3553 -0.4738
30.6000 -20.3686 -0.4709
30.6200 -20.3820 -0.4702
30.6400 -20.3953 -0.4681
30.6600 -20.4086 -0.4680
30.6800 -20.4219 -0.4691
30.7000 -20.4353 -0.4689
30.7200 -20.4486 -0.4670
30.7400 -20.4619 -0.4653
30.7600 -20.4752 -0.4657
30.7800 -20.4886 -0.4676
30.8000 -20.5019 -0.4659
30.8200 -20.5153 -0.4665
30.8400 -20.5286 -0.4674
30.8600 -20.5419 -0.4674
30.8800 -20.5553 -0.4676
30.9000 -20.5687 -0.4654
30.9200 -20.5820 -0.4655
30.9400 -20.5952 -0.4636
30.9600 -20.6086 -0.4634
30.9800 -20.6219 -0.4641
31.0000 -20.6353 -0.4637
31.0200 -20.6486 -0.4636
31.0400 -20.6619 -0.4620
31.0600 -20.6753 -0.4619
31.0800 -20.6886 -0.4636
31.1000 -20.7019 -0.4616
31.1200 -20.7152 -0.4633
31.1400 -20.7286 -0.4600
31.1600 -20.7419 -0.4595
31.1800 -20.7553 -0.4578
31.2000 -20.7686 -0.4574
31.2200 -20.7819 -0.4577
31.2400 -20.7953 -0.4554
31.2600 -20.8087 -0.4560
31.2800 -20.8220 -0.4530
31.3000 -20.8353 -0.4530
31.3200 -20.8487 -0.4524
31.3400 -20.8620 -0.4491
31.3600 -20.8754 -0.4482
31.3800 -20.8887 -0.4507
31.4000 -20.9020 -0.4481
31.4200 -20.9153 -0.4488
31.4400 -20.9286 -0.4467
31.4600 -20.9419 -0.4454
31.4800 -20.9552 -0.4438
31.5000 -20.9686 -0.4420
31.5200 -20.9819 -0.4435
31.5400 -20.9953 -0.4428
31.5600 -21.0086 -0.4407
31.5800 -21.0219 -0.4410
31.6000 -21.0353 -0.4385
31.6200 -21.0487 -0.4369
31.6400 -21.0620 -0.4370
31.6600 -21.0753 -0.4386
31.6800 -21.0886 -0.4363
31.7000 -21.1020 -0.4365
31.7200 -21.1153 -0.4319
31.7400 -21.1286 -0.4320
31.7600 -21.1419 -0.4296
31.7800 -21.1553 -0.4333
31.8000 -21.1686 -0.4346
31.8200 -21.1819 -0.4314
31.8400 -21.1952 -0.4299
31.8600 -21.2085 -0.4311
31.8800 -21.2219 -0.4290
31.9000 -21.2353 -0.4286
31.9200 -21.2486 -0.4274
31.9400 -21.2619 -0.4243
31.9600 -21.2753 -0.4241
31.9800 -21.2886 -0.4221
32.0000 -21.3020 -0.4253
32.0200 -21.3153 -0.4200
32.0400 -21.3286 -0.4207
32.0600 -21.3420 -0.4210
32.0800 -21.3553 -0.4200
32.1000 -21.3686 -0.4188
32.1200 -21.3819 -0.4192
32.1400 -21.3953 -0.4181
32.1600 -21.4087 -0.4170
32.1800 -21.4220 -0.4152
32.2000 -21.4352 -0.4152
32.2200 -21.4485 -0.4137
32.2400 -21.4619 -0.4151
32.2600 -21.4753 -0.4148
32.2800 -21.4886 -0.4116
32.3000 -21.5019 -0.4116
32.3200 -21.5153 -0.4115
32.3400 -21.5287 -0.4108
32.3600 -21.5420 -0.4084
32.3800 -21.5553 -0.4084
32.4000 -21.5686 -0.4062
32.4200 -21.5819 -0.4028
32.4400 -21.5953 -0.4048
32.4600 -21.6086 -0.4031
32.4800 -21.6219 -0.4021
32.5000 -21.6353 -0.3980
32.5200 -21.6486 -0.4005
32.5400 -21.6619 -0.3971
32.5600 -21.6752 -0.3959
32.5800 -21.6886 -0.3941
32.6000 -21.7019 -0.3936
32.6200 -21.7153 -0.3897
32.6400 -21.7286 -0.3923
32.6600 -21.7419 -0.3917
32.6800 -21.7553 -0.3921
32.7000 -21.7687 -0.3916
32.7200 -21.7820 -0.3880
32.7400 -21.7953 -0.3895
32.7600 -21.8086 -0.3879
32.7800 -21.8220 -0.3896
32.8000 -21.8353 -0.3879
32.8200 -21.8486 -0.3866
32.8400 -21.8619 -0.3858
32.8600 -21.8752 -0.3861
32.8800 -21.8886 -0.3875
32.9000 -21.9019 -0.3884
32.9200 -21.9152 -0.3875
32.9400 -21.9286 -0.3861
32.9600 -21.9419 -0.3873
32.9800 -21.9553 -0.3867
33.0000 -21.9686 -0.3874
33.0200 -21.9819 -0.3853
33.0400 -21.9953 -0.3865
33.0600 -22.0087 -0.3872
33.0800 -22.0220 -0.3883
33.1000 -22.0353 -0.3869
33.1200 -22.0486 -0.3837
33.1400 -22.0620 -0.3843
33.1600 -22.0753 -0.3826
33.1800 -22.0886 -0.3819
33.2000 -22.1020 -0.3812
33.2200 -22.1153 -0.3842
33.2400 -22.1287 -0.3799
33.2600 -22.1420 -0.3803
33.2800 -22.1552 -0.3776
33.3000 -22.1685 -0.3795
33.3200 -22.1819 -0.3794
33.3400 -22.1952 -0.3804
33.3600 -22.2085 -0.3762
33.3800 -22.2218 -0.3780
33.4000 -22.2352 -0.3775
33.4200 -22.2486 -0.3787
33.4400 -22.2620 -0.3748
33.4600 -22.2753 -0.3756
33.4800 -22.2886 -0.3752
33.5000 -22.3020 -0.3742
33.5200 -22.3154 -0.3713
33.5400 -22.3287 -0.3699
33.5600 -22.3420 -0.3735
33.5800 -22.3553 -0.3726
33.6000 -22.3686 -0.3718
33.6200 -22.3819 -0.3703
33.6400 -22.3952 -0.3700
33.6600 -22.4085 -0.3678
33.6800 -22.4219 -0.3698
33.7000 -22.4353 -0.3667
33.7200 -22.4486 -0.3672
33.7400 -22.4619 -0.3665
33.7600 -22.4753 -0.3664
33.7800 -22.4887 -0.3654
33.8000 -22.5020 -0.3672
33.8200 -22.5153 -0.3647
33.8400 -22.5286 -0.3629
33.8600 -22.5419 -0.3644
33.8800 -22.5553 -0.3650
33.9000 -22.5686 -0.3631
33.9200 -22.5820 -0.3658
33.9400 -22.5953 -0.3623
33.9600 -22.6086 -0.3613
33.9800 -22.6220 -0.3625
34.0000 -22.6352 -0.3611
34.0200 -22.6485 -0.3586
34.0400 -22.6619 -0.3605
34.0600 -22.6753 -0.3568
34.0800 -22.6886 -0.3565
34.1000 -22.7019 -0.3553
34.1200 -22.7153 -0.3560
34.1400 -22.7286 -0.3517
34.1600 -22.7420 -0.3541
34.1800 -22.7553 -0.3528
34.2000 -22.7686 -0.3520
34.2200 -22.7820 -0.3517
34.2400 -22.7953 -0.3505
34.2600 -22.8087 -0.3494
34.2800 -22.8220 -0.3472
34.3000 -22.8353 -0.3460
34.3200 -22.8486 -0.3445
34.3400 -22.8619 -0.3459
34.3600 -22.8752 -0.3443
34.3800 -22.8885 -0.3429
34.4000 -22.9019 -0.3424
34.4200 -22.9152 -0.3435
34.4400 -22.9286 -0.3415
34.4600 -22.9419 -0.3416
34.4800 -22.9553 -0.3405
34.5000 -22.9686 -0.3385
34.5200 -22.9820 -0.3380
34.5400 -22.9953 -0.3377
34.5600 -23.0086 -0.3349
34.5800 -23.0220 -0.3379
34.6000 -23.0353 -0.3356
34.6200 -23.0487 -0.3331
34.6400 -23.0620 -0.3346
34.6600 -23.0753 -0.3319
34.6800 -23.0886 -0.3294
34.7000 -23.1020 -0.3288
34.7200 -23.1152 -0.3291
34.7400 -23.1285 -0.3263
34.7600 -23.1419 -0.3297
34.7800 -23.1553 -0.3262
34.8000 -23.1686 -0.3259
34.8200 -23.1819 -0.3247
34.8400 -23.1952 -0.3256
34.8600 -23.2086 -0.3239
34.8800 -23.2220 -0.3256
34.9000 -23.2353 -0.3223
34.9200 -23.2486 -0.3235
34.9400 -23.2619 -0.3250
34.9600 -23.2753 -0.3250
34.9800 -23.2887 -0.3238
35.0000 -23.3020 -0.3273
35.0200 -23.3153 -0.3227
35.0400 -23.3286 -0.3226
35.0600 -23.3420 -0.3256
35.0800 -23.3553 -0.3239
35.1000 -23.3686 -0.3247
35.1200 -23.3819 -0.3264
35.1400 -23.3952 -0.3251
35.1600 -23.4086 -0.3258
35.1800 -23.4219 -0.3278
35.2000 -23.4352 -0.3273
35.2200 -23.4486 -0.3230
35.2400 -23.4620 -0.3220
35.2600 -23.4753 -0.3217
35.2800 -23.4886 -0.3241
35.3000 -23.5019 -0.3253
35.3200 -23.5153 -0.3256
35.3400 -23.5287 -0.3230
35.3600 -23.5420 -0.3225
35.3800 -23.5553 -0.3218
35.4000 -23.5686 -0.3225
35.4200 -23.5820 -0.3212
35.4400 -23.5953 -0.3205
35.4600 -23.6085 -0.3195
35.4800 -23.6219 -0.3194
35.5000 -23.6353 -0.3186
35.5200 -23.6486 -0.3169
35.5400 -23.6619 -0.3189
35.5600 -23.6752 -0.3179
35.5800 -23.6886 -0.3171
35.6000 -23.7020 -0.3168
35.6200 -23.7154 -0.3172
35.6400 -23.7287 -0.3133
35.6600 -23.7420 -0.3141
35.6800 -23.7553 -0.3124
35.7000 -23.7687 -0.3103
35.7200 -23.7820 -0.3105
35.7400 -23.7952 -0.3113
35.7600 -23.8086 -0.3080
35.7800 -23.8219 -0.3090
35.8000 -23.8352 -0.3076
35.8200 -23.8485 -0.3062
35.8400 -23.8619 -0.3039
35.8600 -23.8753 -0.3038
35.8800 -23.8886 -0.3019
35.9000 -23.9019 -0.3047
35.9200 -23.9153 -0.3028
35.9400 -23.9287 -0.3018
35.9600 -23.9420 -0.2994
35.9800 -23.9553 -0.3000
36.0000 -23.9686 -0.2962
36.0200 -23.9820 -0.2993
36.0400 -23.9953 -0.2971
36.0600 -24.0087 -0.2969
36.0800 -24.0220 -0.2954
36.1000 -24.0353 -0.2949
36.1200 -24.0486 -0.2942
36.1400 -24.0620 -0.2964
36.1600 -24.0753 -0.2936
36.1800 -24.0886 -0.2934
36.2000 -24.1019 -0.2934
36.2200 -24.1153 -0.2941
36.2400 -24.1286 -0.2909
36.2600 -24.1419 -0.2928
36.2800 -24.1552 -0.2915
36.3000 -24.1686 -0.2909
36.3200 -24.1820 -0.2908
36.3400 -24.1953 -0.2901
36.3600 -24.2086 -0.2876
36.3800 -24.2219 -0.2903
36.4000 -24.2353 -0.2895
36.4200 -24.2486 -0.2876
36.4400 -24.2619 -0.2882
36.4600 -24.2753 -0.2883
36.4800 -24.2886 -0.2872
36.5000 -24.3020 -0.2856
36.5200 -24.3153 -0.2851
36.5400 -24.3286 -0.2829
36.5600 -24.3419 -0.2835
36.5800 -24.3552 -0.2833
36.6000 -24.3686 -0.2808
36.6200 -24.3819 -0.2800
36.6400 -24.3953 -0.2833
36.6600 -24.4086 -0.2802
36.6800 -24.4220 -0.2813
36.7000 -24.4353 -0.2779
36.7200 -24.4486 -0.2800
36.7400 -24.4619 -0.2787
36.7600 -24.4753 -0.2811
36.7800 -24.4886 -0.2766
36.8000 -24.5019 -0.2800
36.8200 -24.5153 -0.2784
36.8400 -24.5286 -0.2762
36.8600 -24.5419 -0.2744
36.8800 -24.5552 -0.2773
36.9000 -24.5685 -0.2751
36.9200 -24.5819 -0.2768
36.9400 -24.5953 -0.2752
36.9600 -24.6086 -0.2760
36.9800 -24.6220 -0.2750
37.0000 -24.6353 -0.2759
37.0200 -24.6486 -0.2719
37.0400 -24.6620 -0.2741
37.0600 -24.6753 -0.2734
37.0800 -24.6886 -0.2727
37.1000 -24.7020 -0.2717
37.1200 -24.7153 -0.2733
37.1400 -24.7287 -0.2700
37.1600 -24.7420 -0.2695
37.1800 -24.7553 -0.2695
37.2000 -24.7686 -0.2686
37.2200 -24.7819 -0.2684
37.2400 -24.7952 -0.2695
37.2600 -24.8085 -0.2682
37.2800 -24.8218 -0.2700
37.3000 -24.8352 -0.2692
37.3200 -24.8486 -0.2663
37.3400 -24.8619 -0.2667
37.3600 -24.8752 -0.2685
37.3800 -24.8886 -0.2654
37.4000 -24.9020 -0.2669
37.4200 -24.9153 -0.2675
37.4400 -24.9287 -0.2669
37.4600 -24.9420 -0.2664
37.4800 -24.9553 -0.2652
37.5000 -24.9687 -0.2642
37.5200 -24.9820 -0.2648
37.5400 -24.9953 -0.2653
37.5600 -25.0086 -0.2628
37.5800 -25.0219 -0.2642
37.6000 -25.0352 -0.2640
37.6200 -25.0485 -0.2629
37.6400 -25.0618 -0.2620
37.6600 -25.0752 -0.2631
37.6800 -25.0886 -0.2588
37.7000 -25.1019 -0.2622
37.7200 -25.1153 -0.2616
37.7400 -25.1286 -0.2606
37.7600 -25.1420 -0.2604
37.7800 -25.1554 -0.2592
37.8000 -25.1687 -0.2562
37.8200 -25.1820 -0.2573
37.8400 -25.1953 -0.2556
37.8600 -25.2087 -0.2541
37.8800 -25.2220 -0.2533
37.9000 -25.2353 -0.2536
37.9200 -25.2486 -0.2511
37.9400 -25.2619 -0.2521
37.9600 -25.2753 -0.2503
37.9800 -25.2885 -0.2496
38.0000 -25.3019 -0.2505
38.0200 -25.3152 -0.2506
38.0400 -25.3286 -0.2482
38.0600 -25.3420 -0.2481
38.0800 -25.3553 -0.2486
38.1000 -25.3686 -0.2453
38.1200 -25.3820 -0.2447
38.1400 -25.3953 -0.2464
38.1600 -25.4086 -0.2452
38.1800 -25.4219 -0.2429
38.2000 -25.4352 -0.2447
38.2200 -25.4486 -0.2429
38.2400 -25.4620 -0.2444
38.2600 -25.4753 -0.2430
38.2800 -25.4886 -0.2429
38.3000 -25.5019 -0.2428
38.3200 -25.5152 -0.2432
38.3400 -25.5285 -0.2400
38.3600 -25.5419 -0.2378
38.3800 -25.5552 -0.2407
38.4000 -25.5686 -0.2380
38.4200 -25.5819 -0.2375
38.4400 -25.5953 -0.2396
38.4600 -25.6086 -0.2372
38.4800 -25.6220 -0.2363
38.5000 -25.6353 -0.2395
38.5200 -25.6486 -0.2385
38.5400 -25.6620 -0.2384
38.5600 -25.6753 -0.2378
38.5800 -25.6887 -0.2374
38.6000 -25.7020 -0.2353
38.6200 -25.7153 -0.2376
38.6400 -25.7286 -0.2339
38.6600 -25.7419 -0.2322
38.6800 -25.7553 -0.2364
38.7000 -25.7686 -0.2331
38.7200 -25.7819 -0.2334
38.7400 -25.7952 -0.2339
38.7600 -25.8086 -0.2324
38.7800 -25.8219 -0.2321
38.8000 -25.8353 -0.2329
38.8200 -25.8486 -0.2309
38.8400 -25.8620 -0.2312
38.8600 -25.8753 -0.2328
38.8800 -25.8886 -0.2300
38.9000 -25.9020 -0.2285
38.9200 -25.9153 -0.2275
38.9400 -25.9287 -0.2266
38.9600 -25.9420 -0.2267
38.9800 -25.9553 -0.2293
39.0000 -25.9686 -0.2258
39.0200 -25.9820 -0.2266
39.0400 -25.9953 -0.2251
39.0600 -26.0086 -0.2232
39.0800 -26.0219 -0.2234
39.1000 -26.0352 -0.2243
39.1200 -26.0486 -0.2238
39.1400 -26.0620 -0.2233
39.1600 -26.0753 -0.2233
39.1800 -26.0886 -0.2215
39.2000 -26.1019 -0.2213
39.2200 -26.1153 -0.2220
39.2400 -26.1286 -0.2204
39.2600 -26.1419 -0.2176
39.2800 -26.1553 -0.2208
39.3000 -26.1686 -0.2175
39.3200 -26.1820 -0.2172
39.3400 -26.1953 -0.2183
39.3600 -26.2086 -0.2184
39.3800 -26.2220 -0.2159
39.4000 -26.2353 -0.2156
39.4200 -26.2486 -0.2146
39.4400 -26.2619 -0.2160
39.4600 -26.2752 -0.2165
39.4800 -26.2886 -0.2132
39.5000 -26.3019 -0.2119
39.5200 -26.3153 -0.2161
39.5400 -26.3286 -0.2138
39.5600 -26.3420 -0.2131
39.5800 -26.3554 -0.2126
39.6000 -26.3687 -0.2128
39.6200 -26.3819 -0.2114
39.6400 -26.3953 -0.2133
39.6600 -26.4086 -0.2093
39.6800 -26.4220 -0.2095
39.7000 -26.4353 -0.2096
39.7200 -26.4486 -0.2101
39.7400 -26.4619 -0.2073
39.7600 -26.4753 -0.2091
39.7800 -26.4886 -0.2037
39.8000 -26.5019 -0.2064
39.8200 -26.5152 -0.2062
39.8400 -26.5286 -0.2050
39.8600 -26.5420 -0.2033
39.8800 -26.5553 -0.2077
39.9000 -26.5686 -0.2046
39.9200 -26.5820 -0.2044
39.9400 -26.5953 -0.2029
39.9600 -26.6087 -0.2036
39.9800 -26.6220 -0.2020
40.0000 -26.6353 -0.2041
40.0200 -26.6486 -0.2000
40.0400 -26.6620 -0.1983
40.0600 -26.6753 -0.2003
40.0800 -26.6886 -0.1992
40.1000 -26.7019 -0.1964
40.1200 -26.7153 -0.1985
40.1400 -26.7286 -0.1988
40.1600 -26.7419 -0.1992
40.1800 -26.7552 -0.1997
40.2000 -26.7686 -0.1988
40.2200 -26.7819 -0.1993
40.2400 -26.7953 -0.1990
40.2600 -26.8086 -0.1974
40.2800 -26.8219 -0.1963
40.3000 -26.8353 -0.1988
40.3200 -26.8486 -0.1982
40.3400 -26.8619 -0.1979
40.3600 -26.8753 -0.1979
40.3800 -26.8886 -0.1979
40.4000 -26.9020 -0.1949
40.4200 -26.9153 -0.1980
40.4400 -26.9286 -0.1958
40.4600 -26.9420 -0.1959
40.4800 -26.9553 -0.1950
40.5000 -26.9686 -0.1967
40.5200 -26.9819 -0.1941
40.5400 -26.9952 -0.1978
40.5600 -27.0085 -0.1946
40.5800 -27.0219 -0.1930
40.6000 -27.0352 -0.1938
40.6200 -27.0485 -0.1931
40.6400 -27.0619 -0.1889
40.6600 -27.0753 -0.1933
40.6800 -27.0886 -0.1900
40.7000 -27.1020 -0.1889
40.7200 -27.1153 -0.1891
40.7400 -27.1287 -0.1901
40.7600 -27.1420 -0.1885
40.7800 -27.1553 -0.1892
40.8000 -27.1686 -0.1853
40.8200 -27.1820 -0.1852
40.8400 -27.1953 -0.1860
40.8600 -27.2086 -0.1847
40.8800 -27.2219 -0.1825
40.9000 -27.2352 -0.1839
40.9200 -27.2486 -0.1831
40.9400 -27.2620 -0.1819
40.9600 -27.2753 -0.1810
40.9800 -27.2886 -0.1802
41.0000 -27.3020 -0.1788
41.0200 -27.3153 -0.1774
41.0400 -27.3287 -0.1768
41.0600 -27.3420 -0.1776
41.0800 -27.3553 -0.1787
41.1000 -27.3686 -0.1771
41.1200 -27.3820 -0.1748
41.1400 -27.3953 -0.1753
41.1600 -27.4086 -0.1742
41.1800 -27.4219 -0.1743
41.2000 -27.4353 -0.1770
41.2200 -27.4486 -0.1748
41.2400 -27.4619 -0.1756
41.2600 -27.4752 -0.1735
41.2800 -27.4886 -0.1744
41.3000 -27.5019 -0.1716
41.3200 -27.5153 -0.1746
41.3400 -27.5286 -0.1728
41.3600 -27.5420 -0.1731
41.3800 -27.5553 -0.1733
41.4000 -27.5687 -0.1759
41.4200 -27.5820 -0.1764
41.4400 -27.5953 -0.1773
41.4600 -27.6087 -0.1748
41.4800 -27.6220 -0.1747
41.5000 -27.6353 -0.1768
41.5200 -27.6486 -0.1775
41.5400 -27.6620 -0.1771
41.5600 -27.6753 -0.1778
41.5800 -27.6886 -0.1760
41.6000 -27.7019 -0.1723
41.6200 -27.7152 -0.1730
41.6400 -27.7285 -0.1753
41.6600 -27.7419 -0.1731
41.6800 -27.7552 -0.1768
41.7000 -27.7685 -0.1757
41.7200 -27.7819 -0.1711
41.7400 -27.7953 -0.1725
41.7600 -27.8087 -0.1709
41.7800 -27.8220 -0.1711
41.8000 -27.8353 -0.1695
41.8200 -27.8487 -0.1692
41.8400 -27.8620 -0.1680
41.8600 -27.8753 -0.1682
41.8800 -27.8886 -0.1694
41.9000 -27.9019 -0.1671
41.9200 -27.9153 -0.1674
41.9400 -27.9286 -0.1665
41.9600 -27.9419 -0.1631
41.9800 -27.9552 -0.1664
42.0000 -27.9686 -0.1648
42.0200 -27.9819 -0.1616
42.0400 -27.9953 -0.1633
42.0600 -28.0086 -0.1616
42.0800 -28.0219 -0.1614
42.1000 -28.0353 -0.1614
42.1200 -28.0486 -0.1616
42.1400 -28.0620 -0.1593
42.1600 -28.0753 -0.1598
42.1800 -28.0886 -0.1594
42.2000 -28.1020 -0.1555
42.2200 -28.1153 -0.1561
42.2400 -28.1287 -0.1571
42.2600 -28.1420 -0.1539
42.2800 -28.1553 -0.1549
42.3000 -28.1686 -0.1552
42.3200 -28.1819 -0.1533
42.3400 -28.1952 -0.1545
42.3600 -28.2086 -0.1541
42.3800 -28.2219 -0.1511
42.4000 -28.2352 -0.1531
42.4200 -28.2486 -0.1531
42.4400 -28.2619 -0.1497
42.4600 -28.2753 -0.1503
42.4800 -28.2886 -0.1494
42.5000 -28.3019 -0.1476
42.5200 -28.3152 -0.1501
42.5400 -28.3286 -0.1496
42.5600 -28.3420 -0.1465
42.5800 -28.3553 -0.1454
42.6000 -28.3686 -0.1481
42.6200 -28.3820 -0.1446
42.6400 -28.3953 -0.1474
42.6600 -28.4086 -0.1466
42.6800 -28.4219 -0.1456
42.7000 -28.4352 -0.1457
42.7200 -28.4486 -0.1481
42.7400 -28.4619 -0.1404
42.7600 -28.4752 -0.1439
42.7800 -28.4885 -0.1439
42.8000 -28.5019 -0.1424
42.8200 -28.5153 -0.1443
42.8400 -28.5287 -0.1428
42.8600 -28.5420 -0.1398
42.8800 -28.5553 -0.1428
42.9000 -28.5687 -0.1428
42.9200 -28.5820 -0.1385
42.9400 -28.5953 -0.1389
42.9600 -28.6086 -0.1389
42.9800 -28.6219 -0.1375
43.0000 -28.6352 -0.1372
43.0200 -28.6485 -0.1392
43.0400 -28.6618 -0.1367
43.0600 -28.6752 -0.1381
43.0800 -28.6885 -0.1364
43.1000 -28.7019 -0.1356
43.1200 -28.7153 -0.1354
43.1400 -28.7286 -0.1365
43.1600 -28.7420 -0.1330
43.1800 -28.7553 -0.1359
43.2000 -28.7687 -0.1345
43.2200 -28.7820 -0.1334
43.2400 -28.7953 -0.1313
43.2600 -28.8086 -0.1311
43.2800 -28.8220 -0.1287
43.3000 -28.8353 -0.1295
43.3200 -28.8486 -0.1290
43.3400 -28.8620 -0.1283
43.3600 -28.8753 -0.1292
43.3800 -28.8886 -0.1301
43.4000 -28.9019 -0.1271
43.4200 -28.9152 -0.1272
43.4400 -28.9286 -0.1282
43.4600 -28.9419 -0.1269
43.4800 -28.9553 -0.1278
43.5000 -28.9686 -0.1288
43.5200 -28.9819 -0.1256
43.5400 -28.9953 -0.1256
43.5600 -29.0087 -0.1260
43.5800 -29.0220 -0.1257
43.6000 -29.0353 -0.1246
43.6200 -29.0486 -0.1264
43.6400 -29.0620 -0.1230
43.6600 -29.0753 -0.1245
43.6800 -29.0886 -0.1230
43.7000 -29.1019 -0.1224
43.7200 -29.1153 -0.1213
43.7400 -29.1286 -0.1239
43.7600 -29.1419 -0.1201
43.7800 -29.1552 -0.1215
43.8000 -29.1686 -0.1217
43.8200 -29.1819 -0.1199
43.8400 -29.1953 -0.1199
43.8600 -29.2086 -0.1212
43.8800 -29.2219 -0.1204
43.9000 -29.2353 -0.1202
43.9200 -29.2487 -0.1215
43.9400 -29.2620 -0.1206
43.9600 -29.2753 -0.1207
43.9800 -29.2886 -0.1208
44.0000 -29.3020 -0.1201
44.0200 -29.3153 -0.1185
44.0400 -29.3286 -0.1226
44.0600 -29.3419 -0.1184
44.0800 -29.3553 -0.1208
44.1000 -29.3686 -0.1189
44.1200 -29.3819 -0.1196
44.1400 -29.3952 -0.1189
44.1600 -29.4085 -0.1217
44.1800 -29.4219 -0.1194
44.2000 -29.4353 -0.1191
44.2200 -29.4486 -0.1208
44.2400 -29.4619 -0.1194
44.2600 -29.4753 -0.1191
44.2800 -29.4887 -0.1200
44.3000 -29.5020 -0.1175
44.3200 -29.5153 -0.1178
44.3400 -29.5286 -0.1176
44.3600 -29.5420 -0.1172
44.3800 -29.5553 -0.1172
44.4000 -29.5686 -0.1202
44.4200 -29.5819 -0.1172
44.4400 -29.5953 -0.1191
44.4600 -29.6086 -0.1190
44.4800 -29.6219 -0.1178
44.5000 -29.6352 -0.1159
44.5200 -29.6485 -0.1179
44.5400 -29.6619 -0.1137
44.5600 -29.6753 -0.1131
44.5800 -29.6886 -0.1147
44.6000 -29.7019 -0.1147
44.6200 -29.7153 -0.1156
44.6400 -29.7287 -0.1161
44.6600 -29.7420 -0.1130
44.6800 -29.7553 -0.1118
44.7000 -29.7686 -0.1132
44.7200 -29.7820 -0.1115
44.7400 -29.7953 -0.1086
44.7600 -29.8086 -0.1101
44.7800 -29.8219 -0.1093
44.8000 -29.8353 -0.1082
44.8200 -29.8486 -0.1089
44.8400 -29.8619 -0.1064
44.8600 -29.8752 -0.1067
44.8800 -29.8885 -0.1077
44.9000 -29.9019 -0.1062
44.9200 -29.9152 -0.1033
44.9400 -29.9286 -0.1059
44.9600 -29.9419 -0.1023
44.9800 -29.9553 -0.1023
45.0000 -29.9687 -0.1014
45.0200 -29.9820 -0.1004
45.0400 -29.9953 -0.0992
45.0600 -30.0086 -0.0997
45.0800 -30.0220 -0.0968
45.1000 -30.0353 -0.0970
45.1200 -30.0486 -0.0989
45.1400 -30.0619 -0.0968
45.1600 -30.0753 -0.0960
45.1800 -30.0886 -0.0980
45.2000 -30.1019 -0.0966
45.2200 -30.1152 -0.0954
45.2400 -30.1285 -0.0964
45.2600 -30.1419 -0.0941
45.2800 -30.1553 -0.0931
45.3000 -30.1686 -0.0942
45.3200 -30.1819 -0.0943
45.3400 -30.1953 -0.0923
45.3600 -30.2087 -0.0930
45.3800 -30.2220 -0.0912
45.4000 -30.2352 -0.0916
45.4200 -30.2485 -0.0931
45.4400 -30.2619 -0.0936
45.4600 -30.2753 -0.0911
45.4800 -30.2886 -0.0929
45.5000 -30.3019 -0.0889
45.5200 -30.3153 -0.0902
45.5400 -30.3286 -0.0900
45.5600 -30.3420 -0.0912
45.5800 -30.3552 -0.0901
45.6000 -30.3686 -0.0905
45.6200 -30.3819 -0.0876
45.6400 -30.3953 -0.0887
45.6600 -30.4086 -0.0899
45.6800 -30.4219 -0.0894
45.7000 -30.4353 -0.0870
45.7200 -30.4487 -0.0873
45.7400 -30.4620 -0.0872
45.7600 -30.4753 -0.0869
45.7800 -30.4886 -0.0895
45.8000 -30.5020 -0.0871
45.8200 -30.5154 -0.0845
45.8400 -30.5287 -0.0851
45.8600 -30.5420 -0.0852
45.8800 -30.5553 -0.0838
45.9000 -30.5686 -0.0850
45.9200 -30.5819 -0.0841
45.9400 -30.5952 -0.0817
45.9600 -30.6085 -0.0838
45.9800 -30.6219 -0.0817
46.0000 -30.6352 -0.0825
46.0200 -30.6486 -0.0820
46.0400 -30.6619 -0.0821
46.0600 -30.6752 -0.0804
46.0800 -30.6886 -0.0810
46.1000 -30.7020 -0.0810
46.1200 -30.7153 -0.0785
46.1400 -30.7286 -0.0801
46.1600 -30.7420 -0.0777
46.1800 -30.7553 -0.0760
46.2000 -30.7686 -0.0771
46.2200 -30.7819 -0.0765
46.2400 -30.7953 -0.0747
46.2600 -30.8086 -0.0772
46.2800 -30.8220 -0.0758
46.3000 -30.8352 -0.0764
46.3200 -30.8485 -0.0742
46.3400 -30.8619 -0.0747
46.3600 -30.8753 -0.0736
46.3800 -30.8886 -0.0756
46.4000 -30.9019 -0.0731
46.4200 -30.9153 -0.0713
46.4400 -30.9286 -0.0722
46.4600 -30.9420 -0.0705
46.4800 -30.9553 -0.0698
46.5000 -30.9686 -0.0722
46.5200 -30.9820 -0.0707
46.5400 -30.9953 -0.0684
46.5600 -31.0087 -0.0703
46.5800 -31.0220 -0.0685
46.6000 -31.0353 -0.0667
46.6200 -31.0487 -0.0655
46.6400 -31.0620 -0.0666
46.6600 -31.0752 -0.0649
46.6800 -31.0886 -0.0657
46.7000 -31.1019 -0.0641
46.7200 -31.1153 -0.0624
46.7400 -31.1286 -0.0645
46.7600 -31.1419 -0.0632
46.7800 -31.1553 -0.0623
46.8000 -31.1687 -0.0632
46.8200 -31.1820 -0.0609
46.8400 -31.1953 -0.0615
46.8600 -31.2086 -0.0605
46.8800 -31.2219 -0.0614
46.9000 -31.2353 -0.0587
46.9200 -31.2486 -0.0587
46.9400 -31.2619 -0.0599
46.9600 -31.2753 -0.0582
46.9800 -31.2886 -0.0593
47.0000 -31.3019 -0.0589
47.0200 -31.3152 -0.0576
47.0400 -31.3285 -0.0596
47.0600 -31.3419 -0.0571
47.0800 -31.3553 -0.0568
47.1000 -31.3686 -0.0565
47.1200 -31.3819 -0.0567
47.1400 -31.3953 -0.0547
47.1600 -31.4087 -0.0561
47.1800 -31.4220 -0.0538
47.2000 -31.4353 -0.0541
47.2200 -31.4486 -0.0508
47.2400 -31.4619 -0.0530
47.2600 -31.4753 -0.0507
47.2800 -31.4886 -0.0536
47.3000 -31.5019 -0.0515
47.3200 -31.5152 -0.0513
47.3400 -31.5286 -0.0496
47.3600 -31.5419 -0.0501
47.3800 -31.5552 -0.0491
47.4000 -31.5685 -0.0492
47.4200 -31.5819 -0.0482
47.4400 -31.5953 -0.0484
47.4600 -31.6086 -0.0483
47.4800 -31.6219 -0.0488
47.5000 -31.6352 -0.0495
47.5200 -31.6486 -0.0467
47.5400 -31.6620 -0.0465
47.5600 -31.6753 -0.0440
47.5800 -31.6886 -0.0461
47.6000 -31.7019 -0.0446
47.6200 -31.7153 -0.0448
47.6400 -31.7286 -0.0435
47.6600 -31.7420 -0.0442
47.6800 -31.7553 -0.0438
47.7000 -31.7686 -0.0429
47.7200 -31.7820 -0.0424
47.7400 -31.7953 -0.0422
47.7600 -31.8086 -0.0410
47.7800 -31.8219 -0.0416
47.8000 -31.8352 -0.0394
47.8200 -31.8485 -0.0416
47.8400 -31.8618 -0.0395
47.8600 -31.8752 -0.0394
47.8800 -31.8886 -0.0383
47.9000 -31.9020 -0.0384
47.9200 -31.9153 -0.0356
47.9400 -31.9286 -0.0360
47.9600 -31.9420 -0.0364
47.9800 -31.9554 -0.0376
48.0000 -31.9687 -0.0365
48.0200 -31.9820 -0.0354
48.0400 -31.9953 -0.0323
48.0600 -32.0086 -0.0336
48.0800 -32.0219 -0.0322
48.1000 -32.0352 -0.0322
48.1200 -32.0486 -0.0332
48.1400 -32.0619 -0.0321
48.1600 -32.0753 -0.0295
48.1800 -32.0886 -0.0292
48.2000 -32.1019 -0.0308
48.2200 -32.1152 -0.0281
48.2400 -32.1286 -0.0273
48.2600 -32.1420 -0.0272
48.2800 -32.1553 -0.0282
48.3000 -32.1686 -0.0275
48.3200 -32.1820 -0.0265
48.3400 -32.1953 -0.0246
48.3600 -32.2087 -0.0257
48.3800 -32.2220 -0.0257
48.4000 -32.2353 -0.0253
48.4200 -32.2486 -0.0248
48.4400 -32.2619 -0.0239
48.4600 -32.2752 -0.0217
48.4800 -32.2885 -0.0242
48.5000 -32.3019 -0.0234
48.5200 -32.3152 -0.0241
48.5400 -32.3286 -0.0222
48.5600 -32.3419 -0.0233
48.5800 -32.3553 -0.0215
48.6000 -32.3686 -0.0234
48.6200 -32.3820 -0.0221
48.6400 -32.3953 -0.0204
48.6600 -32.4086 -0.0219
48.6800 -32.4219 -0.0212
48.7000 -32.4353 -0.0199
48.7200 -32.4486 -0.0200
48.7400 -32.4620 -0.0215
48.7600 -32.4753 -0.0205
48.7800 -32.4887 -0.0201
48.8000 -32.5020 -0.0184
48.8200 -32.5153 -0.0192
48.8400 -32.5285 -0.0192
48.8600 -32.5419 -0.0202
48.8800 -32.5552 -0.0191
48.9000 -32.5686 -0.0196
48.9200 -32.5819 -0.0189
48.9400 -32.5952 -0.0176
48.9600 -32.6086 -0.0170
48.9800 -32.6220 -0.0172
49.0000 -32.6353 -0.0157
49.0200 -32.6487 -0.0177
49.0400 -32.6620 -0.0170
49.0600 -32.6754 -0.0159
49.0800 -32.6887 -0.0171
49.1000 -32.7020 -0.0162
49.1200 -32.7153 -0.0158
49.1400 -32.7286 -0.0148
49.1600 -32.7420 -0.0152
49.1800 -32.7553 -0.0126
49.2000 -32.7686 -0.0134
49.2200 -32.7819 -0.0134
49.2400 -32.7953 -0.0123
49.2600 -32.8086 -0.0114
49.2800 -32.8219 -0.0115
49.3000 -32.8352 -0.0105
49.3200 -32.8486 -0.0106
49.3400 -32.8620 -0.0134
49.3600 -32.8753 -0.0107
49.3800 -32.8886 -0.0096
49.4000 -32.9019 -0.0085
49.4200 -32.9153 -0.0089
49.4400 -32.9287 -0.0081
49.4600 -32.9420 -0.0073
49.4800 -32.9553 -0.0074
49.5000 -32.9687 -0.0068
49.5200 -32.9820 -0.0071
49.5400 -32.9953 -0.0045
49.5600 -33.0086 -0.0052
49.5800 -33.0219 -0.0032
49.6000 -33.0352 -0.0052
49.6200 -33.0486 -0.0022
49.6400 -33.0619 -0.0068
49.6600 -33.0752 -0.0044
49.6800 -33.0886 -0.0055
49.7000 -33.1020 -0.0021
49.7200 -33.1153 -0.0043
49.7400 -33.1286 -0.0031
49.7600 -33.1419 -0.0058
49.7800 -33.1553 -0.0025
49.8000 -33.1687 -0.0004
49.8200 -33.1820 -0.0002
49.8400 -33.1953 -0.0006
49.8600 -33.2086 -0.0006
49.8800 -33.2220 -0.0023
49.9000 -33.2352 -0.0011
49.9200 -33.2485 0.0010
49.9400 -33.2619 0.0010
49.9600 -33.2752 0.0025
49.9800 -33.2886 0.0030
50.0000 -33.3019 0.0012
50.0200 -33.3152 0.0032
50.0400 -33.3286 0.0038
50.0600 -33.3420 0.0022
50.0800 -33.3553 0.0025
50.1000 -33.3686 0.0049
50.1200 -33.3820 0.0042
50.1400 -33.3953 0.0061
50.1600 -33.4087 0.0059
50.1800 -33.4220 0.0064
50.2000 -33.4352 0.0079
50.2200 -33.4485 0.0076
50.2400 -33.4619 0.0075
50.2600 -33.4752 0.0096
50.2800 -33.4885 0.0092
50.3000 -33.5019 0.0098
50.3200 -33.5152 0.0098
50.3400 -33.5286 0.0107
50.3600 -33.5419 0.0111
50.3800 -33.5553 0.0125
50.4000 -33.5686 0.0129
50.4200 -33.5820 0.0109
50.4400 -33.5954 0.0139
50.4600 -33.6087 0.0144
50.4800 -33.6220 0.0160
50.5000 -33.6353 0.0145
50.5200 -33.6487 0.0163
50.5400 -33.6620 0.0151
50.5600 -33.6753 0.0185
50.5800 -33.6886 0.0170
50.6000 -33.7020 0.0212
50.6200 -33.7153 0.0200
50.6400 -33.7286 0.0209
50.6600 -33.7419 0.0195
50.6800 -33.7553 0.0233
50.7000 -33.7686 0.0218
50.7200 -33.7819 0.0234
50.7400 -33.7952 0.0209
50.7600 -33.8086 0.0242
50.7800 -33.8220 0.0228
50.8000 -33.8353 0.0261
50.8200 -33.8486 0.0248
50.8400 -33.8620 0.0285
50.8600 -33.8753 0.0267
50.8800 -33.8887 0.0278
50.9000 -33.9020 0.0264
50.9200 -33.9153 0.0273
50.9400 -33.9286 0.0260
50.9600 -33.9420 0.0269
50.9800 -33.9552 0.0293
51.0000 -33.9685 0.0297
51.0200 -33.9818 0.0274
51.0400 -33.9952 0.0270
51.0600 -34.0086 0.0276
51.0800 -34.0219 0.0290
51.1000 -34.0352 0.0293
51.1200 -34.0486 0.0284
51.1400 -34.0620 0.0293
51.1600 -34.0753 0.0293
51.1800 -34.0886 0.0301
51.2000 -34.1019 0.0279
51.2200 -34.1153 0.0256
51.2400 -34.1286 0.0249
51.2600 -34.1419 0.0268
51.2800 -34.1553 0.0272
51.3000 -34.1686 0.0297
51.3200 -34.1819 0.0268
51.3400 -34.1952 0.0287
51.3600 -34.2085 0.0281
51.3800 -34.2219 0.0300
51.4000 -34.2352 0.0296
51.4200 -34.2486 0.0291
51.4400 -34.2620 0.0306
51.4600 -34.2753 0.0284
51.4800 -34.2886 0.0315
51.5000 -34.3020 0.0309
51.5200 -34.3153 0.0308
51.5400 -34.3286 0.0332
51.5600 -34.3420 0.0320
51.5800 -34.3553 0.0329
51.6000 -34.3687 0.0356
51.6200 -34.3820 0.0359
51.6400 -34.3953 0.0368
51.6600 -34.4086 0.0359
51.6800 -34.4219 0.0367
51.7000 -34.4353 0.0390
51.7200 -34.4485 0.0363
51.7400 -34.4618 0.0389
51.7600 -34.4752 0.0386
51.7800 -34.4886 0.0423
51.8000 -34.5019 0.0430
51.8200 -34.5153 0.0428
51.8400 -34.5286 0.0437
51.8600 -34.5420 0.0423
51.8800 -34.5554 0.0433
51.9000 -34.5687 0.0431
51.9200 -34.5820 0.0443
51.9400 -34.5953 0.0448
51.9600 -34.6087 0.0474
51.9800 -34.6220 0.0477
52.0000 -34.6353 0.0491
52.0200 -34.6486 0.0472
52.0400 -34.6619 0.0490
52.0600 -34.6753 0.0487
52.0800 -34.6885 0.0513
52.1000 -34.7018 0.0513
52.1200 -34.7152 0.0532
52.1400 -34.7286 0.0534
52.1600 -34.7419 0.0532
52.1800 -34.7552 0.0527
52.2000 -34.7686 0.0526
52.2200 -34.7820 0.0559
52.2400 -34.7953 0.0559
52.2600 -34.8087 0.0565
52.2800 -34.8220 0.0565
52.3000 -34.8353 0.0566
52.3200 -34.8487 0.0576
52.3400 -34.8620 0.0574
52.3600 -34.8753 0.0571
52.3800 -34.8886 0.0600
52.4000 -34.9019 0.0583
52.4200 -34.9152 0.0601
52.4400 -34.9285 0.0594
52.4600 -34.9419 0.0623
52.4800 -34.9552 0.0614
52.5000 -34.9686 0.0633
52.5200 -34.9820 0.0643
52.5400 -34.9953 0.0652
52.5600 -35.0086 0.0656
52.5800 -35.0220 0.0687
52.6000 -35.0353 0.0690
52.6200 -35.0486 0.0689
52.6400 -35.0619 0.0675
52.6600 -35.0752 0.0679
52.6800 -35.0886 0.0685
52.7000 -35.1020 0.0691
52.7200 -35.1153 0.0690
52.7400 -35.1286 0.0696
52.7600 -35.1420 0.0706
52.7800 -35.1553 0.0705
52.8000 -35.1686 0.0706
52.8200 -35.1819 0.0725
52.8400 -35.1952 0.0709
52.8600 -35.2086 0.0709
52.8800 -35.2219 0.0711
52.9000 -35.2352 0.0723
52.9200 -35.2486 0.0735
52.9400 -35.2620 0.0739
52.9600 -35.2754 0.0744
52.9800 -35.2887 0.0736
53.0000 -35.3020 0.0742
53.0200 -35.3153 0.0738
53.0400 -35.3287 0.0723
53.0600 -35.3420 0.0742
53.0800 -35.3553 0.0736
53.1000 -35.3686 0.0753
53.1200 -35.3820 0.0752
53.1400 -35.3953 0.0756
53.1600 -35.4086 0.0762
53.1800 -35.4219 0.0756
53.2000 -35.4352 0.0770
53.2200 -35.4486 0.0759
53.2400 -35.4619 0.0792
53.2600 -35.4753 0.0771
53.2800 -35.4886 0.0801
53.3000 -35.5020 0.0808
53.3200 -35.5153 0.0812
53.3400 -35.5286 0.0786
53.3600 -35.5420 0.0799
53.3800 -35.5553 0.0781
53.4000 -35.5687 0.0821
53.4200 -35.5820 0.0801
53.4400 -35.5953 0.0808
53.4600 -35.6086 0.0791
53.4800 -35.6219 0.0809
53.5000 -35.6353 0.0808
53.5200 -35.6486 0.0801
53.5400 -35.6619 0.0809
53.5600 -35.6752 0.0819
53.5800 -35.6886 0.0821
53.6000 -35.7019 0.0829
53.6200 -35.7152 0.0827
53.6400 -35.7285 0.0836
53.6600 -35.7419 0.0849
53.6800 -35.7553 0.0831
53.7000 -35.7686 0.0837
53.7200 -35.7819 0.0853
53.7400 -35.7953 0.0842
53.7600 -35.8086 0.0842
53.7800 -35.8220 0.0859
53.8000 -35.8353 0.0866
53.8200 -35.8486 0.0864
53.8400 -35.8620 0.0892
53.8600 -35.8753 0.0880
53.8800 -35.8886 0.0893
53.9000 -35.9019 0.0897
53.9200 -35.9152 0.0883
53.9400 -35.9286 0.0888
53.9600 -35.9419 0.0905
53.9800 -35.9553 0.0921
54.0000 -35.9686 0.0912
54.0200 -35.9820 0.0921
54.0400 -35.9953 0.0908
54.0600 -36.0087 0.0913
54.0800 -36.0220 0.0908
54.1000 -36.0353 0.0929
54.1200 -36.0486 0.0927
54.1400 -36.0620 0.0960
54.1600 -36.0753 0.0947
54.1800 -36.0886 0.0964
54.2000 -36.1019 0.0953
54.2200 -36.1153 0.0966
54.2400 -36.1286 0.0953
54.2600 -36.1419 0.0989
54.2800 -36.1552 0.0977
54.3000 -36.1686 0.0973
54.3200 -36.1820 0.0973
54.3400 -36.1953 0.0994
54.3600 -36.2086 0.0971
54.3800 -36.2220 0.1003
54.4000 -36.2353 0.1001
54.4200 -36.2487 0.0999
54.4400 -36.2620 0.1010
54.4600 -36.2753 0.1031
54.4800 -36.2886 0.1024
54.5000 -36.3020 0.1063
54.5200 -36.3153 0.1036
54.5400 -36.3286 0.1041
54.5600 -36.3419 0.1052
54.5800 -36.3553 0.1071
54.6000 -36.3686 0.1054
54.6200 -36.3819 0.1086
54.6400 -36.3952 0.1070
54.6600 -36.4086 0.1070
54.6800 -36.4220 0.1106
54.7000 -36.4353 0.1121
54.7200 -36.4486 0.1124
54.7400 -36.4619 0.1150
54.7600 -36.4753 0.1143
54.7800 -36.4887 0.1153
54.8000 -36.5020 0.1152
54.8200 -36.5153 0.1144
54.8400 -36.5286 0.1148
54.8600 -36.5420 0.1153
54.8800 -36.5553 0.1171
54.9000 -36.5686 0.1153
54.9200 -36.5820 0.1185
54.9400 -36.5953 0.1165
54.9600 -36.6086 0.1176
54.9800 -36.6219 0.1175
55.0000 -36.6352 0.1189
55.0200 -36.6486 0.1173
55.0400 -36.6619 0.1209
55.0600 -36.6752 0.1193
55.0800 -36.6885 0.1204
55.1000 -36.7019 0.1216
55.1200 -36.7153 0.1218
55.1400 -36.7287 0.1219
55.1600 -36.7420 0.1231
55.1800 -36.7553 0.1241
55.2000 -36.7687 0.1228
55.2200 -36.7820 0.1244
55.2400 -36.7953 0.1257
55.2600 -36.8086 0.1264
55.2800 -36.8219 0.1291
55.3000 -36.8353 0.1277
55.3200 -36.8486 0.1288
55.3400 -36.8619 0.1290
55.3600 -36.8752 0.1306
55.3800 -36.8886 0.1290
55.4000 -36.9020 0.1313
55.4200 -36.9153 0.1301
55.4400 -36.9286 0.1308
55.4600 -36.9419 0.1319
55.4800 -36.9553 0.1328
55.5000 -36.9687 0.1323
55.5200 -36.9820 0.1322
55.5400 -36.9953 0.1341
55.5600 -37.0086 0.1333
55.5800 -37.0220 0.1348
55.6000 -37.0353 0.1351
55.6200 -37.0486 0.1352
55.6400 -37.0619 0.1354
55.6600 -37.0753 0.1366
55.6800 -37.0886 0.1337
55.7000 -37.1019 0.1368
55.7200 -37.1152 0.1370
55.7400 -37.1285 0.1360
55.7600 -37.1419 0.1382
55.7800 -37.1553 0.1383
55.8000 -37.1686 0.1378
55.8200 -37.1819 0.1411
55.8400 -37.1953 0.1411
55.8600 -37.2087 0.1421
55.8800 -37.2220 0.1414
55.9000 -37.2353 0.1415
55.9200 -37.2487 0.1423
55.9400 -37.2620 0.1447
55.9600 -37.2753 0.1447
55.9800 -37.2886 0.1432
56.0000 -37.3020 0.1467
56.0200 -37.3153 0.1479
56.0400 -37.3286 0.1493
56.0600 -37.3419 0.1494
56.0800 -37.3552 0.1506
56.1000 -37.3685 0.1507
56.1200 -37.3819 0.1515
56.1400 -37.3953 0.1534
56.1600 -37.4086 0.1537
56.1800 -37.4219 0.1507
56.2000 -37.4353 0.1511
56.2200 -37.4487 0.1494
56.2400 -37.4620 0.1526
56.2600 -37.4753 0.1549
56.2800 -37.4887 0.1549
56.3000 -37.5020 0.1552
56.3200 -37.5153 0.1575
56.3400 -37.5286 0.1530
56.3600 -37.5419 0.1566
56.3800 -37.5553 0.1562
56.4000 -37.5686 0.1560
56.4200 -37.5819 0.1568
56.4400 -37.5952 0.1575
56.4600 -37.6086 0.1562
56.4800 -37.6219 0.1568
56.5000 -37.6353 0.1592
56.5200 -37.6486 0.1566
56.5400 -37.6619 0.1586
56.5600 -37.6753 0.1601
56.5800 -37.6886 0.1594
56.6000 -37.7019 0.1614
56.6200 -37.7153 0.1618
56.6400 -37.7286 0.1613
56.6600 -37.7420 0.1612
56.6800 -37.7553 0.1641
56.7000 -37.7687 0.1633
56.7200 -37.7820 0.1644
56.7400 -37.7953 0.1670
56.7600 -37.8087 0.1648
56.7800 -37.8219 0.1659
56.8000 -37.8352 0.1671
56.8200 -37.8486 0.1668
56.8400 -37.8619 0.1695
56.8600 -37.8753 0.1711
56.8800 -37.8886 0.1686
56.9000 -37.9019 0.1707
56.9200 -37.9153 0.1704
56.9400 -37.9287 0.1710
56.9600 -37.9420 0.1700
56.9800 -37.9553 0.1755
57.0000 -37.9686 0.1721
57.0200 -37.9820 0.1741
57.0400 -37.9953 0.1746
57.0600 -38.0087 0.1745
57.0800 -38.0220 0.1735
57.1000 -38.0353 0.1766
57.1200 -38.0486 0.1735
57.1400 -38.0619 0.1772
57.1600 -38.0752 0.1759
57.1800 -38.0885 0.1767
57.2000 -38.1019 0.1767
57.2200 -38.1153 0.1782
57.2400 -38.1286 0.1760
57.2600 -38.1419 0.1783
57.2800 -38.1553 0.1800
57.3000 -38.1687 0.1790
57.3200 -38.1820 0.1788
57.3400 -38.1953 0.1804
57.3600 -38.2087 0.1799
57.3800 -38.2220 0.1826
57.4000 -38.2353 0.1833
57.4200 -38.2486 0.1822
57.4400 -38.2619 0.1825
57.4600 -38.2752 0.1857
57.4800 -38.2885 0.1840
57.5000 -38.3019 0.1838
57.5200 -38.3152 0.1855
57.5400 -38.3285 0.1858
57.5600 -38.3419 0.1860
57.5800 -38.3553 0.1882
57.6000 -38.3686 0.1876
57.6200 -38.3819 0.1886
57.6400 -38.3953 0.1906
57.6600 -38.4087 0.1888
57.6800 -38.4220 0.1916
57.7000 -38.4353 0.1938
57.7200 -38.4486 0.1946
57.7400 -38.4620 0.1953
57.7600 -38.4753 0.1980
57.7800 -38.4886 0.1952
57.8000 -38.5019 0.1978
57.8200 -38.5153 0.2001
57.8400 -38.5286 0.1993
57.8600 -38.5419 0.1993
57.8800 -38.5552 0.2028
57.9000 -38.5686 0.1997
57.9200 -38.5819 0.2029
57.9400 -38.5953 0.2022
57.9600 -38.6086 0.2024
57.9800 -38.6219 0.2045
58.0000 -38.6353 0.2055
58.0200 -38.6487 0.2026
58.0400 -38.6620 0.2052
58.0600 -38.6753 0.2058
58.0800 -38.6886 0.2060
58.1000 -38.7020 0.2072
58.1200 -38.7153 0.2100
58.1400 -38.7286 0.2082
58.1600 -38.7419 0.2102
58.1800 -38.7553 0.2115
58.2000 -38.7686 0.2105
58.2200 -38.7819 0.2101
58.2400 -38.7952 0.2118
58.2600 -38.8085 0.2118
58.2800 -38.8219 0.2123
58.3000 -38.8353 0.2136
58.3200 -38.8486 0.2122
58.3400 -38.8619 0.2130
58.3600 -38.8753 0.2137
58.3800 -38.8887 0.2131
58.4000 -38.9020 0.2118
58.4200 -38.9153 0.2148
58.4400 -38.9286 0.2137
58.4600 -38.9420 0.2164
58.4800 -38.9553 0.2166
58.5000 -38.9686 0.2155
58.5200 -38.9819 0.2159
58.5400 -38.9953 0.2181
58.5600 -39.0086 0.2188
58.5800 -39.0219 0.2199
58.6000 -39.0352 0.2226
58.6200 -39.0486 0.2211
58.6400 -39.0619 0.2202
58.6600 -39.0753 0.2214
58.6800 -39.0886 0.2191
58.7000 -39.1019 0.2207
58.7200 -39.1153 0.2224
58.7400 -39.1287 0.2220
58.7600 -39.1420 0.2228
58.7800 -39.1553 0.2252
58.8000 -39.1686 0.2249
58.8200 -39.1820 0.2258
58.8400 -39.1953 0.2266
58.8600 -39.2086 0.2249
58.8800 -39.2219 0.2241
58.9000 -39.2353 0.2295
58.9200 -39.2486 0.2279
58.9400 -39.2619 0.2299
58.9600 -39.2752 0.2310
58.9800 -39.2885 0.2305
59.0000 -39.3019 0.2300
59.0200 -39.3153 0.2329
59.0400 -39.3286 0.2319
59.0600 -39.3419 0.2342
59.0800 -39.3553 0.2348
59.1000 -39.3687 0.2352
59.1200 -39.3820 0.2345
59.1400 -39.3953 0.2361
59.1600 -39.4086 0.2361
59.1800 -39.4220 0.2363
59.2000 -39.4353 0.2401
59.2200 -39.4486 0.2384
59.2400 -39.4619 0.2395
59.2600 -39.4753 0.2392
59.2800 -39.4886 0.2411
59.3000 -39.5019 0.2403
59.3200 -39.5152 0.2419
59.3400 -39.5285 0.2417
59.3600 -39.5419 0.2423
59.3800 -39.5552 0.2453
59.4000 -39.5686 0.2435
59.4200 -39.5819 0.2419
59.4400 -39.5953 0.2457
59.4600 -39.6087 0.2466
59.4800 -39.6220 0.2457
59.5000 -39.6353 0.2470
59.5200 -39.6486 0.2475
59.5400 -39.6620 0.2471
59.5600 -39.6753 0.2501
59.5800 -39.6886 0.2502
59.6000 -39.7019 0.2499
59.6200 -39.7153 0.2511
59.6400 -39.7286 0.2532
59.6600 -39.7419 0.2524
59.6800 -39.7552 0.2567
59.7000 -39.7685 0.2562
59.7200 -39.7819 0.2556
59.7400 -39.7953 0.2599
59.7600 -39.8086 0.2597
59.7800 -39.8219 0.2581
59.8000 -39.8353 0.2591
59.8200 -39.8487 0.2607
59.8400 -39.8620 0.2607
59.8600 -39.8752 0.2634
59.8800 -39.8886 0.2619
59.9000 -39.9019 0.2616
59.9200 -39.9153 0.2634
59.9400 -39.9286 0.2653
59.9600 -39.9419 0.2621
59.9800 -39.9553 0.2663
60.0000 -39.9686 0.2669
60.0200 -39.9820 0.2672
60.0400 -39.9952 0.2702
60.0480 -40.0004 0.2756
