Raw Data
Time Displacement Force
(s) (mm) (N)
0.0000 0.0000 -0.7691
0.0200 -0.0001 -0.7688
0.0400 -0.0019 -0.7867
0.0600 -0.0092 -0.7898
0.0800 -0.0209 -0.7788
0.1000 -0.0334 -0.7774
0.1200 -0.0461 -0.7769
0.1400 -0.0595 -0.7726
0.1600 -0.0736 -0.7705
0.1800 -0.0877 -0.7698
0.2000 -0.1016 -0.7682
0.2200 -0.1152 -0.7653
0.2400 -0.1286 -0.7660
0.2600 -0.1419 -0.7621
0.2800 -0.1552 -0.7631
0.3000 -0.1685 -0.7616
0.3200 -0.1819 -0.7617
0.3400 -0.1952 -0.7569
0.3600 -0.2085 -0.7568
0.3800 -0.2218 -0.7527
0.4000 -0.2351 -0.7525
0.4200 -0.2485 -0.7511
0.4400 -0.2619 -0.7478
0.4600 -0.2752 -0.7454
0.4800 -0.2885 -0.7472
0.5000 -0.3019 -0.7434
0.5200 -0.3153 -0.7444
0.5400 -0.3286 -0.7437
0.5600 -0.3419 -0.7374
0.5800 -0.3552 -0.7371
0.6000 -0.3686 -0.7357
0.6200 -0.3820 -0.7334
0.6400 -0.3953 -0.7313
0.6600 -0.4086 -0.7320
0.6800 -0.4219 -0.7296
0.7000 -0.4352 -0.7290
0.7200 -0.4485 -0.7278
0.7400 -0.4618 -0.7250
0.7600 -0.4752 -0.7237
0.7800 -0.4885 -0.7246
0.8000 -0.5019 -0.7210
0.8200 -0.5152 -0.7192
0.8400 -0.5286 -0.7200
0.8600 -0.5419 -0.7178
0.8800 -0.5553 -0.7174
0.9000 -0.5686 -0.7169
0.9200 -0.5819 -0.7142
0.9400 -0.5952 -0.7112
0.9600 -0.6086 -0.7115
0.9800 -0.6219 -0.7080
1.0000 -0.6352 -0.7069
1.0200 -0.6485 -0.7084
1.0400 -0.6619 -0.7047
1.0600 -0.6752 -0.7039
1.0800 -0.6885 -0.7023
1.1000 -0.7018 -0.6991
1.1200 -0.7151 -0.6970
1.1400 -0.7285 -0.6975
1.1600 -0.7419 -0.6943
1.1800 -0.7552 -0.6912
1.2000 -0.7685 -0.6916
1.2200 -0.7819 -0.6917
1.2400 -0.7953 -0.6884
1.2600 -0.8087 -0.6878
1.2800 -0.8220 -0.6839
1.3000 -0.8353 -0.6848
1.3200 -0.8486 -0.6852
1.3400 -0.8620 -0.6823
1.3600 -0.8753 -0.6822
1.3800 -0.8886 -0.6805
1.4000 -0.9019 -0.6793
1.4200 -0.9152 -0.6765
1.4400 -0.9285 -0.6757
1.4600 -0.9418 -0.6726
1.4800 -0.9551 -0.6709
1.5000 -0.9685 -0.6717
1.5200 -0.9819 -0.6694
1.5400 -0.9952 -0.6682
1.5600 -1.0085 -0.6674
1.5800 -1.0219 -0.6648
1.6000 -1.0353 -0.6622
1.6200 -1.0486 -0.6621
1.6400 -1.0619 -0.6600
1.6600 -1.0753 -0.6579
1.6800 -1.0886 -0.6582
1.7000 -1.1020 -0.6554
1.7200 -1.1153 -0.6551
1.7400 -1.1286 -0.6535
1.7600 -1.1419 -0.6517
1.7800 -1.1552 -0.6492
1.8000 -1.1685 -0.6480
1.8200 -1.1818 -0.6450
1.8400 -1.1952 -0.6464
1.8600 -1.2085 -0.6471
1.8800 -1.2219 -0.6452
1.9000 -1.2352 -0.6427
1.9200 -1.2486 -0.6414
1.9400 -1.2619 -0.6404
1.9600 -1.2753 -0.6381
1.9800 -1.2886 -0.6390
2.0000 -1.3019 -0.6358
2.0200 -1.3152 -0.6339
2.0400 -1.3285 -0.6326
2.0600 -1.3419 -0.6305
2.0800 -1.3553 -0.6278
2.1000 -1.3686 -0.6294
2.1200 -1.3819 -0.6283
2.1400 -1.3953 -0.6269
2.1600 -1.4086 -0.6267
2.1800 -1.4219 -0.6236
2.2000 -1.4352 -0.6226
2.2200 -1.4485 -0.6225
2.2400 -1.4619 -0.6204
2.2600 -1.4752 -0.6196
2.2800 -1.4885 -0.6208
2.3000 -1.5019 -0.6184
2.3200 -1.5153 -0.6164
2.3400 -1.5287 -0.6175
2.3600 -1.5420 -0.6145
2.3800 -1.5553 -0.6127
2.4000 -1.5686 -0.6133
2.4200 -1.5820 -0.6111
2.4400 -1.5953 -0.6107
2.4600 -1.6086 -0.6095
2.4800 -1.6219 -0.6074
2.5000 -1.6352 -0.6055
2.5200 -1.6485 -0.6051
2.5400 -1.6618 -0.6026
2.5600 -1.6751 -0.6000
2.5800 -1.6885 -0.6000
2.6000 -1.7019 -0.5994
2.6200 -1.7152 -0.5961
2.6400 -1.7285 -0.5996
2.6600 -1.7419 -0.5957
2.6800 -1.7553 -0.5959
2.7000 -1.7686 -0.5940
2.7200 -1.7819 -0.5921
2.7400 -1.7952 -0.5898
2.7600 -1.8086 -0.5912
2.7800 -1.8220 -0.5888
2.8000 -1.8353 -0.5886
2.8200 -1.8486 -0.5871
2.8400 -1.8619 -0.5866
2.8600 -1.8752 -0.5819
2.8800 -1.8886 -0.5833
2.9000 -1.9019 -0.5808
2.9200 -1.9152 -0.5798
2.9400 -1.9285 -0.5794
2.9600 -1.9419 -0.5774
2.9800 -1.9552 -0.5740
3.0000 -1.9685 -0.5762
3.0200 -1.9819 -0.5735
3.0400 -1.9952 -0.5709
3.0600 -2.0086 -0.5709
3.0800 -2.0219 -0.5712
3.1000 -2.0352 -0.5687
3.1200 -2.0486 -0.5689
3.1400 -2.0619 -0.5679
3.1600 -2.0753 -0.5637
3.1800 -2.0886 -0.5648
3.2000 -2.1019 -0.5627
3.2200 -2.1153 -0.5623
3.2400 -2.1286 -0.5606
3.2600 -2.1419 -0.5592
3.2800 -2.1552 -0.5587
3.3000 -2.1685 -0.5579
3.3200 -2.1819 -0.5559
3.3400 -2.1952 -0.5523
3.3600 -2.2085 -0.5527
3.3800 -2.2219 -0.5534
3.4000 -2.2353 -0.5488
3.4200 -2.2486 -0.5499
3.4400 -2.2619 -0.5476
3.4600 -2.2752 -0.5449
3.4800 -2.2886 -0.5436
3.5000 -2.3019 -0.5433
3.5200 -2.3152 -0.5397
3.5400 -2.3285 -0.5424
3.5600 -2.3419 -0.5376
3.5800 -2.3552 -0.5391
3.6000 -2.3686 -0.5362
3.6200 -2.3819 -0.5395
3.6400 -2.3952 -0.5337
3.6600 -2.4085 -0.5350
3.6800 -2.4219 -0.5331
3.7000 -2.4353 -0.5321
3.7200 -2.4486 -0.5315
3.7400 -2.4619 -0.5306
3.7600 -2.4753 -0.5282
3.7800 -2.4886 -0.5308
3.8000 -2.5019 -0.5296
3.8200 -2.5152 -0.5261
3.8400 -2.5286 -0.5259
3.8600 -2.5419 -0.5261
3.8800 -2.5553 -0.5248
3.9000 -2.5686 -0.5246
3.9200 -2.5819 -0.5231
3.9400 -2.5952 -0.5188
3.9600 -2.6086 -0.5208
3.9800 -2.6219 -0.5192
4.0000 -2.6352 -0.5154
4.0200 -2.6485 -0.5153
4.0400 -2.6619 -0.5164
4.0600 -2.6753 -0.5118
4.0800 -2.6886 -0.5135
4.1000 -2.7019 -0.5097
4.1200 -2.7152 -0.5079
4.1400 -2.7286 -0.5057
4.1600 -2.7419 -0.5057
4.1800 -2.7552 -0.5020
4.2000 -2.7686 -0.5026
4.2200 -2.7819 -0.4998
4.2400 -2.7953 -0.4961
4.2600 -2.8086 -0.4966
4.2800 -2.8219 -0.4971
4.3000 -2.8353 -0.4929
4.3200 -2.8486 -0.4927
4.3400 -2.8619 -0.4929
4.3600 -2.8752 -0.4896
4.3800 -2.8885 -0.4906
4.4000 -2.9018 -0.4916
4.4200 -2.9152 -0.4880
4.4400 -2.9285 -0.4881
4.4600 -2.9418 -0.4876
4.4800 -2.9552 -0.4857
4.5000 -2.9686 -0.4868
4.5200 -2.9819 -0.4848
4.5400 -2.9952 -0.4807
4.5600 -3.0086 -0.4819
4.5800 -3.0220 -0.4816
4.6000 -3.0353 -0.4795
4.6200 -3.0486 -0.4798
4.6400 -3.0619 -0.4798
4.6600 -3.0752 -0.4773
4.6800 -3.0886 -0.4769
4.7000 -3.1019 -0.4775
4.7200 -3.1152 -0.4731
4.7400 -3.1285 -0.4741
4.7600 -3.1419 -0.4742
4.7800 -3.1553 -0.4713
4.8000 -3.1686 -0.4735
4.8200 -3.1819 -0.4722
4.8400 -3.1953 -0.4668
4.8600 -3.2086 -0.4675
4.8800 -3.2220 -0.4674
4.9000 -3.2352 -0.4650
4.9200 -3.2485 -0.4636
4.9400 -3.2619 -0.4632
4.9600 -3.2753 -0.4605
4.9800 -3.2886 -0.4613
5.0000 -3.3019 -0.4616
5.0200 -3.3152 -0.4598
5.0400 -3.3286 -0.4582
5.0600 -3.3419 -0.4577
5.0800 -3.3552 -0.4575
5.1000 -3.3685 -0.4565
5.1200 -3.3819 -0.4558
5.1400 -3.3952 -0.4516
5.1600 -3.4085 -0.4517
5.1800 -3.4219 -0.4511
5.2000 -3.4352 -0.4485
5.2200 -3.4486 -0.4480
5.2400 -3.4620 -0.4483
5.2600 -3.4753 -0.4460
5.2800 -3.4886 -0.4464
5.3000 -3.5019 -0.4450
5.3200 -3.5153 -0.4432
5.3400 -3.5286 -0.4430
5.3600 -3.5419 -0.4440
5.3800 -3.5552 -0.4394
5.4000 -3.5686 -0.4392
5.4200 -3.5819 -0.4370
5.4400 -3.5951 -0.4365
5.4600 -3.6085 -0.4375
5.4800 -3.6218 -0.4388
5.5000 -3.6352 -0.4330
5.5200 -3.6485 -0.4324
5.5400 -3.6618 -0.4321
5.5600 -3.6752 -0.4306
5.5800 -3.6886 -0.4304
5.6000 -3.7020 -0.4310
5.6200 -3.7153 -0.4279
5.6400 -3.7286 -0.4278
5.6600 -3.7420 -0.4276
5.6800 -3.7553 -0.4252
5.7000 -3.7686 -0.4246
5.7200 -3.7819 -0.4243
5.7400 -3.7952 -0.4237
5.7600 -3.8086 -0.4228
5.7800 -3.8219 -0.4249
5.8000 -3.8352 -0.4218
5.8200 -3.8485 -0.4218
5.8400 -3.8619 -0.4190
5.8600 -3.8752 -0.4179
5.8800 -3.8885 -0.4160
5.9000 -3.9019 -0.4172
5.9200 -3.9152 -0.4135
5.9400 -3.9286 -0.4155
5.9600 -3.9419 -0.4149
5.9800 -3.9552 -0.4151
6.0000 -3.9686 -0.4100
6.0200 -3.9819 -0.4145
6.0400 -3.9953 -0.4089
6.0600 -4.0086 -0.4093
6.0800 -4.0220 -0.4088
6.1000 -4.0353 -0.4062
6.1200 -4.0486 -0.4054
6.1400 -4.0619 -0.4052
6.1600 -4.0752 -0.4039
6.1800 -4.0885 -0.4063
6.2000 -4.1019 -0.4052
6.2200 -4.1152 -0.4033
6.2400 -4.1285 -0.4010
6.2600 -4.1418 -0.4017
6.2800 -4.1552 -0.3992
6.3000 -4.1686 -0.3978
6.3200 -4.1819 -0.3993
6.3400 -4.1952 -0.3970
6.3600 -4.2085 -0.3952
6.3800 -4.2219 -0.3968
6.4000 -4.2353 -0.3940
6.4200 -4.2486 -0.3936
6.4400 -4.2619 -0.3930
6.4600 -4.2752 -0.3916
6.4800 -4.2886 -0.3891
6.5000 -4.3019 -0.3899
6.5200 -4.3152 -0.3851
6.5400 -4.3285 -0.3864
6.5600 -4.3418 -0.3860
6.5800 -4.3552 -0.3844
6.6000 -4.3685 -0.3838
6.6200 -4.3818 -0.3855
6.6400 -4.3952 -0.3812
6.6600 -4.4086 -0.3807
6.6800 -4.4220 -0.3793
6.7000 -4.4353 -0.3768
6.7200 -4.4486 -0.3776
6.7400 -4.4619 -0.3759
6.7600 -4.4753 -0.3758
6.7800 -4.4886 -0.3733
6.8000 -4.5019 -0.3759
6.8200 -4.5152 -0.3691
6.8400 -4.5285 -0.3700
6.8600 -4.5418 -0.3698
6.8800 -4.5551 -0.3696
6.9000 -4.5685 -0.3665
6.9200 -4.5818 -0.3690
6.9400 -4.5952 -0.3637
6.9600 -4.6086 -0.3636
6.9800 -4.6219 -0.3630
7.0000 -4.6352 -0.3617
7.0200 -4.6486 -0.3596
7.0400 -4.6620 -0.3594
7.0600 -4.6753 -0.3582
7.0800 -4.6886 -0.3574
7.1000 -4.7019 -0.3562
7.1200 -4.7153 -0.3548
7.1400 -4.7286 -0.3514
7.1600 -4.7419 -0.3535
7.1800 -4.7553 -0.3528
7.2000 -4.7686 -0.3518
7.2200 -4.7819 -0.3514
7.2400 -4.7952 -0.3494
7.2600 -4.8085 -0.3474
7.2800 -4.8219 -0.3482
7.3000 -4.8352 -0.3474
7.3200 -4.8485 -0.3466
7.3400 -4.8618 -0.3470
7.3600 -4.8752 -0.3441
7.3800 -4.8886 -0.3421
7.4000 -4.9019 -0.3431
7.4200 -4.9152 -0.3424
7.4400 -4.9286 -0.3408
7.4600 -4.9419 -0.3422
7.4800 -4.9553 -0.3394
7.5000 -4.9686 -0.3378
7.5200 -4.9819 -0.3373
7.5400 -4.9952 -0.3374
7.5600 -5.0086 -0.3359
7.5800 -5.0219 -0.3370
7.6000 -5.0352 -0.3352
7.6200 -5.0485 -0.3325
7.6400 -5.0618 -0.3341
7.6600 -5.0752 -0.3322
7.6800 -5.0886 -0.3298
7.7000 -5.1019 -0.3321
7.7200 -5.1152 -0.3283
7.7400 -5.1286 -0.3278
7.7600 -5.1419 -0.3270
7.7800 -5.1553 -0.3289
7.8000 -5.1686 -0.3256
7.8200 -5.1819 -0.3258
7.8400 -5.1953 -0.3235
7.8600 -5.2086 -0.3219
7.8800 -5.2219 -0.3229
7.9000 -5.2352 -0.3204
7.9200 -5.2485 -0.3200
7.9400 -5.2619 -0.3220
7.9600 -5.2752 -0.3209
7.9800 -5.2885 -0.3185
8.0000 -5.3018 -0.3193
8.0200 -5.3152 -0.3175
8.0400 -5.3286 -0.3169
8.0600 -5.3419 -0.3173
8.0800 -5.3552 -0.3176
8.1000 -5.3686 -0.3165
8.1200 -5.3820 -0.3177
8.1400 -5.3953 -0.3147
8.1600 -5.4086 -0.3118
8.1800 -5.4219 -0.3128
8.2000 -5.4353 -0.3137
8.2200 -5.4486 -0.3131
8.2400 -5.4619 -0.3125
8.2600 -5.4752 -0.3118
8.2800 -5.4886 -0.3099
8.3000 -5.5019 -0.3103
8.3200 -5.5152 -0.3067
8.3400 -5.5285 -0.3046
8.3600 -5.5418 -0.3043
8.3800 -5.5552 -0.3040
8.4000 -5.5686 -0.3035
8.4200 -5.5819 -0.3037
8.4400 -5.5952 -0.3039
8.4600 -5.6086 -0.3024
8.4800 -5.6220 -0.3002
8.5000 -5.6353 -0.2988
8.5200 -5.6486 -0.2955
8.5400 -5.6619 -0.2969
8.5600 -5.6753 -0.2947
8.5800 -5.6886 -0.2933
8.6000 -5.7019 -0.2933
8.6200 -5.7152 -0.2940
8.6400 -5.7285 -0.2900
8.6600 -5.7419 -0.2897
8.6800 -5.7552 -0.2886
8.7000 -5.7685 -0.2873
8.7200 -5.7818 -0.2866
8.7400 -5.7952 -0.2853
8.7600 -5.8085 -0.2827
8.7800 -5.8219 -0.2860
8.8000 -5.8352 -0.2844
8.8200 -5.8486 -0.2850
8.8400 -5.8620 -0.2826
8.8600 -5.8753 -0.2837
8.8800 -5.8886 -0.2797
8.9000 -5.9019 -0.2796
8.9200 -5.9153 -0.2774
8.9400 -5.9286 -0.2784
8.9600 -5.9419 -0.2791
8.9800 -5.9552 -0.2785
9.0000 -5.9686 -0.2752
9.0200 -5.9819 -0.2760
9.0400 -5.9952 -0.2751
9.0600 -6.0085 -0.2735
9.0800 -6.0218 -0.2734
9.1000 -6.0352 -0.2735
9.1200 -6.0486 -0.2693
9.1400 -6.0619 -0.2700
9.1600 -6.0752 -0.2699
9.1800 -6.0886 -0.2671
9.2000 -6.1020 -0.2687
9.2200 -6.1153 -0.2663
9.2400 -6.1285 -0.2646
9.2600 -6.1418 -0.2659
9.2800 -6.1552 -0.2658
9.3000 -6.1686 -0.2634
9.3200 -6.1819 -0.2646
9.3400 -6.1952 -0.2644
9.3600 -6.2086 -0.2617
9.3800 -6.2219 -0.2623
9.4000 -6.2352 -0.2613
9.4200 -6.2485 -0.2599
9.4400 -6.2619 -0.2594
9.4600 -6.2752 -0.2571
9.4800 -6.2886 -0.2578
9.5000 -6.3019 -0.2565
9.5200 -6.3152 -0.2571
9.5400 -6.3286 -0.2537
9.5600 -6.3420 -0.2549
9.5800 -6.3553 -0.2521
9.6000 -6.3686 -0.2519
9.6200 -6.3819 -0.2498
9.6400 -6.3953 -0.2515
9.6600 -6.4086 -0.2480
9.6800 -6.4219 -0.2503
9.7000 -6.4352 -0.2460
9.7200 -6.4486 -0.2465
9.7400 -6.4619 -0.2426
9.7600 -6.4752 -0.2449
9.7800 -6.4885 -0.2426
9.8000 -6.5018 -0.2444
9.8200 -6.5152 -0.2430
9.8400 -6.5286 -0.2406
9.8600 -6.5419 -0.2404
9.8800 -6.5552 -0.2395
9.9000 -6.5686 -0.2381
9.9200 -6.5819 -0.2382
9.9400 -6.5953 -0.2400
9.9600 -6.6086 -0.2380
9.9800 -6.6219 -0.2369
10.0000 -6.6353 -0.2357
10.0200 -6.6486 -0.2340
10.0400 -6.6619 -0.2321
10.0600 -6.6752 -0.2348
10.0800 -6.6886 -0.2312
10.1000 -6.7019 -0.2293
10.1200 -6.7153 -0.2296
10.1400 -6.7285 -0.2290
10.1600 -6.7418 -0.2280
10.1800 -6.7552 -0.2278
10.2000 -6.7686 -0.2241
10.2200 -6.7819 -0.2263
10.2400 -6.7952 -0.2245
10.2600 -6.8085 -0.2203
10.2800 -6.8219 -0.2203
10.3000 -6.8353 -0.2211
10.3200 -6.8486 -0.2191
10.3400 -6.8619 -0.2192
10.3600 -6.8752 -0.2186
10.3800 -6.8886 -0.2165
10.4000 -6.9019 -0.2146
10.4200 -6.9152 -0.2157
10.4400 -6.9286 -0.2120
10.4600 -6.9419 -0.2143
10.4800 -6.9553 -0.2104
10.5000 -6.9685 -0.2102
10.5200 -6.9818 -0.2091
10.5400 -6.9952 -0.2074
10.5600 -7.0086 -0.2058
10.5800 -7.0219 -0.2059
10.6000 -7.0352 -0.2075
10.6200 -7.0486 -0.2053
10.6400 -7.0620 -0.2071
10.6600 -7.0753 -0.2046
10.6800 -7.0886 -0.2025
10.7000 -7.1019 -0.2009
10.7200 -7.1152 -0.2026
10.7400 -7.1286 -0.2000
10.7600 -7.1419 -0.2007
10.7800 -7.1552 -0.1989
10.8000 -7.1686 -0.1985
10.8200 -7.1819 -0.1978
10.8400 -7.1952 -0.1975
10.8600 -7.2085 -0.1942
10.8800 -7.2218 -0.1954
10.9000 -7.2352 -0.1947
10.9200 -7.2486 -0.1920
10.9400 -7.2619 -0.1937
10.9600 -7.2752 -0.1954
10.9800 -7.2886 -0.1928
11.0000 -7.3019 -0.1916
11.0200 -7.3153 -0.1910
11.0400 -7.3286 -0.1907
11.0600 -7.3419 -0.1898
11.0800 -7.3552 -0.1904
11.1000 -7.3686 -0.1876
11.1200 -7.3819 -0.1858
11.1400 -7.3952 -0.1877
11.1600 -7.4085 -0.1851
11.1800 -7.4219 -0.1866
11.2000 -7.4352 -0.1819
11.2200 -7.4485 -0.1831
11.2400 -7.4618 -0.1843
11.2600 -7.4752 -0.1846
11.2800 -7.4886 -0.1808
11.3000 -7.5019 -0.1815
11.3200 -7.5152 -0.1798
11.3400 -7.5286 -0.1799
11.3600 -7.5419 -0.1777
11.3800 -7.5553 -0.1795
11.4000 -7.5686 -0.1762
11.4200 -7.5819 -0.1774
11.4400 -7.5952 -0.1781
11.4600 -7.6086 -0.1763
11.4800 -7.6220 -0.1745
11.5000 -7.6353 -0.1751
11.5200 -7.6486 -0.1731
11.5400 -7.6620 -0.1723
11.5600 -7.6753 -0.1715
11.5800 -7.6886 -0.1711
11.6000 -7.7019 -0.1686
11.6200 -7.7152 -0.1707
11.6400 -7.7285 -0.1676
11.6600 -7.7418 -0.1676
11.6800 -7.7551 -0.1675
11.7000 -7.7685 -0.1668
11.7200 -7.7819 -0.1647
11.7400 -7.7953 -0.1640
11.7600 -7.8086 -0.1606
11.7800 -7.8219 -0.1608
11.8000 -7.8353 -0.1611
11.8200 -7.8487 -0.1594
11.8400 -7.8620 -0.1610
11.8600 -7.8753 -0.1590
11.8800 -7.8886 -0.1576
11.9000 -7.9019 -0.1548
11.9200 -7.9152 -0.1568
11.9400 -7.9285 -0.1544
11.9600 -7.9418 -0.1534
11.9800 -7.9552 -0.1524
12.0000 -7.9686 -0.1516
12.0200 -7.9819 -0.1506
12.0400 -7.9952 -0.1509
12.0600 -8.0086 -0.1485
12.0800 -8.0219 -0.1477
12.1000 -8.0353 -0.1473
12.1200 -8.0486 -0.1456
12.1400 -8.0619 -0.1447
12.1600 -8.0752 -0.1443
12.1800 -8.0886 -0.1420
12.2000 -8.1019 -0.1409
12.2200 -8.1152 -0.1412
12.2400 -8.1285 -0.1418
12.2600 -8.1419 -0.1409
12.2800 -8.1553 -0.1392
12.3000 -8.1686 -0.1388
12.3200 -8.1818 -0.1395
12.3400 -8.1952 -0.1373
12.3600 -8.2085 -0.1366
12.3800 -8.2219 -0.1341
12.4000 -8.2352 -0.1345
12.4200 -8.2485 -0.1341
12.4400 -8.2619 -0.1323
12.4600 -8.2753 -0.1314
12.4800 -8.2886 -0.1328
12.5000 -8.3019 -0.1310
12.5200 -8.3153 -0.1327
12.5400 -8.3286 -0.1297
12.5600 -8.3420 -0.1306
12.5800 -8.3552 -0.1296
12.6000 -8.3686 -0.1300
12.6200 -8.3819 -0.1272
12.6400 -8.3952 -0.1255
12.6600 -8.4085 -0.1247
12.6800 -8.4218 -0.1232
12.7000 -8.4351 -0.1247
12.7200 -8.4485 -0.1234
12.7400 -8.4619 -0.1209
12.7600 -8.4752 -0.1208
12.7800 -8.4885 -0.1187
12.8000 -8.5019 -0.1188
12.8200 -8.5153 -0.1167
12.8400 -8.5286 -0.1168
12.8600 -8.5419 -0.1164
12.8800 -8.5552 -0.1168
12.9000 -8.5686 -0.1148
12.9200 -8.5819 -0.1129
12.9400 -8.5953 -0.1134
12.9600 -8.6086 -0.1125
12.9800 -8.6219 -0.1120
13.0000 -8.6353 -0.1090
13.0200 -8.6486 -0.1099
13.0400 -8.6618 -0.1084
13.0600 -8.6752 -0.1102
13.0800 -8.6886 -0.1073
13.1000 -8.7019 -0.1080
13.1200 -8.7152 -0.1072
13.1400 -8.7285 -0.1076
13.1600 -8.7419 -0.1056
13.1800 -8.7553 -0.1066
13.2000 -8.7686 -0.1048
13.2200 -8.7819 -0.1030
13.2400 -8.7952 -0.1033
13.2600 -8.8086 -0.1041
13.2800 -8.8220 -0.0998
13.3000 -8.8353 -0.1021
13.3200 -8.8486 -0.0987
13.3400 -8.8619 -0.1004
13.3600 -8.8753 -0.1007
13.3800 -8.8886 -0.1001
13.4000 -8.9019 -0.0980
13.4200 -8.9152 -0.0982
13.4400 -8.9285 -0.0968
13.4600 -8.9419 -0.0954
13.4800 -8.9552 -0.0942
13.5000 -8.9685 -0.0952
13.5200 -8.9819 -0.0927
13.5400 -8.9953 -0.0934
13.5600 -9.0086 -0.0930
13.5800 -9.0219 -0.0907
13.6000 -9.0352 -0.0918
13.6200 -9.0486 -0.0890
13.6400 -9.0620 -0.0889
13.6600 -9.0753 -0.0873
13.6800 -9.0886 -0.0871
13.7000 -9.1019 -0.0851
13.7200 -9.1153 -0.0837
13.7400 -9.1286 -0.0838
13.7600 -9.1418 -0.0824
13.7800 -9.1552 -0.0816
13.8000 -9.1685 -0.0813
13.8200 -9.1819 -0.0808
13.8400 -9.1952 -0.0809
13.8600 -9.2085 -0.0790
13.8800 -9.2219 -0.0777
13.9000 -9.2353 -0.0791
13.9200 -9.2486 -0.0776
13.9400 -9.2620 -0.0755
13.9600 -9.2753 -0.0746
13.9800 -9.2886 -0.0752
14.0000 -9.3020 -0.0748
14.0200 -9.3153 -0.0736
14.0400 -9.3285 -0.0744
14.0600 -9.3418 -0.0717
14.0800 -9.3552 -0.0705
14.1000 -9.3685 -0.0712
14.1200 -9.3818 -0.0706
14.1400 -9.3951 -0.0716
14.1600 -9.4085 -0.0698
14.1800 -9.4219 -0.0678
14.2000 -9.4352 -0.0677
14.2200 -9.4486 -0.0685
14.2400 -9.4619 -0.0662
14.2600 -9.4753 -0.0648
14.2800 -9.4886 -0.0621
14.3000 -9.5019 -0.0628
14.3200 -9.5152 -0.0597
14.3400 -9.5286 -0.0621
14.3600 -9.5420 -0.0585
14.3800 -9.5553 -0.0598
14.4000 -9.5686 -0.0586
14.4200 -9.5819 -0.0579
14.4400 -9.5953 -0.0561
14.4600 -9.6086 -0.0549
14.4800 -9.6219 -0.0558
14.5000 -9.6352 -0.0537
14.5200 -9.6485 -0.0527
14.5400 -9.6619 -0.0531
14.5600 -9.6752 -0.0526
14.5800 -9.6885 -0.0514
14.6000 -9.7019 -0.0497
14.6200 -9.7153 -0.0497
14.6400 -9.7286 -0.0509
14.6600 -9.7419 -0.0482
14.6800 -9.7552 -0.0481
14.7000 -9.7686 -0.0460
14.7200 -9.7819 -0.0454
14.7400 -9.7953 -0.0426
14.7600 -9.8086 -0.0429
14.7800 -9.8219 -0.0415
14.8000 -9.8352 -0.0411
14.8200 -9.8486 -0.0416
14.8400 -9.8618 -0.0414
14.8600 -9.8751 -0.0384
14.8800 -9.8885 -0.0391
14.9000 -9.9019 -0.0367
14.9200 -9.9152 -0.0377
14.9400 -9.9286 -0.0345
14.9600 -9.9419 -0.0347
14.9800 -9.9553 -0.0315
15.0000 -9.9686 -0.0317
15.0200 -9.9819 -0.0319
15.0400 -9.9952 -0.0318
15.0600 -10.0086 -0.0295
15.0800 -10.0219 -0.0291
15.1000 -10.0352 -0.0283
15.1200 -10.0486 -0.0286
15.1400 -10.0619 -0.0273
15.1600 -10.0752 -0.0256
15.1800 -10.0885 -0.0263
15.2000 -10.1018 -0.0244
15.2200 -10.1152 -0.0231
15.2400 -10.1285 -0.0203
15.2600 -10.1419 -0.0212
15.2800 -10.1553 -0.0197
15.3000 -10.1686 -0.0188
15.3200 -10.1819 -0.0207
15.3400 -10.1953 -0.0154
15.3600 -10.2086 -0.0170
15.3800 -10.2219 -0.0150
15.4000 -10.2352 -0.0146
15.4200 -10.2486 -0.0158
15.4400 -10.2620 -0.0131
15.4600 -10.2753 -0.0144
15.4800 -10.2886 -0.0129
15.5000 -10.3019 -0.0137
15.5200 -10.3152 -0.0105
15.5400 -10.3286 -0.0119
15.5600 -10.3418 -0.0093
15.5800 -10.3551 -0.0102
15.6000 -10.3685 -0.0092
15.6200 -10.3819 -0.0093
15.6400 -10.3952 -0.0057
15.6600 -10.4085 -0.0070
15.6800 -10.4219 -0.0045
15.7000 -10.4353 -0.0055
15.7200 -10.4487 -0.0036
15.7400 -10.4620 -0.0046
15.7600 -10.4753 -0.0019
15.7800 -10.4886 -0.0032
15.8000 -10.5020 -0.0032
15.8200 -10.5153 -0.0010
15.8400 -10.5286 0.0005
15.8600 -10.5419 0.0014
15.8800 -10.5552 0.0028
15.9000 -10.5686 0.0029
15.9200 -10.5818 0.0036
15.9400 -10.5951 0.0045
15.9600 -10.6085 0.0049
15.9800 -10.6219 0.0077
16.0000 -10.6352 0.0082
16.0200 -10.6485 0.0072
16.0400 -10.6619 0.0086
16.0600 -10.6753 0.0094
16.0800 -10.6886 0.0122
16.1000 -10.7019 0.0111
16.1200 -10.7152 0.0135
16.1400 -10.7286 0.0131
16.1600 -10.7419 0.0151
16.1800 -10.7553 0.0153
16.2000 -10.7686 0.0148
16.2200 -10.7819 0.0163
16.2400 -10.7952 0.0191
16.2600 -10.8085 0.0192
16.2800 -10.8218 0.0191
16.3000 -10.8351 0.0213
16.3200 -10.8485 0.0224
16.3400 -10.8619 0.0212
16.3600 -10.8752 0.0195
16.3800 -10.8886 0.0221
16.4000 -10.9019 0.0199
16.4200 -10.9153 0.0239
16.4400 -10.9286 0.0247
16.4600 -10.9419 0.0249
16.4800 -10.9552 0.0252
16.5000 -10.9685 0.0265
16.5200 -10.9819 0.0267
16.5400 -10.9952 0.0294
16.5600 -11.0086 0.0278
16.5800 -11.0219 0.0306
16.6000 -11.0352 0.0312
16.6200 -11.0486 0.0328
16.6400 -11.0619 0.0306
16.6600 -11.0752 0.0331
16.6800 -11.0885 0.0315
16.7000 -11.1019 0.0312
16.7200 -11.1152 0.0355
16.7400 -11.1285 0.0370
16.7600 -11.1419 0.0385
16.7800 -11.1553 0.0385
16.8000 -11.1687 0.0391
16.8200 -11.1820 0.0379
16.8400 -11.1953 0.0418
16.8600 -11.2086 0.0411
16.8800 -11.2220 0.0430
16.9000 -11.2353 0.0429
16.9200 -11.2486 0.0447
16.9400 -11.2619 0.0450
16.9600 -11.2752 0.0480
16.9800 -11.2886 0.0471
17.0000 -11.3019 0.0469
17.0200 -11.3152 0.0492
17.0400 -11.3285 0.0501
17.0600 -11.3419 0.0518
17.0800 -11.3552 0.0525
17.1000 -11.3685 0.0517
17.1200 -11.3819 0.0524
17.1400 -11.3953 0.0547
17.1600 -11.4086 0.0574
17.1800 -11.4219 0.0569
17.2000 -11.4352 0.0580
17.2200 -11.4486 0.0600
17.2400 -11.4619 0.0584
17.2600 -11.4753 0.0604
17.2800 -11.4886 0.0602
17.3000 -11.5019 0.0610
17.3200 -11.5152 0.0614
17.3400 -11.5286 0.0642
17.3600 -11.5419 0.0627
17.3800 -11.5552 0.0659
17.4000 -11.5685 0.0664
17.4200 -11.5819 0.0670
17.4400 -11.5952 0.0666
17.4600 -11.6085 0.0668
17.4800 -11.6218 0.0659
17.5000 -11.6352 0.0711
17.5200 -11.6486 0.0686
17.5400 -11.6619 0.0687
17.5600 -11.6752 0.0710
17.5800 -11.6886 0.0709
17.6000 -11.7019 0.0718
17.6200 -11.7153 0.0739
17.6400 -11.7286 0.0737
17.6600 -11.7419 0.0729
17.6800 -11.7553 0.0737
17.7000 -11.7686 0.0757
17.7200 -11.7819 0.0746
17.7400 -11.7952 0.0773
17.7600 -11.8085 0.0772
17.7800 -11.8219 0.0774
17.8000 -11.8352 0.0790
17.8200 -11.8485 0.0798
17.8400 -11.8619 0.0773
17.8600 -11.8752 0.0808
17.8800 -11.8886 0.0802
17.9000 -11.9019 0.0818
17.9200 -11.9152 0.0827
17.9400 -11.9286 0.0859
17.9600 -11.9419 0.0848
17.9800 -11.9552 0.0865
18.0000 -11.9686 0.0860
18.0200 -11.9819 0.0868
18.0400 -11.9952 0.0892
18.0600 -12.0086 0.0893
18.0800 -12.0219 0.0903
18.1000 -12.0352 0.0903
18.1200 -12.0485 0.0943
18.1400 -12.0619 0.0922
18.1600 -12.0753 0.0937
18.1800 -12.0886 0.0929
18.2000 -12.1019 0.0961
18.2200 -12.1152 0.0946
18.2400 -12.1286 0.0994
18.2600 -12.1419 0.0964
18.2800 -12.1552 0.1025
18.3000 -12.1686 0.1000
18.3200 -12.1819 0.1014
18.3400 -12.1953 0.1019
18.3600 -12.2086 0.1040
18.3800 -12.2219 0.1032
18.4000 -12.2352 0.1055
18.4200 -12.2486 0.1058
18.4400 -12.2619 0.1073
18.4600 -12.2752 0.1071
18.4800 -12.2885 0.1098
18.5000 -12.3019 0.1089
18.5200 -12.3153 0.1118
18.5400 -12.3286 0.1119
18.5600 -12.3419 0.1119
18.5800 -12.3552 0.1133
18.6000 -12.3686 0.1160
18.6200 -12.3820 0.1133
18.6400 -12.3952 0.1143
18.6600 -12.4085 0.1156
18.6800 -12.4219 0.1176
18.7000 -12.4353 0.1198
18.7200 -12.4486 0.1190
18.7400 -12.4619 0.1182
18.7600 -12.4753 0.1191
18.7800 -12.4886 0.1218
18.8000 -12.5019 0.1198
18.8200 -12.5152 0.1230
18.8400 -12.5285 0.1248
18.8600 -12.5418 0.1241
18.8800 -12.5552 0.1261
18.9000 -12.5685 0.1269
18.9200 -12.5818 0.1252
18.9400 -12.5952 0.1282
18.9600 -12.6086 0.1271
18.9800 -12.6220 0.1288
19.0000 -12.6353 0.1299
19.0200 -12.6486 0.1346
19.0400 -12.6620 0.1332
19.0600 -12.6753 0.1361
19.0800 -12.6886 0.1351
19.1000 -12.7019 0.1364
19.1200 -12.7152 0.1373
19.1400 -12.7286 0.1391
19.1600 -12.7419 0.1373
19.1800 -12.7552 0.1385
19.2000 -12.7685 0.1388
19.2200 -12.7819 0.1395
19.2400 -12.7952 0.1405
19.2600 -12.8086 0.1422
19.2800 -12.8219 0.1410
19.3000 -12.8352 0.1417
19.3200 -12.8486 0.1430
19.3400 -12.8620 0.1437
19.3600 -12.8753 0.1449
19.3800 -12.8886 0.1458
19.4000 -12.9019 0.1452
19.4200 -12.9153 0.1476
19.4400 -12.9286 0.1465
19.4600 -12.9419 0.1452
19.4800 -12.9552 0.1472
19.5000 -12.9686 0.1495
19.5200 -12.9819 0.1491
19.5400 -12.9952 0.1496
19.5600 -13.0085 0.1502
19.5800 -13.0218 0.1499
19.6000 -13.0352 0.1509
19.6200 -13.0486 0.1536
19.6400 -13.0619 0.1531
19.6600 -13.0752 0.1548
19.6800 -13.0886 0.1535
19.7000 -13.1019 0.1549
19.7200 -13.1153 0.1576
19.7400 -13.1286 0.1606
19.7600 -13.1419 0.1605
19.7800 -13.1553 0.1581
19.8000 -13.1686 0.1596
19.8200 -13.1819 0.1588
19.8400 -13.1952 0.1614
19.8600 -13.2086 0.1638
19.8800 -13.2219 0.1638
19.9000 -13.2351 0.1631
19.9200 -13.2485 0.1648
19.9400 -13.2618 0.1646
19.9600 -13.2752 0.1686
19.9800 -13.2885 0.1678
20.0000 -13.3019 0.1702
20.0200 -13.3152 0.1703
20.0400 -13.3286 0.1727
20.0600 -13.3420 0.1714
20.0800 -13.3553 0.1724
20.1000 -13.3686 0.1742
20.1200 -13.3819 0.1738
20.1400 -13.3953 0.1748
20.1600 -13.4086 0.1756
20.1800 -13.4219 0.1756
20.2000 -13.4352 0.1771
20.2200 -13.4486 0.1791
20.2400 -13.4619 0.1800
20.2600 -13.4752 0.1806
20.2800 -13.4885 0.1813
20.3000 -13.5019 0.1798
20.3200 -13.5152 0.1819
20.3400 -13.5286 0.1845
20.3600 -13.5419 0.1841
20.3800 -13.5552 0.1848
20.4000 -13.5686 0.1879
20.4200 -13.5819 0.1876
20.4400 -13.5953 0.1878
20.4600 -13.6086 0.1896
20.4800 -13.6219 0.1889
20.5000 -13.6353 0.1898
20.5200 -13.6486 0.1931
20.5400 -13.6619 0.1928
20.5600 -13.6752 0.1926
20.5800 -13.6886 0.1945
20.6000 -13.7019 0.1947
20.6200 -13.7152 0.1954
20.6400 -13.7285 0.1965
20.6600 -13.7418 0.1971
20.6800 -13.7552 0.1966
20.7000 -13.7685 0.1981
20.7200 -13.7818 0.1978
20.7400 -13.7952 0.1968
20.7600 -13.8086 0.2025
20.7800 -13.8219 0.2030
20.8000 -13.8352 0.2032
20.8200 -13.8486 0.2041
20.8400 -13.8619 0.2050
20.8600 -13.8753 0.2043
20.8800 -13.8886 0.2086
20.9000 -13.9019 0.2075
20.9200 -13.9153 0.2077
20.9400 -13.9286 0.2088
20.9600 -13.9419 0.2108
20.9800 -13.9552 0.2085
21.0000 -13.9685 0.2112
21.0200 -13.9818 0.2089
21.0400 -13.9952 0.2122
21.0600 -14.0085 0.2144
21.0800 -14.0218 0.2164
21.1000 -14.0352 0.2152
21.1200 -14.0486 0.2187
21.1400 -14.0620 0.2170
21.1600 -14.0753 0.2153
21.1800 -14.0886 0.2175
21.2000 -14.1020 0.2192
21.2200 -14.1153 0.2178
21.2400 -14.1286 0.2224
21.2600 -14.1419 0.2234
21.2800 -14.1552 0.2228
21.3000 -14.1685 0.2247
21.3200 -14.1818 0.2232
21.3400 -14.1951 0.2225
21.3600 -14.2085 0.2261
21.3800 -14.2218 0.2273
21.4000 -14.2352 0.2275
21.4200 -14.2486 0.2275
21.4400 -14.2619 0.2267
21.4600 -14.2752 0.2267
21.4800 -14.2886 0.2304
21.5000 -14.3020 0.2296
21.5200 -14.3153 0.2307
21.5400 -14.3286 0.2344
21.5600 -14.3419 0.2316
21.5800 -14.3553 0.2318
21.6000 -14.3686 0.2342
21.6200 -14.3819 0.2360
21.6400 -14.3953 0.2342
21.6600 -14.4086 0.2378
21.6800 -14.4219 0.2371
21.7000 -14.4352 0.2401
21.7200 -14.4485 0.2419
21.7400 -14.4618 0.2437
21.7600 -14.4752 0.2427
21.7800 -14.4885 0.2459
21.8000 -14.5018 0.2458
21.8200 -14.5152 0.2462
21.8400 -14.5286 0.2498
21.8600 -14.5419 0.2501
21.8800 -14.5552 0.2494
21.9000 -14.5686 0.2520
21.9200 -14.5819 0.2520
21.9400 -14.5953 0.2539
21.9600 -14.6086 0.2566
21.9800 -14.6219 0.2585
22.0000 -14.6352 0.2562
22.0200 -14.6486 0.2598
22.0400 -14.6619 0.2580
22.0600 -14.6752 0.2606
22.0800 -14.6885 0.2602
22.1000 -14.7018 0.2641
22.1200 -14.7152 0.2619
22.1400 -14.7286 0.2668
22.1600 -14.7419 0.2656
22.1800 -14.7552 0.2663
22.2000 -14.7686 0.2672
22.2200 -14.7820 0.2709
22.2400 -14.7953 0.2673
22.2600 -14.8086 0.2723
22.2800 -14.8219 0.2704
22.3000 -14.8353 0.2708
22.3200 -14.8486 0.2732
22.3400 -14.8619 0.2743
22.3600 -14.8752 0.2732
22.3800 -14.8886 0.2748
22.4000 -14.9019 0.2751
22.4200 -14.9152 0.2747
22.4400 -14.9285 0.2789
22.4600 -14.9419 0.2775
22.4800 -14.9552 0.2800
22.5000 -14.9686 0.2807
22.5200 -14.9819 0.2810
22.5400 -14.9952 0.2778
22.5600 -15.0086 0.2806
22.5800 -15.0220 0.2806
22.6000 -15.0353 0.2823
22.6200 -15.0486 0.2858
22.6400 -15.0619 0.2849
22.6600 -15.0753 0.2846
22.6800 -15.0886 0.2875
22.7000 -15.1019 0.2852
22.7200 -15.1152 0.2851
22.7400 -15.1285 0.2870
22.7600 -15.1419 0.2886
22.7800 -15.1552 0.2890
22.8000 -15.1685 0.2914
22.8200 -15.1818 0.2922
22.8400 -15.1952 0.2927
22.8600 -15.2085 0.2946
22.8800 -15.2219 0.2959
22.9000 -15.2352 0.2951
22.9200 -15.2486 0.2974
22.9400 -15.2620 0.2977
22.9600 -15.2753 0.2997
22.9800 -15.2886 0.3014
23.0000 -15.3019 0.3037
23.0200 -15.3153 0.3008
23.0400 -15.3286 0.3052
23.0600 -15.3419 0.3053
23.0800 -15.3552 0.3069
23.1000 -15.3685 0.3076
23.1200 -15.3819 0.3089
23.1400 -15.3952 0.3094
23.1600 -15.4085 0.3092
23.1800 -15.4218 0.3104
23.2000 -15.4352 0.3114
23.2200 -15.4485 0.3146
23.2400 -15.4618 0.3141
23.2600 -15.4752 0.3160
23.2800 -15.4886 0.3164
23.3000 -15.5020 0.3178
23.3200 -15.5153 0.3150
23.3400 -15.5286 0.3162
23.3600 -15.5419 0.3179
23.3800 -15.5553 0.3165
23.4000 -15.5686 0.3200
23.4200 -15.5819 0.3203
23.4400 -15.5952 0.3192
23.4600 -15.6086 0.3209
23.4800 -15.6219 0.3231
23.5000 -15.6352 0.3223
23.5200 -15.6485 0.3234
23.5400 -15.6618 0.3240
23.5600 -15.6752 0.3230
23.5800 -15.6886 0.3254
23.6000 -15.7019 0.3281
23.6200 -15.7152 0.3260
23.6400 -15.7286 0.3295
23.6600 -15.7420 0.3300
23.6800 -15.7553 0.3309
23.7000 -15.7685 0.3292
23.7200 -15.7818 0.3314
23.7400 -15.7952 0.3302
23.7600 -15.8086 0.3346
23.7800 -15.8219 0.3338
23.8000 -15.8352 0.3343
23.8200 -15.8486 0.3361
23.8400 -15.8619 0.3384
23.8600 -15.8753 0.3358
23.8800 -15.8885 0.3392
23.9000 -15.9019 0.3394
23.9200 -15.9152 0.3375
23.9400 -15.9286 0.3399
23.9600 -15.9419 0.3419
23.9800 -15.9552 0.3412
24.0000 -15.9686 0.3445
24.0200 -15.9820 0.3465
24.0400 -15.9953 0.3439
24.0600 -16.0086 0.3468
24.0800 -16.0219 0.3471
24.1000 -16.0353 0.3489
24.1200 -16.0487 0.3491
24.1400 -16.0620 0.3513
24.1600 -16.0752 0.3496
24.1800 -16.0886 0.3519
24.2000 -16.1019 0.3538
24.2200 -16.1152 0.3545
24.2400 -16.1285 0.3560
24.2600 -16.1418 0.3584
24.2800 -16.1552 0.3591
24.3000 -16.1685 0.3611
24.3200 -16.1819 0.3618
24.3400 -16.1952 0.3606
24.3600 -16.2086 0.3631
24.3800 -16.2219 0.3654
24.4000 -16.2353 0.3650
24.4200 -16.2486 0.3669
24.4400 -16.2619 0.3662
24.4600 -16.2753 0.3674
24.4800 -16.2886 0.3683
24.5000 -16.3019 0.3708
24.5200 -16.3152 0.3688
24.5400 -16.3286 0.3732
24.5600 -16.3419 0.3731
24.5800 -16.3552 0.3757
24.6000 -16.3685 0.3752
24.6200 -16.3818 0.3774
24.6400 -16.3952 0.3754
24.6600 -16.4085 0.3794
24.6800 -16.4219 0.3804
24.7000 -16.4352 0.3792
24.7200 -16.4485 0.3808
24.7400 -16.4619 0.3842
24.7600 -16.4753 0.3828
24.7800 -16.4886 0.3847
24.8000 -16.5019 0.3869
24.8200 -16.5152 0.3854
24.8400 -16.5286 0.3859
24.8600 -16.5419 0.3880
24.8800 -16.5553 0.3873
24.9000 -16.5686 0.3883
24.9200 -16.5819 0.3914
24.9400 -16.5953 0.3889
24.9600 -16.6086 0.3907
24.9800 -16.6219 0.3935
25.0000 -16.6352 0.3920
25.0200 -16.6486 0.3945
25.0400 -16.6619 0.3959
25.0600 -16.6752 0.3941
25.0800 -16.6886 0.3987
25.1000 -16.7020 0.3998
25.1200 -16.7153 0.4025
25.1400 -16.7286 0.4008
25.1600 -16.7419 0.4055
25.1800 -16.7552 0.4030
25.2000 -16.7686 0.4060
25.2200 -16.7819 0.4091
25.2400 -16.7952 0.4091
25.2600 -16.8085 0.4114
25.2800 -16.8219 0.4141
25.3000 -16.8352 0.4126
25.3200 -16.8485 0.4126
25.3400 -16.8618 0.4150
25.3600 -16.8752 0.4159
25.3800 -16.8886 0.4173
25.4000 -16.9019 0.4188
25.4200 -16.9152 0.4185
25.4400 -16.9285 0.4190
25.4600 -16.9419 0.4222
25.4800 -16.9553 0.4203
25.5000 -16.9686 0.4206
25.5200 -16.9819 0.4245
25.5400 -16.9952 0.4238
25.5600 -17.0085 0.4247
25.5800 -17.0219 0.4263
25.6000 -17.0352 0.4256
25.6200 -17.0485 0.4275
25.6400 -17.0618 0.4295
25.6600 -17.0752 0.4295
25.6800 -17.0885 0.4319
25.7000 -17.1018 0.4323
25.7200 -17.1152 0.4337
25.7400 -17.1286 0.4339
25.7600 -17.1419 0.4381
25.7800 -17.1552 0.4352
25.8000 -17.1685 0.4371
25.8200 -17.1819 0.4410
25.8400 -17.1953 0.4417
25.8600 -17.2086 0.4427
25.8800 -17.2219 0.4439
25.9000 -17.2352 0.4450
25.9200 -17.2486 0.4462
25.9400 -17.2619 0.4494
25.9600 -17.2753 0.4468
25.9800 -17.2886 0.4497
26.0000 -17.3020 0.4520
26.0200 -17.3153 0.4507
26.0400 -17.3286 0.4497
26.0600 -17.3419 0.4528
26.0800 -17.3552 0.4526
26.1000 -17.3685 0.4545
26.1200 -17.3819 0.4568
26.1400 -17.3952 0.4557
26.1600 -17.4085 0.4543
26.1800 -17.4219 0.4563
26.2000 -17.4353 0.4591
26.2200 -17.4486 0.4592
26.2400 -17.4619 0.4650
26.2600 -17.4753 0.4646
26.2800 -17.4887 0.4658
26.3000 -17.5020 0.4682
26.3200 -17.5153 0.4670
26.3400 -17.5286 0.4673
26.3600 -17.5419 0.4702
26.3800 -17.5553 0.4701
26.4000 -17.5686 0.4718
26.4200 -17.5819 0.4730
26.4400 -17.5952 0.4727
26.4600 -17.6086 0.4740
26.4800 -17.6219 0.4772
26.5000 -17.6352 0.4755
26.5200 -17.6486 0.4759
26.5400 -17.6619 0.4783
26.5600 -17.6753 0.4786
26.5800 -17.6886 0.4792
26.6000 -17.7019 0.4831
26.6200 -17.7152 0.4802
26.6400 -17.7286 0.4827
26.6600 -17.7419 0.4849
26.6800 -17.7552 0.4833
26.7000 -17.7685 0.4810
26.7200 -17.7819 0.4853
26.7400 -17.7953 0.4848
26.7600 -17.8085 0.4838
26.7800 -17.8218 0.4882
26.8000 -17.8352 0.4879
26.8200 -17.8485 0.4871
26.8400 -17.8619 0.4918
26.8600 -17.8752 0.4913
26.8800 -17.8885 0.4922
26.9000 -17.9019 0.4959
26.9200 -17.9153 0.4970
26.9400 -17.9286 0.4986
26.9600 -17.9419 0.5007
26.9800 -17.9553 0.4990
27.0000 -17.9686 0.5007
27.0200 -17.9819 0.5035
27.0400 -17.9952 0.5018
27.0600 -18.0086 0.5016
27.0800 -18.0219 0.5059
27.1000 -18.0352 0.5082
27.1200 -18.0485 0.5074
27.1400 -18.0618 0.5105
27.1600 -18.0751 0.5084
27.1800 -18.0885 0.5090
27.2000 -18.1019 0.5129
27.2200 -18.1152 0.5154
27.2400 -18.1285 0.5132
27.2600 -18.1419 0.5162
27.2800 -18.1553 0.5139
27.3000 -18.1686 0.5170
27.3200 -18.1819 0.5197
27.3400 -18.1953 0.5192
27.3600 -18.2086 0.5183
27.3800 -18.2220 0.5214
27.4000 -18.2353 0.5212
27.4200 -18.2486 0.5234
27.4400 -18.2619 0.5248
27.4600 -18.2752 0.5261
27.4800 -18.2886 0.5269
27.5000 -18.3019 0.5298
27.5200 -18.3152 0.5311
27.5400 -18.3286 0.5305
27.5600 -18.3419 0.5335
27.5800 -18.3552 0.5354
27.6000 -18.3685 0.5342
27.6200 -18.3819 0.5381
27.6400 -18.3953 0.5378
27.6600 -18.4086 0.5362
27.6800 -18.4219 0.5402
27.7000 -18.4352 0.5397
27.7200 -18.4486 0.5410
27.7400 -18.4620 0.5430
27.7600 -18.4753 0.5422
27.7800 -18.4886 0.5422
27.8000 -18.5019 0.5452
27.8200 -18.5153 0.5468
27.8400 -18.5286 0.5476
27.8600 -18.5418 0.5491
27.8800 -18.5552 0.5499
27.9000 -18.5685 0.5485
27.9200 -18.5819 0.5528
27.9400 -18.5952 0.5507
27.9600 -18.6085 0.5534
27.9800 -18.6219 0.5549
28.0000 -18.6353 0.5567
28.0200 -18.6486 0.5576
28.0400 -18.6619 0.5588
28.0600 -18.6752 0.5591
28.0800 -18.6886 0.5611
28.1000 -18.7020 0.5619
28.1200 -18.7153 0.5651
28.1400 -18.7286 0.5633
28.1600 -18.7419 0.5671
28.1800 -18.7553 0.5662
28.2000 -18.7686 0.5674
28.2200 -18.7818 0.5708
28.2400 -18.7951 0.5685
28.2600 -18.8085 0.5708
28.2800 -18.8219 0.5721
28.3000 -18.8352 0.5729
28.3200 -18.8485 0.5735
28.3400 -18.8619 0.5749
28.3600 -18.8753 0.5769
28.3800 -18.8886 0.5767
28.4000 -18.9019 0.5789
28.4200 -18.9153 0.5800
28.4400 -18.9286 0.5805
28.4600 -18.9420 0.5860
28.4800 -18.9553 0.5841
28.5000 -18.9686 0.5863
28.5200 -18.9818 0.5872
28.5400 -18.9952 0.5912
28.5600 -19.0085 0.5910
28.5800 -19.0218 0.5938
28.6000 -19.0352 0.5959
28.6200 -19.0485 0.5957
28.6400 -19.0619 0.5990
28.6600 -19.0752 0.5996
28.6800 -19.0885 0.5996
28.7000 -19.1019 0.6006
28.7200 -19.1153 0.6041
28.7400 -19.1287 0.6038
28.7600 -19.1419 0.6053
28.7800 -19.1552 0.6063
28.8000 -19.1686 0.6059
28.8200 -19.1820 0.6076
28.8400 -19.1953 0.6083
28.8600 -19.2086 0.6072
28.8800 -19.2219 0.6098
28.9000 -19.2353 0.6095
28.9200 -19.2486 0.6115
28.9400 -19.2619 0.6122
28.9600 -19.2752 0.6155
28.9800 -19.2885 0.6137
29.0000 -19.3019 0.6150
29.0200 -19.3152 0.6158
29.0400 -19.3285 0.6159
29.0600 -19.3419 0.6191
29.0800 -19.3553 0.6193
29.1000 -19.3686 0.6186
29.1200 -19.3819 0.6204
29.1400 -19.3952 0.6215
29.1600 -19.4086 0.6232
29.1800 -19.4219 0.6239
29.2000 -19.4353 0.6281
29.2200 -19.4486 0.6258
29.2400 -19.4619 0.6324
29.2600 -19.4753 0.6309
29.2800 -19.4886 0.6323
29.3000 -19.5019 0.6338
29.3200 -19.5152 0.6355
29.3400 -19.5285 0.6359
29.3600 -19.5419 0.6391
29.3800 -19.5552 0.6420
29.4000 -19.5686 0.6407
29.4200 -19.5819 0.6440
29.4400 -19.5953 0.6439
29.4600 -19.6086 0.6437
29.4800 -19.6219 0.6456
29.5000 -19.6352 0.6496
29.5200 -19.6486 0.6480
29.5400 -19.6620 0.6513
29.5600 -19.6753 0.6496
29.5800 -19.6885 0.6518
29.6000 -19.7018 0.6521
29.6200 -19.7152 0.6527
29.6400 -19.7285 0.6532
29.6600 -19.7418 0.6565
29.6800 -19.7552 0.6584
29.7000 -19.7685 0.6588
29.7200 -19.7819 0.6608
29.7400 -19.7952 0.6644
29.7600 -19.8086 0.6640
29.7800 -19.8219 0.6671
29.8000 -19.8353 0.6692
29.8200 -19.8486 0.6687
29.8400 -19.8619 0.6720
29.8600 -19.8752 0.6726
29.8800 -19.8886 0.6742
29.9000 -19.9020 0.6766
29.9200 -19.9153 0.6783
29.9400 -19.9286 0.6790
29.9600 -19.9419 0.6748
29.9800 -19.9552 0.6395
30.0000 -19.9685 0.5730
30.0200 -19.9818 0.5012
30.0400 -19.9951 0.4317
30.0600 -20.0085 0.3645
30.0800 -20.0219 0.2962
30.1000 -20.0352 0.2304
30.1200 -20.0485 0.1618
30.1400 -20.0619 0.0957
30.1600 -20.0753 0.0247
30.1800 -20.0886 -0.0430
30.2000 -20.1020 -0.1044
30.2200 -20.1153 -0.1487
30.2400 -20.1286 -0.2027
30.2600 -20.1420 -0.2583
30.2800 -20.1553 -0.3120
30.3000 -20.1686 -0.3665
30.3200 -20.1819 -0.4147
30.3400 -20.1952 -0.4700
30.3600 -20.2086 -0.5290
30.3800 -20.2218 -0.5934
30.4000 -20.2351 -0.6544
30.4200 -20.2485 -0.7206
30.4400 -20.2619 -0.7819
30.4600 -20.2752 -0.8421
30.4800 -20.2885 -0.8949
30.5000 -20.3019 -0.9217
30.5200 -20.3153 -0.9215
30.5400 -20.3287 -0.9192
30.5600 -20.3420 -0.9169
30.5800 -20.3553 -0.9128
30.6000 -20.3686 -0.9109
30.6200 -20.3820 -0.9086
30.6400 -20.3953 -0.9065
30.6600 -20.4086 -0.9059
30.6800 -20.4219 -0.9052
30.7000 -20.4352 -0.9043
30.7200 -20.4485 -0.9034
30.7400 -20.4618 -0.9019
30.7600 -20.4752 -0.9007
30.7800 -20.4885 -0.9008
30.8000 -20.5019 -0.8983
30.8200 -20.5152 -0.8974
30.8400 -20.5286 -0.8975
30.8600 -20.5419 -0.8971
30.8800 -20.5553 -0.8921
30.9000 -20.5686 -0.8931
30.9200 -20.5819 -0.8919
30.9400 -20.5952 -0.8921
30.9600 -20.6085 -0.8896
30.9800 -20.6219 -0.8886
31.0000 -20.6352 -0.8865
31.0200 -20.6485 -0.8856
31.0400 -20.6619 -0.8842
31.0600 -20.6752 -0.8828
31.0800 -20.6886 -0.8821
31.1000 -20.7019 -0.8802
31.1200 -20.7152 -0.8793
31.1400 -20.7285 -0.8767
31.1600 -20.7419 -0.8772
31.1800 -20.7552 -0.8744
31.2000 -20.7685 -0.8749
31.2200 -20.7819 -0.8712
31.2400 -20.7952 -0.8705
31.2600 -20.8086 -0.8668
31.2800 -20.8220 -0.8678
31.3000 -20.8353 -0.8626
31.3200 -20.8486 -0.8637
31.3400 -20.8620 -0.8626
31.3600 -20.8753 -0.8601
31.3800 -20.8886 -0.8598
31.4000 -20.9019 -0.8564
31.4200 -20.9152 -0.8542
31.4400 -20.9286 -0.8533
31.4600 -20.9419 -0.8521
31.4800 -20.9552 -0.8485
31.5000 -20.9685 -0.8473
31.5200 -20.9819 -0.8449
31.5400 -20.9952 -0.8437
31.5600 -21.0085 -0.8424
31.5800 -21.0219 -0.8413
31.6000 -21.0352 -0.8372
31.6200 -21.0486 -0.8363
31.6400 -21.0619 -0.8352
31.6600 -21.0752 -0.8351
31.6800 -21.0886 -0.8354
31.7000 -21.1019 -0.8320
31.7200 -21.1153 -0.8304
31.7400 -21.1286 -0.8297
31.7600 -21.1419 -0.8276
31.7800 -21.1552 -0.8238
31.8000 -21.1686 -0.8231
31.8200 -21.1819 -0.8222
31.8400 -21.1952 -0.8211
31.8600 -21.2085 -0.8195
31.8800 -21.2219 -0.8190
31.9000 -21.2352 -0.8161
31.9200 -21.2485 -0.8154
31.9400 -21.2619 -0.8128
31.9600 -21.2752 -0.8114
31.9800 -21.2886 -0.8101
32.0000 -21.3019 -0.8060
32.0200 -21.3152 -0.8060
32.0400 -21.3286 -0.8045
32.0600 -21.3419 -0.8042
32.0800 -21.3553 -0.8018
32.1000 -21.3686 -0.8010
32.1200 -21.3819 -0.7978
32.1400 -21.3953 -0.7970
32.1600 -21.4086 -0.7938
32.1800 -21.4219 -0.7934
32.2000 -21.4352 -0.7918
32.2200 -21.4485 -0.7913
32.2400 -21.4619 -0.7880
32.2600 -21.4752 -0.7858
32.2800 -21.4886 -0.7842
32.3000 -21.5019 -0.7841
32.3200 -21.5152 -0.7826
32.3400 -21.5286 -0.7794
32.3600 -21.5419 -0.7772
32.3800 -21.5552 -0.7763
32.4000 -21.5685 -0.7754
32.4200 -21.5819 -0.7710
32.4400 -21.5953 -0.7684
32.4600 -21.6086 -0.7663
32.4800 -21.6219 -0.7681
32.5000 -21.6352 -0.7628
32.5200 -21.6486 -0.7632
32.5400 -21.6619 -0.7561
32.5600 -21.6752 -0.7601
32.5800 -21.6885 -0.7556
32.6000 -21.7019 -0.7557
32.6200 -21.7153 -0.7494
32.6400 -21.7286 -0.7514
32.6600 -21.7419 -0.7475
32.6800 -21.7552 -0.7480
32.7000 -21.7686 -0.7456
32.7200 -21.7820 -0.7446
32.7400 -21.7952 -0.7435
32.7600 -21.8086 -0.7414
32.7800 -21.8219 -0.7419
32.8000 -21.8353 -0.7389
32.8200 -21.8486 -0.7409
32.8400 -21.8619 -0.7389
32.8600 -21.8752 -0.7397
32.8800 -21.8885 -0.7379
32.9000 -21.9019 -0.7379
32.9200 -21.9152 -0.7367
32.9400 -21.9285 -0.7379
32.9600 -21.9419 -0.7355
32.9800 -21.9552 -0.7349
33.0000 -21.9686 -0.7340
33.0200 -21.9819 -0.7341
33.0400 -21.9952 -0.7328
33.0600 -22.0086 -0.7330
33.0800 -22.0220 -0.7289
33.1000 -22.0353 -0.7290
33.1200 -22.0486 -0.7265
33.1400 -22.0619 -0.7269
33.1600 -22.0753 -0.7228
33.1800 -22.0886 -0.7228
33.2000 -22.1019 -0.7204
33.2200 -22.1153 -0.7194
33.2400 -22.1286 -0.7181
33.2600 -22.1419 -0.7154
33.2800 -22.1552 -0.7128
33.3000 -22.1685 -0.7137
33.3200 -22.1818 -0.7100
33.3400 -22.1952 -0.7102
33.3600 -22.2085 -0.7096
33.3800 -22.2218 -0.7090
33.4000 -22.2352 -0.7075
33.4200 -22.2486 -0.7080
33.4400 -22.2620 -0.7057
33.4600 -22.2753 -0.7050
33.4800 -22.2886 -0.7024
33.5000 -22.3019 -0.7023
33.5200 -22.3153 -0.7018
33.5400 -22.3286 -0.7028
33.5600 -22.3419 -0.7005
33.5800 -22.3552 -0.6998
33.6000 -22.3686 -0.6981
33.6200 -22.3819 -0.6962
33.6400 -22.3952 -0.6966
33.6600 -22.4085 -0.6970
33.6800 -22.4219 -0.6926
33.7000 -22.4353 -0.6916
33.7200 -22.4486 -0.6895
33.7400 -22.4619 -0.6899
33.7600 -22.4752 -0.6891
33.7800 -22.4886 -0.6883
33.8000 -22.5020 -0.6857
33.8200 -22.5153 -0.6831
33.8400 -22.5286 -0.6837
33.8600 -22.5419 -0.6806
33.8800 -22.5553 -0.6789
33.9000 -22.5686 -0.6760
33.9200 -22.5819 -0.6749
33.9400 -22.5952 -0.6743
33.9600 -22.6086 -0.6746
33.9800 -22.6219 -0.6717
34.0000 -22.6352 -0.6715
34.0200 -22.6485 -0.6679
34.0400 -22.6618 -0.6686
34.0600 -22.6752 -0.6635
34.0800 -22.6886 -0.6649
34.1000 -22.7019 -0.6610
34.1200 -22.7152 -0.6622
34.1400 -22.7286 -0.6610
34.1600 -22.7419 -0.6581
34.1800 -22.7553 -0.6558
34.2000 -22.7686 -0.6540
34.2200 -22.7820 -0.6506
34.2400 -22.7953 -0.6505
34.2600 -22.8086 -0.6484
34.2800 -22.8219 -0.6484
34.3000 -22.8352 -0.6466
34.3200 -22.8486 -0.6440
34.3400 -22.8619 -0.6418
34.3600 -22.8752 -0.6423
34.3800 -22.8885 -0.6374
34.4000 -22.9018 -0.6378
34.4200 -22.9152 -0.6351
34.4400 -22.9286 -0.6326
34.4600 -22.9419 -0.6301
34.4800 -22.9552 -0.6314
34.5000 -22.9686 -0.6287
34.5200 -22.9820 -0.6294
34.5400 -22.9953 -0.6264
34.5600 -23.0086 -0.6255
34.5800 -23.0220 -0.6218
34.6000 -23.0353 -0.6229
34.6200 -23.0486 -0.6222
34.6400 -23.0619 -0.6212
34.6600 -23.0752 -0.6195
34.6800 -23.0886 -0.6173
34.7000 -23.1019 -0.6139
34.7200 -23.1152 -0.6155
34.7400 -23.1285 -0.6155
34.7600 -23.1418 -0.6120
34.7800 -23.1552 -0.6129
34.8000 -23.1686 -0.6087
34.8200 -23.1819 -0.6123
34.8400 -23.1952 -0.6100
34.8600 -23.2086 -0.6095
34.8800 -23.2219 -0.6062
34.9000 -23.2352 -0.6060
34.9200 -23.2485 -0.6064
34.9400 -23.2619 -0.6070
34.9600 -23.2753 -0.6065
34.9800 -23.2886 -0.6072
35.0000 -23.3019 -0.6049
35.0200 -23.3153 -0.6048
35.0400 -23.3286 -0.6019
35.0600 -23.3419 -0.6021
35.0800 -23.3552 -0.6053
35.1000 -23.3685 -0.6048
35.1200 -23.3818 -0.6040
35.1400 -23.3952 -0.6050
35.1600 -23.4085 -0.6003
35.1800 -23.4219 -0.6009
35.2000 -23.4352 -0.6007
35.2200 -23.4486 -0.6005
35.2400 -23.4619 -0.5996
35.2600 -23.4753 -0.6005
35.2800 -23.4886 -0.5985
35.3000 -23.5019 -0.5988
35.3200 -23.5153 -0.5981
35.3400 -23.5286 -0.5958
35.3600 -23.5419 -0.5939
35.3800 -23.5553 -0.5928
35.4000 -23.5686 -0.5915
35.4200 -23.5819 -0.5917
35.4400 -23.5952 -0.5904
35.4600 -23.6085 -0.5882
35.4800 -23.6218 -0.5855
35.5000 -23.6352 -0.5830
35.5200 -23.6486 -0.5821
35.5400 -23.6619 -0.5805
35.5600 -23.6752 -0.5809
35.5800 -23.6886 -0.5783
35.6000 -23.7020 -0.5758
35.6200 -23.7153 -0.5746
35.6400 -23.7286 -0.5714
35.6600 -23.7420 -0.5719
35.6800 -23.7553 -0.5712
35.7000 -23.7686 -0.5697
35.7200 -23.7819 -0.5682
35.7400 -23.7952 -0.5673
35.7600 -23.8085 -0.5625
35.7800 -23.8219 -0.5618
35.8000 -23.8352 -0.5610
35.8200 -23.8485 -0.5620
35.8400 -23.8618 -0.5575
35.8600 -23.8752 -0.5571
35.8800 -23.8886 -0.5552
35.9000 -23.9019 -0.5538
35.9200 -23.9152 -0.5531
35.9400 -23.9286 -0.5515
35.9600 -23.9420 -0.5495
35.9800 -23.9553 -0.5493
36.0000 -23.9686 -0.5486
36.0200 -23.9819 -0.5464
36.0400 -23.9953 -0.5451
36.0600 -24.0086 -0.5441
36.0800 -24.0219 -0.5424
36.1000 -24.0352 -0.5432
36.1200 -24.0486 -0.5391
36.1400 -24.0619 -0.5401
36.1600 -24.0752 -0.5391
36.1800 -24.0885 -0.5403
36.2000 -24.1018 -0.5393
36.2200 -24.1152 -0.5365
36.2400 -24.1286 -0.5351
36.2600 -24.1419 -0.5336
36.2800 -24.1552 -0.5336
36.3000 -24.1686 -0.5334
36.3200 -24.1819 -0.5303
36.3400 -24.1953 -0.5320
36.3600 -24.2086 -0.5287
36.3800 -24.2219 -0.5295
36.4000 -24.2352 -0.5278
36.4200 -24.2486 -0.5253
36.4400 -24.2619 -0.5252
36.4600 -24.2752 -0.5229
36.4800 -24.2886 -0.5232
36.5000 -24.3019 -0.5210
36.5200 -24.3152 -0.5226
36.5400 -24.3285 -0.5185
36.5600 -24.3418 -0.5178
36.5800 -24.3552 -0.5174
36.6000 -24.3685 -0.5138
36.6200 -24.3819 -0.5137
36.6400 -24.3952 -0.5159
36.6600 -24.4086 -0.5120
36.6800 -24.4220 -0.5109
36.7000 -24.4353 -0.5092
36.7200 -24.4486 -0.5113
36.7400 -24.4619 -0.5082
36.7600 -24.4753 -0.5098
36.7800 -24.4886 -0.5050
36.8000 -24.5019 -0.5058
36.8200 -24.5152 -0.5033
36.8400 -24.5285 -0.5048
36.8600 -24.5419 -0.5009
36.8800 -24.5552 -0.5016
36.9000 -24.5685 -0.5009
36.9200 -24.5819 -0.5005
36.9400 -24.5952 -0.5008
36.9600 -24.6086 -0.4983
36.9800 -24.6219 -0.4985
37.0000 -24.6352 -0.4965
37.0200 -24.6486 -0.4936
37.0400 -24.6620 -0.4933
37.0600 -24.6753 -0.4920
37.0800 -24.6886 -0.4918
37.1000 -24.7019 -0.4903
37.1200 -24.7153 -0.4895
37.1400 -24.7286 -0.4901
37.1600 -24.7420 -0.4884
37.1800 -24.7552 -0.4892
37.2000 -24.7686 -0.4883
37.2200 -24.7819 -0.4866
37.2400 -24.7952 -0.4865
37.2600 -24.8085 -0.4860
37.2800 -24.8218 -0.4847
37.3000 -24.8352 -0.4844
37.3200 -24.8486 -0.4836
37.3400 -24.8619 -0.4818
37.3600 -24.8752 -0.4818
37.3800 -24.8885 -0.4811
37.4000 -24.9019 -0.4794
37.4200 -24.9153 -0.4798
37.4400 -24.9286 -0.4798
37.4600 -24.9419 -0.4790
37.4800 -24.9553 -0.4798
37.5000 -24.9686 -0.4779
37.5200 -24.9819 -0.4761
37.5400 -24.9952 -0.4765
37.5600 -25.0086 -0.4721
37.5800 -25.0219 -0.4736
37.6000 -25.0352 -0.4703
37.6200 -25.0485 -0.4721
37.6400 -25.0618 -0.4676
37.6600 -25.0752 -0.4689
37.6800 -25.0885 -0.4673
37.7000 -25.1019 -0.4657
37.7200 -25.1152 -0.4644
37.7400 -25.1286 -0.4632
37.7600 -25.1420 -0.4625
37.7800 -25.1553 -0.4623
37.8000 -25.1686 -0.4601
37.8200 -25.1819 -0.4588
37.8400 -25.1953 -0.4581
37.8600 -25.2086 -0.4563
37.8800 -25.2219 -0.4525
37.9000 -25.2352 -0.4533
37.9200 -25.2486 -0.4522
37.9400 -25.2619 -0.4493
37.9600 -25.2752 -0.4492
37.9800 -25.2885 -0.4502
38.0000 -25.3018 -0.4465
38.0200 -25.3152 -0.4477
38.0400 -25.3286 -0.4442
38.0600 -25.3419 -0.4420
38.0800 -25.3552 -0.4421
38.1000 -25.3686 -0.4423
38.1200 -25.3820 -0.4410
38.1400 -25.3953 -0.4403
38.1600 -25.4085 -0.4411
38.1800 -25.4218 -0.4364
38.2000 -25.4352 -0.4360
38.2200 -25.4486 -0.4344
38.2400 -25.4619 -0.4358
38.2600 -25.4752 -0.4337
38.2800 -25.4885 -0.4340
38.3000 -25.5019 -0.4297
38.3200 -25.5152 -0.4297
38.3400 -25.5285 -0.4320
38.3600 -25.5418 -0.4301
38.3800 -25.5552 -0.4281
38.4000 -25.5686 -0.4293
38.4200 -25.5819 -0.4255
38.4400 -25.5952 -0.4254
38.4600 -25.6086 -0.4254
38.4800 -25.6219 -0.4226
38.5000 -25.6353 -0.4211
38.5200 -25.6486 -0.4243
38.5400 -25.6619 -0.4216
38.5600 -25.6753 -0.4205
38.5800 -25.6886 -0.4187
38.6000 -25.7020 -0.4166
38.6200 -25.7153 -0.4166
38.6400 -25.7286 -0.4152
38.6600 -25.7419 -0.4123
38.6800 -25.7552 -0.4132
38.7000 -25.7685 -0.4148
38.7200 -25.7818 -0.4133
38.7400 -25.7952 -0.4110
38.7600 -25.8086 -0.4122
38.7800 -25.8219 -0.4106
38.8000 -25.8352 -0.4113
38.8200 -25.8486 -0.4092
38.8400 -25.8619 -0.4061
38.8600 -25.8753 -0.4060
38.8800 -25.8886 -0.4069
38.9000 -25.9019 -0.4063
38.9200 -25.9153 -0.4047
38.9400 -25.9286 -0.4074
38.9600 -25.9419 -0.4021
38.9800 -25.9552 -0.4028
39.0000 -25.9686 -0.4010
39.0200 -25.9819 -0.3992
39.0400 -25.9953 -0.3968
39.0600 -26.0085 -0.3995
39.0800 -26.0218 -0.3946
39.1000 -26.0352 -0.3939
39.1200 -26.0486 -0.3920
39.1400 -26.0619 -0.3907
39.1600 -26.0752 -0.3915
39.1800 -26.0885 -0.3900
39.2000 -26.1019 -0.3876
39.2200 -26.1153 -0.3868
39.2400 -26.1286 -0.3881
39.2600 -26.1419 -0.3842
39.2800 -26.1552 -0.3841
39.3000 -26.1686 -0.3834
39.3200 -26.1819 -0.3787
39.3400 -26.1952 -0.3787
39.3600 -26.2086 -0.3787
39.3800 -26.2219 -0.3754
39.4000 -26.2353 -0.3759
39.4200 -26.2486 -0.3766
39.4400 -26.2618 -0.3743
39.4600 -26.2752 -0.3731
39.4800 -26.2885 -0.3704
39.5000 -26.3019 -0.3687
39.5200 -26.3152 -0.3675
39.5400 -26.3286 -0.3688
39.5600 -26.3419 -0.3670
39.5800 -26.3553 -0.3669
39.6000 -26.3686 -0.3683
39.6200 -26.3819 -0.3647
39.6400 -26.3952 -0.3637
39.6600 -26.4086 -0.3626
39.6800 -26.4219 -0.3604
39.7000 -26.4352 -0.3584
39.7200 -26.4486 -0.3600
39.7400 -26.4619 -0.3571
39.7600 -26.4752 -0.3558
39.7800 -26.4885 -0.3551
39.8000 -26.5019 -0.3526
39.8200 -26.5152 -0.3500
39.8400 -26.5286 -0.3531
39.8600 -26.5419 -0.3488
39.8800 -26.5552 -0.3501
39.9000 -26.5686 -0.3492
39.9200 -26.5819 -0.3489
39.9400 -26.5953 -0.3460
39.9600 -26.6086 -0.3479
39.9800 -26.6219 -0.3429
40.0000 -26.6352 -0.3445
40.0200 -26.6486 -0.3454
40.0400 -26.6619 -0.3428
40.0600 -26.6752 -0.3410
40.0800 -26.6885 -0.3430
40.1000 -26.7019 -0.3407
40.1200 -26.7152 -0.3401
40.1400 -26.7285 -0.3421
40.1600 -26.7418 -0.3401
40.1800 -26.7552 -0.3412
40.2000 -26.7686 -0.3413
40.2200 -26.7819 -0.3400
40.2400 -26.7952 -0.3376
40.2600 -26.8085 -0.3397
40.2800 -26.8219 -0.3361
40.3000 -26.8353 -0.3369
40.3200 -26.8486 -0.3379
40.3400 -26.8619 -0.3388
40.3600 -26.8752 -0.3366
40.3800 -26.8886 -0.3390
40.4000 -26.9019 -0.3337
40.4200 -26.9152 -0.3359
40.4400 -26.9286 -0.3366
40.4600 -26.9419 -0.3354
40.4800 -26.9553 -0.3337
40.5000 -26.9686 -0.3349
40.5200 -26.9819 -0.3312
40.5400 -26.9952 -0.3316
40.5600 -27.0085 -0.3327
40.5800 -27.0218 -0.3311
40.6000 -27.0351 -0.3294
40.6200 -27.0485 -0.3288
40.6400 -27.0619 -0.3258
40.6600 -27.0753 -0.3238
40.6800 -27.0886 -0.3249
40.7000 -27.1019 -0.3214
40.7200 -27.1153 -0.3208
40.7400 -27.1286 -0.3203
40.7600 -27.1420 -0.3164
40.7800 -27.1553 -0.3157
40.8000 -27.1686 -0.3154
40.8200 -27.1819 -0.3146
40.8400 -27.1953 -0.3119
40.8600 -27.2086 -0.3135
40.8800 -27.2219 -0.3095
40.9000 -27.2352 -0.3098
40.9200 -27.2486 -0.3083
40.9400 -27.2619 -0.3063
40.9600 -27.2752 -0.3046
40.9800 -27.2886 -0.3075
41.0000 -27.3019 -0.3040
41.0200 -27.3153 -0.3019
41.0400 -27.3286 -0.3015
41.0600 -27.3419 -0.2986
41.0800 -27.3552 -0.2985
41.1000 -27.3686 -0.2981
41.1200 -27.3819 -0.2977
41.1400 -27.3953 -0.2939
41.1600 -27.4086 -0.2969
41.1800 -27.4219 -0.2937
41.2000 -27.4353 -0.2935
41.2200 -27.4485 -0.2935
41.2400 -27.4618 -0.2934
41.2600 -27.4752 -0.2894
41.2800 -27.4885 -0.2939
41.3000 -27.5019 -0.2901
41.3200 -27.5152 -0.2901
41.3400 -27.5286 -0.2911
41.3600 -27.5419 -0.2893
41.3800 -27.5553 -0.2870
41.4000 -27.5686 -0.2902
41.4200 -27.5819 -0.2867
41.4400 -27.5953 -0.2862
41.4600 -27.6086 -0.2884
41.4800 -27.6220 -0.2872
41.5000 -27.6353 -0.2871
41.5200 -27.6486 -0.2882
41.5400 -27.6619 -0.2849
41.5600 -27.6752 -0.2850
41.5800 -27.6885 -0.2834
41.6000 -27.7018 -0.2860
41.6200 -27.7151 -0.2835
41.6400 -27.7285 -0.2844
41.6600 -27.7419 -0.2841
41.6800 -27.7552 -0.2816
41.7000 -27.7685 -0.2814
41.7200 -27.7819 -0.2797
41.7400 -27.7953 -0.2765
41.7600 -27.8086 -0.2782
41.7800 -27.8219 -0.2767
41.8000 -27.8353 -0.2761
41.8200 -27.8486 -0.2765
41.8400 -27.8620 -0.2741
41.8600 -27.8753 -0.2709
41.8800 -27.8886 -0.2715
41.9000 -27.9019 -0.2718
41.9200 -27.9153 -0.2688
41.9400 -27.9286 -0.2688
41.9600 -27.9419 -0.2675
41.9800 -27.9552 -0.2671
42.0000 -27.9685 -0.2649
42.0200 -27.9819 -0.2636
42.0400 -27.9952 -0.2596
42.0600 -28.0085 -0.2644
42.0800 -28.0219 -0.2609
42.1000 -28.0352 -0.2588
42.1200 -28.0486 -0.2577
42.1400 -28.0619 -0.2567
42.1600 -28.0752 -0.2537
42.1800 -28.0886 -0.2550
42.2000 -28.1020 -0.2536
42.2200 -28.1153 -0.2526
42.2400 -28.1286 -0.2526
42.2600 -28.1419 -0.2507
42.2800 -28.1553 -0.2474
42.3000 -28.1686 -0.2497
42.3200 -28.1819 -0.2468
42.3400 -28.1952 -0.2448
42.3600 -28.2085 -0.2439
42.3800 -28.2219 -0.2442
42.4000 -28.2352 -0.2430
42.4200 -28.2485 -0.2437
42.4400 -28.2619 -0.2422
42.4600 -28.2752 -0.2385
42.4800 -28.2886 -0.2383
42.5000 -28.3019 -0.2359
42.5200 -28.3152 -0.2370
42.5400 -28.3286 -0.2362
42.5600 -28.3420 -0.2372
42.5800 -28.3553 -0.2325
42.6000 -28.3686 -0.2345
42.6200 -28.3819 -0.2306
42.6400 -28.3953 -0.2308
42.6600 -28.4086 -0.2295
42.6800 -28.4219 -0.2310
42.7000 -28.4352 -0.2263
42.7200 -28.4485 -0.2279
42.7400 -28.4619 -0.2279
42.7600 -28.4752 -0.2255
42.7800 -28.4885 -0.2264
42.8000 -28.5019 -0.2234
42.8200 -28.5152 -0.2236
42.8400 -28.5286 -0.2225
42.8600 -28.5419 -0.2220
42.8800 -28.5553 -0.2198
42.9000 -28.5686 -0.2199
42.9200 -28.5820 -0.2192
42.9400 -28.5953 -0.2186
42.9600 -28.6086 -0.2185
42.9800 -28.6218 -0.2167
43.0000 -28.6352 -0.2144
43.0200 -28.6485 -0.2149
43.0400 -28.6618 -0.2144
43.0600 -28.6751 -0.2100
43.0800 -28.6885 -0.2137
43.1000 -28.7019 -0.2086
43.1200 -28.7152 -0.2079
43.1400 -28.7286 -0.2072
43.1600 -28.7419 -0.2072
43.1800 -28.7553 -0.2049
43.2000 -28.7686 -0.2041
43.2200 -28.7819 -0.2019
43.2400 -28.7952 -0.2005
43.2600 -28.8086 -0.2014
43.2800 -28.8220 -0.2013
43.3000 -28.8353 -0.1978
43.3200 -28.8486 -0.1976
43.3400 -28.8619 -0.1991
43.3600 -28.8753 -0.1956
43.3800 -28.8886 -0.1972
43.4000 -28.9019 -0.1947
43.4200 -28.9152 -0.1932
43.4400 -28.9285 -0.1926
43.4600 -28.9419 -0.1930
43.4800 -28.9552 -0.1888
43.5000 -28.9685 -0.1898
43.5200 -28.9819 -0.1876
43.5400 -28.9953 -0.1876
43.5600 -29.0086 -0.1866
43.5800 -29.0219 -0.1876
43.6000 -29.0352 -0.1829
43.6200 -29.0486 -0.1854
43.6400 -29.0620 -0.1840
43.6600 -29.0753 -0.1831
43.6800 -29.0886 -0.1808
43.7000 -29.1019 -0.1811
43.7200 -29.1152 -0.1778
43.7400 -29.1286 -0.1782
43.7600 -29.1419 -0.1806
43.7800 -29.1552 -0.1771
43.8000 -29.1685 -0.1774
43.8200 -29.1819 -0.1773
43.8400 -29.1952 -0.1752
43.8600 -29.2086 -0.1764
43.8800 -29.2219 -0.1765
43.9000 -29.2353 -0.1721
43.9200 -29.2486 -0.1746
43.9400 -29.2619 -0.1742
43.9600 -29.2752 -0.1740
43.9800 -29.2886 -0.1728
44.0000 -29.3019 -0.1718
44.0200 -29.3153 -0.1697
44.0400 -29.3286 -0.1717
44.0600 -29.3419 -0.1729
44.0800 -29.3552 -0.1714
44.1000 -29.3686 -0.1697
44.1200 -29.3819 -0.1727
44.1400 -29.3952 -0.1690
44.1600 -29.4085 -0.1723
44.1800 -29.4219 -0.1698
44.2000 -29.4352 -0.1670
44.2200 -29.4486 -0.1696
44.2400 -29.4619 -0.1672
44.2600 -29.4753 -0.1669
44.2800 -29.4886 -0.1669
44.3000 -29.5019 -0.1663
44.3200 -29.5152 -0.1659
44.3400 -29.5285 -0.1660
44.3600 -29.5419 -0.1659
44.3800 -29.5553 -0.1622
44.4000 -29.5686 -0.1655
44.4200 -29.5819 -0.1631
44.4400 -29.5953 -0.1624
44.4600 -29.6086 -0.1587
44.4800 -29.6219 -0.1619
44.5000 -29.6351 -0.1594
44.5200 -29.6485 -0.1612
44.5400 -29.6619 -0.1606
44.5600 -29.6752 -0.1563
44.5800 -29.6885 -0.1558
44.6000 -29.7019 -0.1571
44.6200 -29.7153 -0.1539
44.6400 -29.7286 -0.1497
44.6600 -29.7420 -0.1522
44.6800 -29.7553 -0.1464
44.7000 -29.7686 -0.1516
44.7200 -29.7820 -0.1446
44.7400 -29.7953 -0.1443
44.7600 -29.8086 -0.1433
44.7800 -29.8219 -0.1434
44.8000 -29.8352 -0.1402
44.8200 -29.8486 -0.1402
44.8400 -29.8619 -0.1408
44.8600 -29.8752 -0.1386
44.8800 -29.8885 -0.1378
44.9000 -29.9018 -0.1363
44.9200 -29.9152 -0.1339
44.9400 -29.9285 -0.1309
44.9600 -29.9419 -0.1333
44.9800 -29.9553 -0.1291
45.0000 -29.9686 -0.1291
45.0200 -29.9820 -0.1304
45.0400 -29.9953 -0.1283
45.0600 -30.0086 -0.1269
45.0800 -30.0219 -0.1261
45.1000 -30.0353 -0.1232
45.1200 -30.0486 -0.1222
45.1400 -30.0619 -0.1234
45.1600 -30.0752 -0.1194
45.1800 -30.0886 -0.1197
45.2000 -30.1019 -0.1190
45.2200 -30.1152 -0.1183
45.2400 -30.1285 -0.1175
45.2600 -30.1419 -0.1173
45.2800 -30.1553 -0.1136
45.3000 -30.1686 -0.1140
45.3200 -30.1819 -0.1144
45.3400 -30.1952 -0.1140
45.3600 -30.2086 -0.1125
45.3800 -30.2219 -0.1125
45.4000 -30.2352 -0.1117
45.4200 -30.2485 -0.1131
45.4400 -30.2619 -0.1143
45.4600 -30.2753 -0.1115
45.4800 -30.2886 -0.1120
45.5000 -30.3019 -0.1121
45.5200 -30.3152 -0.1082
45.5400 -30.3286 -0.1087
45.5600 -30.3419 -0.1078
45.5800 -30.3552 -0.1073
45.6000 -30.3685 -0.1073
45.6200 -30.3819 -0.1071
45.6400 -30.3952 -0.1048
45.6600 -30.4085 -0.1032
45.6800 -30.4219 -0.1043
45.7000 -30.4352 -0.1010
45.7200 -30.4486 -0.1000
45.7400 -30.4620 -0.1018
45.7600 -30.4753 -0.1015
45.7800 -30.4886 -0.1001
45.8000 -30.5020 -0.1008
45.8200 -30.5153 -0.0982
45.8400 -30.5286 -0.0970
45.8600 -30.5419 -0.0976
45.8800 -30.5552 -0.0962
45.9000 -30.5686 -0.0946
45.9200 -30.5819 -0.0976
45.9400 -30.5951 -0.0943
45.9600 -30.6085 -0.0946
45.9800 -30.6218 -0.0940
46.0000 -30.6352 -0.0914
46.0200 -30.6485 -0.0905
46.0400 -30.6619 -0.0917
46.0600 -30.6752 -0.0884
46.0800 -30.6886 -0.0865
46.1000 -30.7019 -0.0860
46.1200 -30.7152 -0.0870
46.1400 -30.7286 -0.0859
46.1600 -30.7419 -0.0863
46.1800 -30.7553 -0.0836
46.2000 -30.7686 -0.0804
46.2200 -30.7819 -0.0824
46.2400 -30.7952 -0.0778
46.2600 -30.8086 -0.0767
46.2800 -30.8219 -0.0776
46.3000 -30.8352 -0.0756
46.3200 -30.8485 -0.0743
46.3400 -30.8619 -0.0748
46.3600 -30.8752 -0.0715
46.3800 -30.8885 -0.0716
46.4000 -30.9019 -0.0703
46.4200 -30.9152 -0.0691
46.4400 -30.9286 -0.0681
46.4600 -30.9419 -0.0681
46.4800 -30.9553 -0.0669
46.5000 -30.9686 -0.0655
46.5200 -30.9819 -0.0638
46.5400 -30.9953 -0.0619
46.5600 -31.0086 -0.0606
46.5800 -31.0219 -0.0614
46.6000 -31.0353 -0.0600
46.6200 -31.0486 -0.0586
46.6400 -31.0619 -0.0595
46.6600 -31.0752 -0.0584
46.6800 -31.0885 -0.0526
46.7000 -31.1019 -0.0551
46.7200 -31.1152 -0.0529
46.7400 -31.1286 -0.0526
46.7600 -31.1419 -0.0531
46.7800 -31.1552 -0.0489
46.8000 -31.1686 -0.0491
46.8200 -31.1820 -0.0503
46.8400 -31.1953 -0.0495
46.8600 -31.2086 -0.0483
46.8800 -31.2219 -0.0475
46.9000 -31.2353 -0.0454
46.9200 -31.2486 -0.0438
46.9400 -31.2619 -0.0429
46.9600 -31.2752 -0.0411
46.9800 -31.2886 -0.0401
47.0000 -31.3019 -0.0411
47.0200 -31.3152 -0.0411
47.0400 -31.3285 -0.0394
47.0600 -31.3419 -0.0395
47.0800 -31.3553 -0.0369
47.1000 -31.3686 -0.0338
47.1200 -31.3819 -0.0367
47.1400 -31.3952 -0.0348
47.1600 -31.4086 -0.0340
47.1800 -31.4220 -0.0311
47.2000 -31.4353 -0.0326
47.2200 -31.4486 -0.0295
47.2400 -31.4619 -0.0307
47.2600 -31.4753 -0.0286
47.2800 -31.4886 -0.0296
47.3000 -31.5019 -0.0289
47.3200 -31.5152 -0.0286
47.3400 -31.5285 -0.0262
47.3600 -31.5419 -0.0275
47.3800 -31.5552 -0.0248
47.4000 -31.5685 -0.0230
47.4200 -31.5819 -0.0228
47.4400 -31.5952 -0.0228
47.4600 -31.6086 -0.0203
47.4800 -31.6219 -0.0233
47.5000 -31.6352 -0.0242
47.5200 -31.6486 -0.0214
47.5400 -31.6619 -0.0209
47.5600 -31.6753 -0.0186
47.5800 -31.6886 -0.0163
47.6000 -31.7019 -0.0188
47.6200 -31.7153 -0.0164
47.6400 -31.7286 -0.0134
47.6600 -31.7419 -0.0154
47.6800 -31.7553 -0.0117
47.7000 -31.7686 -0.0102
47.7200 -31.7819 -0.0099
47.7400 -31.7952 -0.0112
47.7600 -31.8085 -0.0071
47.7800 -31.8218 -0.0090
47.8000 -31.8352 -0.0051
47.8200 -31.8485 -0.0067
47.8400 -31.8618 -0.0061
47.8600 -31.8752 -0.0049
47.8800 -31.8886 0.0005
47.9000 -31.9020 -0.0025
47.9200 -31.9153 0.0007
47.9400 -31.9286 0.0007
47.9600 -31.9419 0.0015
47.9800 -31.9553 0.0031
48.0000 -31.9687 0.0064
48.0200 -31.9819 0.0027
48.0400 -31.9952 0.0075
48.0600 -32.0086 0.0076
48.0800 -32.0219 0.0086
48.1000 -32.0352 0.0107
48.1200 -32.0485 0.0149
48.1400 -32.0619 0.0105
48.1600 -32.0752 0.0138
48.1800 -32.0886 0.0153
48.2000 -32.1019 0.0159
48.2200 -32.1152 0.0182
48.2400 -32.1286 0.0208
48.2600 -32.1420 0.0199
48.2800 -32.1553 0.0216
48.3000 -32.1686 0.0226
48.3200 -32.1819 0.0226
48.3400 -32.1953 0.0252
48.3600 -32.2086 0.0260
48.3800 -32.2219 0.0247
48.4000 -32.2352 0.0261
48.4200 -32.2486 0.0282
48.4400 -32.2619 0.0265
48.4600 -32.2752 0.0303
48.4800 -32.2885 0.0316
48.5000 -32.3018 0.0301
48.5200 -32.3152 0.0312
48.5400 -32.3286 0.0319
48.5600 -32.3419 0.0320
48.5800 -32.3552 0.0333
48.6000 -32.3686 0.0335
48.6200 -32.3819 0.0326
48.6400 -32.3953 0.0329
48.6600 -32.4086 0.0345
48.6800 -32.4219 0.0343
48.7000 -32.4353 0.0351
48.7200 -32.4486 0.0345
48.7400 -32.4619 0.0365
48.7600 -32.4752 0.0370
48.7800 -32.4886 0.0384
48.8000 -32.5019 0.0371
48.8200 -32.5152 0.0371
48.8400 -32.5285 0.0357
48.8600 -32.5418 0.0385
48.8800 -32.5552 0.0359
48.9000 -32.5686 0.0382
48.9200 -32.5819 0.0358
48.9400 -32.5952 0.0400
48.9600 -32.6086 0.0411
48.9800 -32.6220 0.0415
49.0000 -32.6353 0.0420
49.0200 -32.6486 0.0442
49.0400 -32.6620 0.0440
49.0600 -32.6753 0.0453
49.0800 -32.6886 0.0452
49.1000 -32.7019 0.0466
49.1200 -32.7152 0.0465
49.1400 -32.7286 0.0493
49.1600 -32.7419 0.0496
49.1800 -32.7552 0.0507
49.2000 -32.7685 0.0536
49.2200 -32.7819 0.0518
49.2400 -32.7952 0.0517
49.2600 -32.8086 0.0548
49.2800 -32.8219 0.0553
49.3000 -32.8352 0.0580
49.3200 -32.8486 0.0576
49.3400 -32.8619 0.0579
49.3600 -32.8753 0.0588
49.3800 -32.8886 0.0626
49.4000 -32.9019 0.0615
49.4200 -32.9153 0.0627
49.4400 -32.9286 0.0635
49.4600 -32.9419 0.0649
49.4800 -32.9553 0.0653
49.5000 -32.9686 0.0668
49.5200 -32.9820 0.0665
49.5400 -32.9952 0.0676
49.5600 -33.0085 0.0707
49.5800 -33.0218 0.0707
49.6000 -33.0352 0.0715
49.6200 -33.0486 0.0733
49.6400 -33.0619 0.0741
49.6600 -33.0752 0.0729
49.6800 -33.0885 0.0743
49.7000 -33.1019 0.0719
49.7200 -33.1152 0.0736
49.7400 -33.1285 0.0739
49.7600 -33.1419 0.0759
49.7800 -33.1553 0.0759
49.8000 -33.1686 0.0802
49.8200 -33.1819 0.0773
49.8400 -33.1952 0.0784
49.8600 -33.2086 0.0789
49.8800 -33.2219 0.0814
49.9000 -33.2352 0.0797
49.9200 -33.2485 0.0829
49.9400 -33.2618 0.0828
49.9600 -33.2752 0.0834
49.9800 -33.2886 0.0861
50.0000 -33.3019 0.0852
50.0200 -33.3152 0.0853
50.0400 -33.3285 0.0872
50.0600 -33.3419 0.0875
50.0800 -33.3553 0.0873
50.1000 -33.3686 0.0913
50.1200 -33.3819 0.0909
50.1400 -33.3953 0.0935
50.1600 -33.4086 0.0936
50.1800 -33.4219 0.0971
50.2000 -33.4352 0.0980
50.2200 -33.4485 0.1025
50.2400 -33.4618 0.1011
50.2600 -33.4752 0.1011
50.2800 -33.4885 0.1021
50.3000 -33.5018 0.1048
50.3200 -33.5152 0.1071
50.3400 -33.5286 0.1082
50.3600 -33.5419 0.1072
50.3800 -33.5552 0.1066
50.4000 -33.5686 0.1108
50.4200 -33.5820 0.1106
50.4400 -33.5953 0.1134
50.4600 -33.6086 0.1136
50.4800 -33.6219 0.1146
50.5000 -33.6353 0.1143
50.5200 -33.6487 0.1202
50.5400 -33.6620 0.1206
50.5600 -33.6753 0.1214
50.5800 -33.6886 0.1205
50.6000 -33.7019 0.1220
50.6200 -33.7153 0.1218
50.6400 -33.7285 0.1229
50.6600 -33.7419 0.1239
50.6800 -33.7552 0.1247
50.7000 -33.7686 0.1244
50.7200 -33.7819 0.1258
50.7400 -33.7952 0.1257
50.7600 -33.8086 0.1280
50.7800 -33.8219 0.1269
50.8000 -33.8353 0.1267
50.8200 -33.8486 0.1286
50.8400 -33.8619 0.1307
50.8600 -33.8753 0.1298
50.8800 -33.8886 0.1321
50.9000 -33.9019 0.1313
50.9200 -33.9152 0.1315
50.9400 -33.9285 0.1313
50.9600 -33.9419 0.1319
50.9800 -33.9552 0.1311
51.0000 -33.9685 0.1328
51.0200 -33.9818 0.1346
51.0400 -33.9951 0.1341
51.0600 -34.0085 0.1337
51.0800 -34.0219 0.1338
51.1000 -34.0352 0.1322
51.1200 -34.0486 0.1350
51.1400 -34.0619 0.1338
51.1600 -34.0753 0.1358
51.1800 -34.0886 0.1358
51.2000 -34.1019 0.1359
51.2200 -34.1152 0.1368
51.2400 -34.1286 0.1358
51.2600 -34.1419 0.1364
51.2800 -34.1552 0.1367
51.3000 -34.1685 0.1380
51.3200 -34.1819 0.1377
51.3400 -34.1952 0.1380
51.3600 -34.2085 0.1382
51.3800 -34.2218 0.1410
51.4000 -34.2352 0.1418
51.4200 -34.2486 0.1434
51.4400 -34.2619 0.1426
51.4600 -34.2752 0.1451
51.4800 -34.2886 0.1447
51.5000 -34.3020 0.1463
51.5200 -34.3153 0.1448
51.5400 -34.3286 0.1475
51.5600 -34.3419 0.1492
51.5800 -34.3553 0.1496
51.6000 -34.3686 0.1501
51.6200 -34.3820 0.1509
51.6400 -34.3953 0.1504
51.6600 -34.4086 0.1547
51.6800 -34.4219 0.1532
51.7000 -34.4352 0.1569
51.7200 -34.4485 0.1568
51.7400 -34.4618 0.1597
51.7600 -34.4752 0.1615
51.7800 -34.4886 0.1625
51.8000 -34.5019 0.1634
51.8200 -34.5152 0.1652
51.8400 -34.5286 0.1662
51.8600 -34.5420 0.1698
51.8800 -34.5553 0.1674
51.9000 -34.5686 0.1718
51.9200 -34.5819 0.1714
51.9400 -34.5953 0.1743
51.9600 -34.6086 0.1747
51.9800 -34.6219 0.1770
52.0000 -34.6352 0.1780
52.0200 -34.6486 0.1808
52.0400 -34.6619 0.1802
52.0600 -34.6752 0.1816
52.0800 -34.6885 0.1803
52.1000 -34.7018 0.1845
52.1200 -34.7152 0.1836
52.1400 -34.7285 0.1859
52.1600 -34.7419 0.1868
52.1800 -34.7552 0.1898
52.2000 -34.7685 0.1901
52.2200 -34.7819 0.1920
52.2400 -34.7953 0.1930
52.2600 -34.8086 0.1921
52.2800 -34.8219 0.1937
52.3000 -34.8353 0.1944
52.3200 -34.8486 0.1965
52.3400 -34.8619 0.1991
52.3600 -34.8752 0.2012
52.3800 -34.8885 0.1997
52.4000 -34.9019 0.2044
52.4200 -34.9152 0.2038
52.4400 -34.9285 0.2047
52.4600 -34.9418 0.2034
52.4800 -34.9552 0.2059
52.5000 -34.9686 0.2072
52.5200 -34.9819 0.2106
52.5400 -34.9952 0.2096
52.5600 -35.0086 0.2127
52.5800 -35.0219 0.2124
52.6000 -35.0353 0.2147
52.6200 -35.0486 0.2135
52.6400 -35.0618 0.2175
52.6600 -35.0752 0.2138
52.6800 -35.0886 0.2159
52.7000 -35.1019 0.2144
52.7200 -35.1152 0.2172
52.7400 -35.1286 0.2190
52.7600 -35.1419 0.2215
52.7800 -35.1553 0.2201
52.8000 -35.1686 0.2226
52.8200 -35.1819 0.2215
52.8400 -35.1952 0.2254
52.8600 -35.2086 0.2248
52.8800 -35.2219 0.2279
52.9000 -35.2352 0.2241
52.9200 -35.2486 0.2250
52.9400 -35.2619 0.2264
52.9600 -35.2753 0.2314
52.9800 -35.2886 0.2323
53.0000 -35.3019 0.2317
53.0200 -35.3153 0.2306
53.0400 -35.3286 0.2306
53.0600 -35.3420 0.2320
53.0800 -35.3553 0.2328
53.1000 -35.3686 0.2341
53.1200 -35.3819 0.2372
53.1400 -35.3952 0.2372
53.1600 -35.4085 0.2355
53.1800 -35.4218 0.2381
53.2000 -35.4352 0.2382
53.2200 -35.4485 0.2391
53.2400 -35.4619 0.2411
53.2600 -35.4752 0.2410
53.2800 -35.4885 0.2427
53.3000 -35.5019 0.2431
53.3200 -35.5153 0.2444
53.3400 -35.5286 0.2442
53.3600 -35.5419 0.2432
53.3800 -35.5553 0.2458
53.4000 -35.5686 0.2441
53.4200 -35.5819 0.2472
53.4400 -35.5952 0.2456
53.4600 -35.6085 0.2490
53.4800 -35.6219 0.2478
53.5000 -35.6353 0.2494
53.5200 -35.6485 0.2479
53.5400 -35.6618 0.2497
53.5600 -35.6752 0.2509
53.5800 -35.6885 0.2530
53.6000 -35.7019 0.2529
53.6200 -35.7152 0.2534
53.6400 -35.7285 0.2532
53.6600 -35.7419 0.2539
53.6800 -35.7553 0.2545
53.7000 -35.7686 0.2557
53.7200 -35.7819 0.2576
53.7400 -35.7952 0.2591
53.7600 -35.8086 0.2603
53.7800 -35.8219 0.2609
53.8000 -35.8353 0.2618
53.8200 -35.8486 0.2627
53.8400 -35.8619 0.2641
53.8600 -35.8753 0.2667
53.8800 -35.8886 0.2677
53.9000 -35.9018 0.2686
53.9200 -35.9152 0.2703
53.9400 -35.9286 0.2698
53.9600 -35.9419 0.2710
53.9800 -35.9552 0.2729
54.0000 -35.9685 0.2734
54.0200 -35.9819 0.2757
54.0400 -35.9953 0.2759
54.0600 -36.0086 0.2769
54.0800 -36.0219 0.2781
54.1000 -36.0352 0.2797
54.1200 -36.0486 0.2800
54.1400 -36.0619 0.2809
54.1600 -36.0752 0.2806
54.1800 -36.0885 0.2836
54.2000 -36.1019 0.2845
54.2200 -36.1152 0.2856
54.2400 -36.1285 0.2848
54.2600 -36.1418 0.2862
54.2800 -36.1552 0.2871
54.3000 -36.1686 0.2890
54.3200 -36.1819 0.2908
54.3400 -36.1953 0.2930
54.3600 -36.2086 0.2941
54.3800 -36.2219 0.2914
54.4000 -36.2353 0.2953
54.4200 -36.2486 0.2950
54.4400 -36.2619 0.2978
54.4600 -36.2752 0.2986
54.4800 -36.2886 0.3005
54.5000 -36.3019 0.3014
54.5200 -36.3152 0.3028
54.5400 -36.3285 0.3050
54.5600 -36.3419 0.3062
54.5800 -36.3552 0.3065
54.6000 -36.3685 0.3055
54.6200 -36.3818 0.3064
54.6400 -36.3952 0.3074
54.6600 -36.4086 0.3114
54.6800 -36.4219 0.3112
54.7000 -36.4352 0.3114
54.7200 -36.4486 0.3110
54.7400 -36.4619 0.3149
54.7600 -36.4753 0.3152
54.7800 -36.4886 0.3177
54.8000 -36.5019 0.3178
54.8200 -36.5152 0.3183
54.8400 -36.5286 0.3178
54.8600 -36.5419 0.3199
54.8800 -36.5552 0.3206
54.9000 -36.5686 0.3244
54.9200 -36.5819 0.3239
54.9400 -36.5953 0.3252
54.9600 -36.6086 0.3260
54.9800 -36.6219 0.3266
55.0000 -36.6352 0.3303
55.0200 -36.6485 0.3276
55.0400 -36.6618 0.3295
55.0600 -36.6751 0.3317
55.0800 -36.6885 0.3338
55.1000 -36.7019 0.3336
55.1200 -36.7153 0.3351
55.1400 -36.7286 0.3370
55.1600 -36.7419 0.3375
55.1800 -36.7553 0.3387
55.2000 -36.7686 0.3414
55.2200 -36.7820 0.3396
55.2400 -36.7953 0.3424
55.2600 -36.8086 0.3426
55.2800 -36.8219 0.3441
55.3000 -36.8352 0.3449
55.3200 -36.8485 0.3452
55.3400 -36.8618 0.3467
55.3600 -36.8752 0.3485
55.3800 -36.8885 0.3508
55.4000 -36.9019 0.3523
55.4200 -36.9152 0.3549
55.4400 -36.9286 0.3564
55.4600 -36.9419 0.3547
55.4800 -36.9553 0.3578
55.5000 -36.9686 0.3592
55.5200 -36.9819 0.3607
55.5400 -36.9952 0.3624
55.5600 -37.0086 0.3648
55.5800 -37.0219 0.3631
55.6000 -37.0353 0.3637
55.6200 -37.0486 0.3630
55.6400 -37.0619 0.3643
55.6600 -37.0752 0.3652
55.6800 -37.0886 0.3676
55.7000 -37.1018 0.3665
55.7200 -37.1152 0.3695
55.7400 -37.1285 0.3706
55.7600 -37.1419 0.3720
55.7800 -37.1552 0.3726
55.8000 -37.1686 0.3745
55.8200 -37.1819 0.3752
55.8400 -37.1953 0.3796
55.8600 -37.2086 0.3781
55.8800 -37.2219 0.3786
55.9000 -37.2353 0.3786
55.9200 -37.2486 0.3811
55.9400 -37.2620 0.3816
55.9600 -37.2753 0.3821
55.9800 -37.2886 0.3858
56.0000 -37.3019 0.3846
56.0200 -37.3153 0.3866
56.0400 -37.3286 0.3858
56.0600 -37.3418 0.3873
56.0800 -37.3551 0.3876
56.1000 -37.3685 0.3896
56.1200 -37.3819 0.3920
56.1400 -37.3952 0.3937
56.1600 -37.4085 0.3924
56.1800 -37.4219 0.3924
56.2000 -37.4353 0.3946
56.2200 -37.4486 0.3962
56.2400 -37.4619 0.3953
56.2600 -37.4753 0.3990
56.2800 -37.4886 0.4000
56.3000 -37.5020 0.3994
56.3200 -37.5153 0.4027
56.3400 -37.5286 0.4040
56.3600 -37.5419 0.4041
56.3800 -37.5553 0.4069
56.4000 -37.5686 0.4067
56.4200 -37.5819 0.4084
56.4400 -37.5952 0.4078
56.4600 -37.6085 0.4110
56.4800 -37.6219 0.4098
56.5000 -37.6352 0.4133
56.5200 -37.6485 0.4138
56.5400 -37.6619 0.4161
56.5600 -37.6752 0.4182
56.5800 -37.6886 0.4210
56.6000 -37.7019 0.4181
56.6200 -37.7152 0.4202
56.6400 -37.7286 0.4210
56.6600 -37.7419 0.4221
56.6800 -37.7553 0.4256
56.7000 -37.7686 0.4276
56.7200 -37.7819 0.4271
56.7400 -37.7953 0.4290
56.7600 -37.8086 0.4312
56.7800 -37.8219 0.4302
56.8000 -37.8352 0.4325
56.8200 -37.8485 0.4314
56.8400 -37.8619 0.4336
56.8600 -37.8752 0.4383
56.8800 -37.8885 0.4392
56.9000 -37.9019 0.4392
56.9200 -37.9152 0.4396
56.9400 -37.9286 0.4396
56.9600 -37.9419 0.4409
56.9800 -37.9552 0.4431
57.0000 -37.9686 0.4447
57.0200 -37.9820 0.4439
57.0400 -37.9953 0.4453
57.0600 -38.0086 0.4463
57.0800 -38.0219 0.4473
57.1000 -38.0353 0.4498
57.1200 -38.0486 0.4509
57.1400 -38.0619 0.4507
57.1600 -38.0752 0.4527
57.1800 -38.0885 0.4524
57.2000 -38.1019 0.4534
57.2200 -38.1152 0.4541
57.2400 -38.1285 0.4555
57.2600 -38.1419 0.4540
57.2800 -38.1552 0.4578
57.3000 -38.1686 0.4576
57.3200 -38.1820 0.4565
57.3400 -38.1953 0.4581
57.3600 -38.2086 0.4613
57.3800 -38.2220 0.4592
57.4000 -38.2353 0.4637
57.4200 -38.2486 0.4632
57.4400 -38.2619 0.4638
57.4600 -38.2752 0.4651
57.4800 -38.2885 0.4681
57.5000 -38.3018 0.4676
57.5200 -38.3151 0.4731
57.5400 -38.3285 0.4721
57.5600 -38.3419 0.4744
57.5800 -38.3552 0.4762
57.6000 -38.3686 0.4781
57.6200 -38.3819 0.4793
57.6400 -38.3953 0.4817
57.6600 -38.4086 0.4832
57.6800 -38.4219 0.4813
57.7000 -38.4352 0.4860
57.7200 -38.4486 0.4849
57.7400 -38.4619 0.4862
57.7600 -38.4753 0.4885
57.7800 -38.4886 0.4912
57.8000 -38.5019 0.4901
57.8200 -38.5152 0.4936
57.8400 -38.5286 0.4944
57.8600 -38.5419 0.4937
57.8800 -38.5552 0.4943
57.9000 -38.5685 0.4960
57.9200 -38.5819 0.4968
57.9400 -38.5952 0.5003
57.9600 -38.6085 0.5003
57.9800 -38.6219 0.5003
58.0000 -38.6352 0.5024
58.0200 -38.6486 0.5048
58.0400 -38.6619 0.5054
58.0600 -38.6752 0.5066
58.0800 -38.6886 0.5089
58.1000 -38.7019 0.5099
58.1200 -38.7153 0.5119
58.1400 -38.7286 0.5136
58.1600 -38.7419 0.5140
58.1800 -38.7552 0.5166
58.2000 -38.7686 0.5183
58.2200 -38.7819 0.5173
58.2400 -38.7952 0.5179
58.2600 -38.8085 0.5204
58.2800 -38.8219 0.5204
58.3000 -38.8352 0.5253
58.3200 -38.8486 0.5236
58.3400 -38.8619 0.5250
58.3600 -38.8753 0.5262
58.3800 -38.8886 0.5292
58.4000 -38.9020 0.5285
58.4200 -38.9152 0.5315
58.4400 -38.9286 0.5312
58.4600 -38.9419 0.5319
58.4800 -38.9553 0.5336
58.5000 -38.9686 0.5351
58.5200 -38.9819 0.5353
58.5400 -38.9952 0.5367
58.5600 -39.0086 0.5384
58.5800 -39.0219 0.5375
58.6000 -39.0352 0.5406
58.6200 -39.0485 0.5433
58.6400 -39.0619 0.5433
58.6600 -39.0753 0.5447
58.6800 -39.0886 0.5463
58.7000 -39.1019 0.5461
58.7200 -39.1153 0.5494
58.7400 -39.1286 0.5509
58.7600 -39.1419 0.5500
58.7800 -39.1552 0.5517
58.8000 -39.1686 0.5525
58.8200 -39.1819 0.5538
58.8400 -39.1953 0.5562
58.8600 -39.2086 0.5573
58.8800 -39.2219 0.5601
58.9000 -39.2352 0.5594
58.9200 -39.2486 0.5615
58.9400 -39.2618 0.5623
58.9600 -39.2751 0.5624
58.9800 -39.2885 0.5659
59.0000 -39.3018 0.5649
59.0200 -39.3152 0.5669
59.0400 -39.3285 0.5693
59.0600 -39.3419 0.5687
59.0800 -39.3552 0.5695
59.1000 -39.3686 0.5726
59.1200 -39.3820 0.5718
59.1400 -39.3953 0.5734
59.1600 -39.4086 0.5746
59.1800 -39.4220 0.5749
59.2000 -39.4353 0.5779
59.2200 -39.4486 0.5778
59.2400 -39.4619 0.5790
59.2600 -39.4752 0.5805
59.2800 -39.4886 0.5831
59.3000 -39.5019 0.5848
59.3200 -39.5151 0.5872
59.3400 -39.5285 0.5861
59.3600 -39.5418 0.5879
59.3800 -39.5552 0.5886
59.4000 -39.5685 0.5906
59.4200 -39.5819 0.5909
59.4400 -39.5952 0.5914
59.4600 -39.6086 0.5989
59.4800 -39.6220 0.5971
59.5000 -39.6353 0.5999
59.5200 -39.6486 0.6017
59.5400 -39.6619 0.6029
59.5600 -39.6753 0.6062
59.5800 -39.6886 0.6109
59.6000 -39.7019 0.6091
59.6200 -39.7152 0.6111
59.6400 -39.7286 0.6131
59.6600 -39.7419 0.6148
59.6800 -39.7552 0.6157
59.7000 -39.7685 0.6176
59.7200 -39.7819 0.6192
59.7400 -39.7953 0.6204
59.7600 -39.8086 0.6225
59.7800 -39.8219 0.6230
59.8000 -39.8353 0.6242
59.8200 -39.8486 0.6288
59.8400 -39.8619 0.6291
59.8600 -39.8752 0.6306
59.8800 -39.8885 0.6319
59.9000 -39.9019 0.6323
59.9200 -39.9153 0.6329
59.9400 -39.9286 0.6350
59.9600 -39.9419 0.6342
59.9800 -39.9552 0.6353
60.0000 -39.9686 0.6391
60.0200 -39.9819 0.6395
60.0400 -39.9952 0.6411
60.0480 -40.0004 0.6453
