Raw Data
Time Displacement Force
(s) (mm) (N)
0.0000 0.0000 -0.3885
0.0200 -0.0001 -0.3934
0.0400 -0.0020 -0.4049
0.0600 -0.0094 -0.4043
0.0800 -0.0210 -0.3932
0.1000 -0.0334 -0.3957
0.1200 -0.0461 -0.3930
0.1400 -0.0596 -0.3945
0.1600 -0.0737 -0.3902
0.1800 -0.0879 -0.3918
0.2000 -0.1018 -0.3919
0.2200 -0.1154 -0.3904
0.2400 -0.1288 -0.3918
0.2600 -0.1422 -0.3903
0.2800 -0.1554 -0.3882
0.3000 -0.1687 -0.3881
0.3200 -0.1821 -0.3898
0.3400 -0.1955 -0.3858
0.3600 -0.2088 -0.3873
0.3800 -0.2221 -0.3867
0.4000 -0.2354 -0.3848
0.4200 -0.2488 -0.3834
0.4400 -0.2622 -0.3849
0.4600 -0.2755 -0.3822
0.4800 -0.2888 -0.3844
0.5000 -0.3022 -0.3814
0.5200 -0.3156 -0.3773
0.5400 -0.3289 -0.3799
0.5600 -0.3422 -0.3797
0.5800 -0.3555 -0.3782
0.6000 -0.3689 -0.3762
0.6200 -0.3822 -0.3769
0.6400 -0.3955 -0.3747
0.6600 -0.4088 -0.3751
0.6800 -0.4222 -0.3732
0.7000 -0.4355 -0.3730
0.7200 -0.4488 -0.3725
0.7400 -0.4621 -0.3721
0.7600 -0.4755 -0.3704
0.7800 -0.4888 -0.3721
0.8000 -0.5022 -0.3711
0.8200 -0.5155 -0.3685
0.8400 -0.5289 -0.3695
0.8600 -0.5422 -0.3694
0.8800 -0.5556 -0.3682
0.9000 -0.5689 -0.3675
0.9200 -0.5822 -0.3661
0.9400 -0.5955 -0.3642
0.9600 -0.6089 -0.3639
0.9800 -0.6223 -0.3649
1.0000 -0.6356 -0.3621
1.0200 -0.6488 -0.3628
1.0400 -0.6622 -0.3618
1.0600 -0.6755 -0.3603
1.0800 -0.6888 -0.3591
1.1000 -0.7021 -0.3609
1.1200 -0.7154 -0.3581
1.1400 -0.7288 -0.3587
1.1600 -0.7421 -0.3592
1.1800 -0.7555 -0.3541
1.2000 -0.7688 -0.3587
1.2200 -0.7822 -0.3570
1.2400 -0.7956 -0.3568
1.2600 -0.8089 -0.3537
1.2800 -0.8222 -0.3555
1.3000 -0.8355 -0.3515
1.3200 -0.8489 -0.3538
1.3400 -0.8623 -0.3515
1.3600 -0.8756 -0.3497
1.3800 -0.8888 -0.3492
1.4000 -0.9022 -0.3497
1.4200 -0.9155 -0.3477
1.4400 -0.9288 -0.3479
1.4600 -0.9421 -0.3488
1.4800 -0.9554 -0.3467
1.5000 -0.9688 -0.3442
1.5200 -0.9821 -0.3447
1.5400 -0.9955 -0.3425
1.5600 -1.0088 -0.3423
1.5800 -1.0222 -0.3429
1.6000 -1.0355 -0.3403
1.6200 -1.0489 -0.3412
1.6400 -1.0622 -0.3421
1.6600 -1.0755 -0.3381
1.6800 -1.0889 -0.3412
1.7000 -1.1022 -0.3376
1.7200 -1.1155 -0.3380
1.7400 -1.1288 -0.3345
1.7600 -1.1422 -0.3365
1.7800 -1.1555 -0.3342
1.8000 -1.1688 -0.3352
1.8200 -1.1821 -0.3355
1.8400 -1.1954 -0.3333
1.8600 -1.2088 -0.3343
1.8800 -1.2222 -0.3342
1.9000 -1.2355 -0.3308
1.9200 -1.2488 -0.3291
1.9400 -1.2622 -0.3317
1.9600 -1.2756 -0.3271
1.9800 -1.2889 -0.3280
2.0000 -1.3021 -0.3274
2.0200 -1.3154 -0.3262
2.0400 -1.3288 -0.3254
2.0600 -1.3422 -0.3288
2.0800 -1.3555 -0.3230
2.1000 -1.3688 -0.3232
2.1200 -1.3822 -0.3226
2.1400 -1.3955 -0.3210
2.1600 -1.4089 -0.3190
2.1800 -1.4222 -0.3218
2.2000 -1.4355 -0.3199
2.2200 -1.4488 -0.3227
2.2400 -1.4622 -0.3212
2.2600 -1.4755 -0.3218
2.2800 -1.4888 -0.3189
2.3000 -1.5022 -0.3201
2.3200 -1.5156 -0.3161
2.3400 -1.5289 -0.3165
2.3600 -1.5422 -0.3175
2.3800 -1.5555 -0.3152
2.4000 -1.5689 -0.3149
2.4200 -1.5823 -0.3153
2.4400 -1.5956 -0.3129
2.4600 -1.6089 -0.3141
2.4800 -1.6222 -0.3147
2.5000 -1.6355 -0.3112
2.5200 -1.6488 -0.3111
2.5400 -1.6621 -0.3102
2.5600 -1.6754 -0.3081
2.5800 -1.6888 -0.3086
2.6000 -1.7021 -0.3092
2.6200 -1.7155 -0.3051
2.6400 -1.7288 -0.3072
2.6600 -1.7422 -0.3071
2.6800 -1.7555 -0.3035
2.7000 -1.7689 -0.3041
2.7200 -1.7822 -0.3038
2.7400 -1.7955 -0.3035
2.7600 -1.8089 -0.3035
2.7800 -1.8222 -0.3032
2.8000 -1.8355 -0.3016
2.8200 -1.8488 -0.3010
2.8400 -1.8622 -0.2994
2.8600 -1.8755 -0.2991
2.8800 -1.8888 -0.2971
2.9000 -1.9021 -0.2998
2.9200 -1.9154 -0.2988
2.9400 -1.9288 -0.2968
2.9600 -1.9422 -0.2979
2.9800 -1.9555 -0.2960
3.0000 -1.9688 -0.2955
3.0200 -1.9821 -0.2949
3.0400 -1.9955 -0.2932
3.0600 -2.0089 -0.2914
3.0800 -2.0222 -0.2940
3.1000 -2.0355 -0.2897
3.1200 -2.0488 -0.2913
3.1400 -2.0622 -0.2928
3.1600 -2.0756 -0.2895
3.1800 -2.0889 -0.2900
3.2000 -2.1022 -0.2900
3.2200 -2.1155 -0.2862
3.2400 -2.1289 -0.2871
3.2600 -2.1422 -0.2887
3.2800 -2.1555 -0.2875
3.3000 -2.1688 -0.2877
3.3200 -2.1822 -0.2859
3.3400 -2.1955 -0.2851
3.3600 -2.2088 -0.2830
3.3800 -2.2222 -0.2856
3.4000 -2.2355 -0.2816
3.4200 -2.2489 -0.2812
3.4400 -2.2622 -0.2819
3.4600 -2.2755 -0.2795
3.4800 -2.2888 -0.2779
3.5000 -2.3022 -0.2802
3.5200 -2.3155 -0.2786
3.5400 -2.3288 -0.2796
3.5600 -2.3421 -0.2787
3.5800 -2.3555 -0.2777
3.6000 -2.3688 -0.2745
3.6200 -2.3821 -0.2743
3.6400 -2.3954 -0.2759
3.6600 -2.4088 -0.2744
3.6800 -2.4222 -0.2775
3.7000 -2.4355 -0.2743
3.7200 -2.4488 -0.2724
3.7400 -2.4622 -0.2720
3.7600 -2.4755 -0.2731
3.7800 -2.4889 -0.2694
3.8000 -2.5022 -0.2720
3.8200 -2.5155 -0.2695
3.8400 -2.5288 -0.2717
3.8600 -2.5422 -0.2699
3.8800 -2.5556 -0.2694
3.9000 -2.5689 -0.2668
3.9200 -2.5822 -0.2699
3.9400 -2.5955 -0.2650
3.9600 -2.6088 -0.2652
3.9800 -2.6221 -0.2641
4.0000 -2.6355 -0.2654
4.0200 -2.6488 -0.2629
4.0400 -2.6622 -0.2654
4.0600 -2.6755 -0.2615
4.0800 -2.6888 -0.2608
4.1000 -2.7021 -0.2621
4.1200 -2.7155 -0.2625
4.1400 -2.7289 -0.2604
4.1600 -2.7422 -0.2608
4.1800 -2.7555 -0.2597
4.2000 -2.7688 -0.2598
4.2200 -2.7822 -0.2583
4.2400 -2.7955 -0.2564
4.2600 -2.8089 -0.2551
4.2800 -2.8222 -0.2584
4.3000 -2.8356 -0.2560
4.3200 -2.8489 -0.2553
4.3400 -2.8622 -0.2542
4.3600 -2.8755 -0.2554
4.3800 -2.8888 -0.2513
4.4000 -2.9021 -0.2542
4.4200 -2.9154 -0.2514
4.4400 -2.9287 -0.2512
4.4600 -2.9421 -0.2510
4.4800 -2.9555 -0.2526
4.5000 -2.9689 -0.2502
4.5200 -2.9822 -0.2522
4.5400 -2.9955 -0.2497
4.5600 -3.0089 -0.2481
4.5800 -3.0223 -0.2502
4.6000 -3.0356 -0.2491
4.6200 -3.0489 -0.2470
4.6400 -3.0622 -0.2491
4.6600 -3.0755 -0.2493
4.6800 -3.0888 -0.2458
4.7000 -3.1022 -0.2475
4.7200 -3.1155 -0.2435
4.7400 -3.1288 -0.2459
4.7600 -3.1422 -0.2443
4.7800 -3.1555 -0.2455
4.8000 -3.1688 -0.2424
4.8200 -3.1822 -0.2443
4.8400 -3.1955 -0.2416
4.8600 -3.2089 -0.2417
4.8800 -3.2222 -0.2413
4.9000 -3.2355 -0.2421
4.9200 -3.2488 -0.2400
4.9400 -3.2622 -0.2406
4.9600 -3.2755 -0.2395
4.9800 -3.2889 -0.2383
5.0000 -3.3022 -0.2388
5.0200 -3.3155 -0.2377
5.0400 -3.3289 -0.2358
5.0600 -3.3422 -0.2389
5.0800 -3.3554 -0.2386
5.1000 -3.3688 -0.2357
5.1200 -3.3821 -0.2367
5.1400 -3.3955 -0.2353
5.1600 -3.4088 -0.2322
5.1800 -3.4222 -0.2349
5.2000 -3.4355 -0.2332
5.2200 -3.4489 -0.2324
5.2400 -3.4622 -0.2315
5.2600 -3.4755 -0.2336
5.2800 -3.4889 -0.2287
5.3000 -3.5022 -0.2328
5.3200 -3.5156 -0.2292
5.3400 -3.5289 -0.2296
5.3600 -3.5422 -0.2285
5.3800 -3.5555 -0.2286
5.4000 -3.5688 -0.2266
5.4200 -3.5821 -0.2266
5.4400 -3.5954 -0.2258
5.4600 -3.6087 -0.2245
5.4800 -3.6221 -0.2259
5.5000 -3.6355 -0.2254
5.5200 -3.6488 -0.2255
5.5400 -3.6621 -0.2259
5.5600 -3.6755 -0.2263
5.5800 -3.6889 -0.2245
5.6000 -3.7022 -0.2253
5.6200 -3.7156 -0.2231
5.6400 -3.7289 -0.2218
5.6600 -3.7422 -0.2232
5.6800 -3.7556 -0.2229
5.7000 -3.7689 -0.2193
5.7200 -3.7822 -0.2209
5.7400 -3.7955 -0.2203
5.7600 -3.8089 -0.2192
5.7800 -3.8222 -0.2168
5.8000 -3.8355 -0.2195
5.8200 -3.8488 -0.2164
5.8400 -3.8621 -0.2192
5.8600 -3.8755 -0.2171
5.8800 -3.8888 -0.2147
5.9000 -3.9021 -0.2147
5.9200 -3.9155 -0.2169
5.9400 -3.9288 -0.2142
5.9600 -3.9422 -0.2150
5.9800 -3.9555 -0.2132
6.0000 -3.9688 -0.2141
6.0200 -3.9822 -0.2130
6.0400 -3.9956 -0.2146
6.0600 -4.0089 -0.2103
6.0800 -4.0222 -0.2121
6.1000 -4.0355 -0.2112
6.1200 -4.0489 -0.2100
6.1400 -4.0622 -0.2108
6.1600 -4.0755 -0.2096
6.1800 -4.0888 -0.2086
6.2000 -4.1021 -0.2074
6.2200 -4.1155 -0.2085
6.2400 -4.1288 -0.2066
6.2600 -4.1421 -0.2068
6.2800 -4.1555 -0.2078
6.3000 -4.1689 -0.2061
6.3200 -4.1822 -0.2047
6.3400 -4.1955 -0.2047
6.3600 -4.2088 -0.2031
6.3800 -4.2222 -0.2030
6.4000 -4.2356 -0.2027
6.4200 -4.2489 -0.2015
6.4400 -4.2622 -0.2022
6.4600 -4.2755 -0.2007
6.4800 -4.2889 -0.1996
6.5000 -4.3022 -0.1989
6.5200 -4.3155 -0.1998
6.5400 -4.3288 -0.1988
6.5600 -4.3421 -0.1991
6.5800 -4.3555 -0.1990
6.6000 -4.3688 -0.1995
6.6200 -4.3821 -0.1987
6.6400 -4.3955 -0.1986
6.6600 -4.4089 -0.1976
6.6800 -4.4223 -0.1959
6.7000 -4.4356 -0.1961
6.7200 -4.4489 -0.1926
6.7400 -4.4622 -0.1951
6.7600 -4.4756 -0.1938
6.7800 -4.4889 -0.1896
6.8000 -4.5022 -0.1909
6.8200 -4.5155 -0.1937
6.8400 -4.5288 -0.1930
6.8600 -4.5421 -0.1931
6.8800 -4.5554 -0.1929
6.9000 -4.5687 -0.1894
6.9200 -4.5821 -0.1904
6.9400 -4.5955 -0.1904
6.9600 -4.6088 -0.1918
6.9800 -4.6222 -0.1911
7.0000 -4.6355 -0.1921
7.0200 -4.6489 -0.1881
7.0400 -4.6623 -0.1890
7.0600 -4.6756 -0.1885
7.0800 -4.6889 -0.1871
7.1000 -4.7022 -0.1862
7.1200 -4.7156 -0.1877
7.1400 -4.7289 -0.1859
7.1600 -4.7422 -0.1865
7.1800 -4.7555 -0.1858
7.2000 -4.7689 -0.1842
7.2200 -4.7822 -0.1840
7.2400 -4.7955 -0.1842
7.2600 -4.8088 -0.1839
7.2800 -4.8221 -0.1849
7.3000 -4.8355 -0.1840
7.3200 -4.8488 -0.1792
7.3400 -4.8621 -0.1822
7.3600 -4.8755 -0.1809
7.3800 -4.8889 -0.1804
7.4000 -4.9022 -0.1787
7.4200 -4.9155 -0.1828
7.4400 -4.9288 -0.1806
7.4600 -4.9422 -0.1809
7.4800 -4.9556 -0.1795
7.5000 -4.9689 -0.1768
7.5200 -4.9822 -0.1749
7.5400 -4.9955 -0.1766
7.5600 -5.0088 -0.1768
7.5800 -5.0222 -0.1772
7.6000 -5.0355 -0.1765
7.6200 -5.0488 -0.1761
7.6400 -5.0621 -0.1739
7.6600 -5.0755 -0.1762
7.6800 -5.0889 -0.1721
7.7000 -5.1022 -0.1738
7.7200 -5.1155 -0.1733
7.7400 -5.1289 -0.1719
7.7600 -5.1422 -0.1702
7.7800 -5.1555 -0.1739
7.8000 -5.1688 -0.1705
7.8200 -5.1822 -0.1711
7.8400 -5.1955 -0.1707
7.8600 -5.2088 -0.1695
7.8800 -5.2221 -0.1685
7.9000 -5.2355 -0.1693
7.9200 -5.2488 -0.1670
7.9400 -5.2621 -0.1682
7.9600 -5.2754 -0.1698
7.9800 -5.2888 -0.1663
8.0000 -5.3021 -0.1675
8.0200 -5.3155 -0.1671
8.0400 -5.3289 -0.1643
8.0600 -5.3422 -0.1654
8.0800 -5.3555 -0.1650
8.1000 -5.3689 -0.1616
8.1200 -5.3822 -0.1626
8.1400 -5.3955 -0.1631
8.1600 -5.4088 -0.1629
8.1800 -5.4222 -0.1618
8.2000 -5.4356 -0.1644
8.2200 -5.4489 -0.1599
8.2400 -5.4622 -0.1617
8.2600 -5.4755 -0.1603
8.2800 -5.4888 -0.1605
8.3000 -5.5022 -0.1602
8.3200 -5.5154 -0.1617
8.3400 -5.5287 -0.1566
8.3600 -5.5421 -0.1577
8.3800 -5.5555 -0.1573
8.4000 -5.5688 -0.1577
8.4200 -5.5821 -0.1578
8.4400 -5.5955 -0.1595
8.4600 -5.6089 -0.1564
8.4800 -5.6222 -0.1549
8.5000 -5.6356 -0.1550
8.5200 -5.6489 -0.1544
8.5400 -5.6622 -0.1534
8.5600 -5.6756 -0.1564
8.5800 -5.6889 -0.1523
8.6000 -5.7022 -0.1520
8.6200 -5.7155 -0.1536
8.6400 -5.7288 -0.1517
8.6600 -5.7421 -0.1512
8.6800 -5.7554 -0.1506
8.7000 -5.7687 -0.1508
8.7200 -5.7821 -0.1483
8.7400 -5.7955 -0.1496
8.7600 -5.8088 -0.1479
8.7800 -5.8221 -0.1484
8.8000 -5.8355 -0.1489
8.8200 -5.8488 -0.1473
8.8400 -5.8622 -0.1473
8.8600 -5.8756 -0.1489
8.8800 -5.8889 -0.1464
8.9000 -5.9022 -0.1458
8.9200 -5.9156 -0.1471
8.9400 -5.9289 -0.1436
8.9600 -5.9422 -0.1447
8.9800 -5.9555 -0.1456
9.0000 -5.9688 -0.1435
9.0200 -5.9822 -0.1430
9.0400 -5.9955 -0.1443
9.0600 -6.0087 -0.1433
9.0800 -6.0221 -0.1405
9.1000 -6.0355 -0.1412
9.1200 -6.0489 -0.1390
9.1400 -6.0622 -0.1420
9.1600 -6.0755 -0.1406
9.1800 -6.0889 -0.1417
9.2000 -6.1022 -0.1396
9.2200 -6.1155 -0.1415
9.2400 -6.1288 -0.1374
9.2600 -6.1421 -0.1376
9.2800 -6.1555 -0.1389
9.3000 -6.1689 -0.1384
9.3200 -6.1822 -0.1347
9.3400 -6.1955 -0.1372
9.3600 -6.2088 -0.1345
9.3800 -6.2222 -0.1353
9.4000 -6.2355 -0.1359
9.4200 -6.2488 -0.1343
9.4400 -6.2621 -0.1331
9.4600 -6.2755 -0.1337
9.4800 -6.2888 -0.1329
9.5000 -6.3021 -0.1319
9.5200 -6.3155 -0.1316
9.5400 -6.3289 -0.1301
9.5600 -6.3423 -0.1296
9.5800 -6.3556 -0.1292
9.6000 -6.3689 -0.1301
9.6200 -6.3822 -0.1274
9.6400 -6.3955 -0.1306
9.6600 -6.4089 -0.1279
9.6800 -6.4222 -0.1289
9.7000 -6.4355 -0.1286
9.7200 -6.4488 -0.1284
9.7400 -6.4622 -0.1264
9.7600 -6.4755 -0.1278
9.7800 -6.4888 -0.1237
9.8000 -6.5021 -0.1249
9.8200 -6.5155 -0.1234
9.8400 -6.5288 -0.1235
9.8600 -6.5422 -0.1226
9.8800 -6.5555 -0.1243
9.9000 -6.5688 -0.1230
9.9200 -6.5822 -0.1202
9.9400 -6.5956 -0.1209
9.9600 -6.6088 -0.1226
9.9800 -6.6222 -0.1228
10.0000 -6.6355 -0.1234
10.0200 -6.6489 -0.1220
10.0400 -6.6622 -0.1213
10.0600 -6.6755 -0.1236
10.0800 -6.6888 -0.1228
10.1000 -6.7022 -0.1219
10.1200 -6.7155 -0.1227
10.1400 -6.7288 -0.1216
10.1600 -6.7421 -0.1197
10.1800 -6.7555 -0.1217
10.2000 -6.7688 -0.1187
10.2200 -6.7822 -0.1202
10.2400 -6.7955 -0.1198
10.2600 -6.8088 -0.1187
10.2800 -6.8222 -0.1180
10.3000 -6.8355 -0.1190
10.3200 -6.8489 -0.1190
10.3400 -6.8622 -0.1180
10.3600 -6.8755 -0.1183
10.3800 -6.8889 -0.1185
10.4000 -6.9022 -0.1162
10.4200 -6.9155 -0.1164
10.4400 -6.9289 -0.1149
10.4600 -6.9422 -0.1132
10.4800 -6.9555 -0.1137
10.5000 -6.9688 -0.1137
10.5200 -6.9821 -0.1126
10.5400 -6.9955 -0.1143
10.5600 -7.0088 -0.1118
10.5800 -7.0222 -0.1103
10.6000 -7.0355 -0.1103
10.6200 -7.0488 -0.1117
10.6400 -7.0622 -0.1095
10.6600 -7.0756 -0.1122
10.6800 -7.0889 -0.1107
10.7000 -7.1022 -0.1095
10.7200 -7.1155 -0.1098
10.7400 -7.1289 -0.1108
10.7600 -7.1422 -0.1090
10.7800 -7.1555 -0.1096
10.8000 -7.1688 -0.1083
10.8200 -7.1822 -0.1083
10.8400 -7.1955 -0.1096
10.8600 -7.2088 -0.1050
10.8800 -7.2221 -0.1042
10.9000 -7.2355 -0.1041
10.9200 -7.2489 -0.1060
10.9400 -7.2622 -0.1021
10.9600 -7.2755 -0.1060
10.9800 -7.2888 -0.1031
11.0000 -7.3022 -0.1026
11.0200 -7.3156 -0.1014
11.0400 -7.3289 -0.1030
11.0600 -7.3422 -0.0987
11.0800 -7.3555 -0.1006
11.1000 -7.3689 -0.0986
11.1200 -7.3822 -0.0988
11.1400 -7.3955 -0.0993
11.1600 -7.4088 -0.0998
11.1800 -7.4221 -0.0977
11.2000 -7.4355 -0.0991
11.2200 -7.4488 -0.0982
11.2400 -7.4621 -0.0967
11.2600 -7.4755 -0.0968
11.2800 -7.4889 -0.0979
11.3000 -7.5022 -0.0962
11.3200 -7.5155 -0.0950
11.3400 -7.5288 -0.0964
11.3600 -7.5422 -0.0948
11.3800 -7.5556 -0.0941
11.4000 -7.5689 -0.0949
11.4200 -7.5822 -0.0923
11.4400 -7.5955 -0.0942
11.4600 -7.6089 -0.0946
11.4800 -7.6222 -0.0915
11.5000 -7.6356 -0.0936
11.5200 -7.6489 -0.0912
11.5400 -7.6622 -0.0905
11.5600 -7.6756 -0.0891
11.5800 -7.6888 -0.0895
11.6000 -7.7021 -0.0878
11.6200 -7.7154 -0.0895
11.6400 -7.7288 -0.0877
11.6600 -7.7421 -0.0889
11.6800 -7.7554 -0.0865
11.7000 -7.7688 -0.0888
11.7200 -7.7822 -0.0847
11.7400 -7.7956 -0.0858
11.7600 -7.8089 -0.0876
11.7800 -7.8222 -0.0864
11.8000 -7.8355 -0.0852
11.8200 -7.8489 -0.0868
11.8400 -7.8623 -0.0842
11.8600 -7.8755 -0.0857
11.8800 -7.8889 -0.0848
11.9000 -7.9022 -0.0840
11.9200 -7.9155 -0.0837
11.9400 -7.9288 -0.0858
11.9600 -7.9421 -0.0839
11.9800 -7.9555 -0.0843
12.0000 -7.9688 -0.0830
12.0200 -7.9822 -0.0808
12.0400 -7.9955 -0.0814
12.0600 -8.0088 -0.0810
12.0800 -8.0222 -0.0779
12.1000 -8.0356 -0.0805
12.1200 -8.0489 -0.0791
12.1400 -8.0622 -0.0783
12.1600 -8.0755 -0.0771
12.1800 -8.0889 -0.0777
12.2000 -8.1022 -0.0765
12.2200 -8.1155 -0.0747
12.2400 -8.1288 -0.0767
12.2600 -8.1422 -0.0748
12.2800 -8.1555 -0.0755
12.3000 -8.1688 -0.0748
12.3200 -8.1821 -0.0762
12.3400 -8.1955 -0.0737
12.3600 -8.2088 -0.0755
12.3800 -8.2222 -0.0739
12.4000 -8.2355 -0.0736
12.4200 -8.2488 -0.0725
12.4400 -8.2622 -0.0714
12.4600 -8.2755 -0.0698
12.4800 -8.2889 -0.0723
12.5000 -8.3022 -0.0684
12.5200 -8.3156 -0.0688
12.5400 -8.3289 -0.0698
12.5600 -8.3422 -0.0680
12.5800 -8.3555 -0.0692
12.6000 -8.3688 -0.0700
12.6200 -8.3822 -0.0665
12.6400 -8.3955 -0.0664
12.6600 -8.4088 -0.0682
12.6800 -8.4221 -0.0661
12.7000 -8.4354 -0.0662
12.7200 -8.4488 -0.0662
12.7400 -8.4621 -0.0642
12.7600 -8.4755 -0.0649
12.7800 -8.4888 -0.0661
12.8000 -8.5022 -0.0652
12.8200 -8.5155 -0.0615
12.8400 -8.5288 -0.0636
12.8600 -8.5422 -0.0603
12.8800 -8.5555 -0.0612
12.9000 -8.5689 -0.0590
12.9200 -8.5822 -0.0613
12.9400 -8.5955 -0.0609
12.9600 -8.6088 -0.0627
12.9800 -8.6222 -0.0613
13.0000 -8.6355 -0.0607
13.0200 -8.6488 -0.0603
13.0400 -8.6621 -0.0584
13.0600 -8.6755 -0.0581
13.0800 -8.6888 -0.0607
13.1000 -8.7022 -0.0590
13.1200 -8.7155 -0.0598
13.1400 -8.7288 -0.0598
13.1600 -8.7422 -0.0589
13.1800 -8.7555 -0.0594
13.2000 -8.7689 -0.0587
13.2200 -8.7822 -0.0617
13.2400 -8.7955 -0.0615
13.2600 -8.8089 -0.0605
13.2800 -8.8223 -0.0581
13.3000 -8.8356 -0.0592
13.3200 -8.8489 -0.0594
13.3400 -8.8622 -0.0578
13.3600 -8.8756 -0.0541
13.3800 -8.8888 -0.0566
13.4000 -8.9021 -0.0545
13.4200 -8.9155 -0.0554
13.4400 -8.9288 -0.0550
13.4600 -8.9422 -0.0535
13.4800 -8.9555 -0.0514
13.5000 -8.9688 -0.0519
13.5200 -8.9822 -0.0512
13.5400 -8.9955 -0.0494
13.5600 -9.0089 -0.0516
13.5800 -9.0222 -0.0486
13.6000 -9.0355 -0.0506
13.6200 -9.0489 -0.0517
13.6400 -9.0622 -0.0496
13.6600 -9.0756 -0.0479
13.6800 -9.0889 -0.0489
13.7000 -9.1022 -0.0476
13.7200 -9.1155 -0.0472
13.7400 -9.1288 -0.0479
13.7600 -9.1421 -0.0481
13.7800 -9.1554 -0.0456
13.8000 -9.1688 -0.0472
13.8200 -9.1822 -0.0465
13.8400 -9.1955 -0.0441
13.8600 -9.2088 -0.0459
13.8800 -9.2222 -0.0440
13.9000 -9.2356 -0.0429
13.9200 -9.2489 -0.0449
13.9400 -9.2622 -0.0422
13.9600 -9.2756 -0.0433
13.9800 -9.2889 -0.0420
14.0000 -9.3022 -0.0418
14.0200 -9.3155 -0.0398
14.0400 -9.3288 -0.0420
14.0600 -9.3421 -0.0397
14.0800 -9.3554 -0.0400
14.1000 -9.3688 -0.0391
14.1200 -9.3821 -0.0412
14.1400 -9.3954 -0.0382
14.1600 -9.4088 -0.0388
14.1800 -9.4222 -0.0377
14.2000 -9.4355 -0.0384
14.2200 -9.4488 -0.0394
14.2400 -9.4622 -0.0391
14.2600 -9.4756 -0.0399
14.2800 -9.4889 -0.0383
14.3000 -9.5022 -0.0385
14.3200 -9.5155 -0.0348
14.3400 -9.5289 -0.0363
14.3600 -9.5422 -0.0351
14.3800 -9.5556 -0.0342
14.4000 -9.5689 -0.0342
14.4200 -9.5822 -0.0344
14.4400 -9.5955 -0.0326
14.4600 -9.6089 -0.0329
14.4800 -9.6221 -0.0320
14.5000 -9.6355 -0.0323
14.5200 -9.6488 -0.0299
14.5400 -9.6622 -0.0302
14.5600 -9.6755 -0.0296
14.5800 -9.6888 -0.0313
14.6000 -9.7022 -0.0308
14.6200 -9.7156 -0.0304
14.6400 -9.7289 -0.0287
14.6600 -9.7422 -0.0298
14.6800 -9.7555 -0.0278
14.7000 -9.7689 -0.0306
14.7200 -9.7822 -0.0276
14.7400 -9.7955 -0.0289
14.7600 -9.8088 -0.0268
14.7800 -9.8222 -0.0287
14.8000 -9.8355 -0.0244
14.8200 -9.8488 -0.0269
14.8400 -9.8621 -0.0276
14.8600 -9.8754 -0.0266
14.8800 -9.8888 -0.0260
14.9000 -9.9022 -0.0236
14.9200 -9.9155 -0.0222
14.9400 -9.9288 -0.0233
14.9600 -9.9422 -0.0225
14.9800 -9.9555 -0.0219
15.0000 -9.9689 -0.0228
15.0200 -9.9822 -0.0212
15.0400 -9.9955 -0.0217
15.0600 -10.0089 -0.0219
15.0800 -10.0222 -0.0231
15.1000 -10.0355 -0.0174
15.1200 -10.0488 -0.0190
15.1400 -10.0621 -0.0192
15.1600 -10.0755 -0.0195
15.1800 -10.0888 -0.0177
15.2000 -10.1021 -0.0188
15.2200 -10.1154 -0.0172
15.2400 -10.1288 -0.0195
15.2600 -10.1422 -0.0170
15.2800 -10.1555 -0.0190
15.3000 -10.1688 -0.0169
15.3200 -10.1822 -0.0178
15.3400 -10.1956 -0.0161
15.3600 -10.2089 -0.0156
15.3800 -10.2222 -0.0161
15.4000 -10.2355 -0.0141
15.4200 -10.2489 -0.0148
15.4400 -10.2622 -0.0170
15.4600 -10.2756 -0.0147
15.4800 -10.2889 -0.0161
15.5000 -10.3022 -0.0137
15.5200 -10.3155 -0.0124
15.5400 -10.3288 -0.0122
15.5600 -10.3421 -0.0114
15.5800 -10.3554 -0.0106
15.6000 -10.3688 -0.0102
15.6200 -10.3821 -0.0110
15.6400 -10.3955 -0.0102
15.6600 -10.4088 -0.0111
15.6800 -10.4222 -0.0111
15.7000 -10.4356 -0.0098
15.7200 -10.4489 -0.0092
15.7400 -10.4623 -0.0091
15.7600 -10.4756 -0.0079
15.7800 -10.4889 -0.0101
15.8000 -10.5022 -0.0085
15.8200 -10.5156 -0.0063
15.8400 -10.5288 -0.0052
15.8600 -10.5422 -0.0057
15.8800 -10.5555 -0.0039
15.9000 -10.5688 -0.0047
15.9200 -10.5821 -0.0047
15.9400 -10.5954 -0.0042
15.9600 -10.6087 -0.0012
15.9800 -10.6221 -0.0019
16.0000 -10.6355 -0.0011
16.0200 -10.6488 -0.0013
16.0400 -10.6622 -0.0013
16.0600 -10.6756 -0.0005
16.0800 -10.6889 -0.0006
16.1000 -10.7022 -0.0012
16.1200 -10.7155 0.0007
16.1400 -10.7289 0.0016
16.1600 -10.7422 0.0002
16.1800 -10.7555 0.0031
16.2000 -10.7688 0.0045
16.2200 -10.7821 0.0015
16.2400 -10.7955 0.0031
16.2600 -10.8088 0.0041
16.2800 -10.8221 0.0049
16.3000 -10.8354 0.0047
16.3200 -10.8488 0.0047
16.3400 -10.8622 0.0059
16.3600 -10.8755 0.0080
16.3800 -10.8888 0.0084
16.4000 -10.9022 0.0065
16.4200 -10.9156 0.0077
16.4400 -10.9289 0.0079
16.4600 -10.9422 0.0066
16.4800 -10.9554 0.0074
16.5000 -10.9688 0.0072
16.5200 -10.9822 0.0067
16.5400 -10.9955 0.0110
16.5600 -11.0088 0.0096
16.5800 -11.0222 0.0090
16.6000 -11.0355 0.0069
16.6200 -11.0489 0.0076
16.6400 -11.0622 0.0079
16.6600 -11.0755 0.0113
16.6800 -11.0888 0.0087
16.7000 -11.1022 0.0108
16.7200 -11.1155 0.0094
16.7400 -11.1288 0.0099
16.7600 -11.1422 0.0096
16.7800 -11.1556 0.0112
16.8000 -11.1689 0.0108
16.8200 -11.1822 0.0110
16.8400 -11.1956 0.0141
16.8600 -11.2089 0.0100
16.8800 -11.2223 0.0116
16.9000 -11.2356 0.0123
16.9200 -11.2489 0.0127
16.9400 -11.2622 0.0106
16.9600 -11.2755 0.0110
16.9800 -11.2888 0.0122
17.0000 -11.3021 0.0121
17.0200 -11.3154 0.0131
17.0400 -11.3288 0.0158
17.0600 -11.3421 0.0161
17.0800 -11.3555 0.0165
17.1000 -11.3688 0.0170
17.1200 -11.3821 0.0171
17.1400 -11.3955 0.0180
17.1600 -11.4089 0.0180
17.1800 -11.4222 0.0181
17.2000 -11.4355 0.0178
17.2200 -11.4489 0.0187
17.2400 -11.4622 0.0181
17.2600 -11.4756 0.0184
17.2800 -11.4889 0.0216
17.3000 -11.5022 0.0206
17.3200 -11.5155 0.0207
17.3400 -11.5289 0.0213
17.3600 -11.5421 0.0223
17.3800 -11.5554 0.0207
17.4000 -11.5688 0.0222
17.4200 -11.5822 0.0209
17.4400 -11.5955 0.0230
17.4600 -11.6088 0.0232
17.4800 -11.6221 0.0229
17.5000 -11.6355 0.0213
17.5200 -11.6489 0.0257
17.5400 -11.6622 0.0237
17.5600 -11.6755 0.0247
17.5800 -11.6888 0.0238
17.6000 -11.7022 0.0254
17.6200 -11.7156 0.0263
17.6400 -11.7289 0.0274
17.6600 -11.7422 0.0255
17.6800 -11.7555 0.0272
17.7000 -11.7689 0.0265
17.7200 -11.7822 0.0260
17.7400 -11.7955 0.0254
17.7600 -11.8088 0.0273
17.7800 -11.8222 0.0252
17.8000 -11.8355 0.0263
17.8200 -11.8488 0.0281
17.8400 -11.8622 0.0270
17.8600 -11.8755 0.0287
17.8800 -11.8889 0.0282
17.9000 -11.9022 0.0294
17.9200 -11.9155 0.0291
17.9400 -11.9288 0.0296
17.9600 -11.9422 0.0277
17.9800 -11.9555 0.0290
18.0000 -11.9688 0.0285
18.0200 -11.9822 0.0323
18.0400 -11.9955 0.0317
18.0600 -12.0088 0.0352
18.0800 -12.0221 0.0333
18.1000 -12.0355 0.0353
18.1200 -12.0488 0.0338
18.1400 -12.0622 0.0349
18.1600 -12.0755 0.0342
18.1800 -12.0888 0.0343
18.2000 -12.1022 0.0324
18.2200 -12.1155 0.0351
18.2400 -12.1289 0.0347
18.2600 -12.1422 0.0373
18.2800 -12.1555 0.0347
18.3000 -12.1688 0.0387
18.3200 -12.1822 0.0364
18.3400 -12.1955 0.0373
18.3600 -12.2089 0.0374
18.3800 -12.2222 0.0382
18.4000 -12.2355 0.0371
18.4200 -12.2488 0.0404
18.4400 -12.2621 0.0382
18.4600 -12.2755 0.0396
18.4800 -12.2888 0.0407
18.5000 -12.3022 0.0413
18.5200 -12.3155 0.0418
18.5400 -12.3288 0.0405
18.5600 -12.3422 0.0415
18.5800 -12.3555 0.0391
18.6000 -12.3689 0.0418
18.6200 -12.3822 0.0412
18.6400 -12.3955 0.0427
18.6600 -12.4088 0.0445
18.6800 -12.4222 0.0421
18.7000 -12.4356 0.0444
18.7200 -12.4489 0.0457
18.7400 -12.4622 0.0461
18.7600 -12.4755 0.0454
18.7800 -12.4889 0.0459
18.8000 -12.5022 0.0475
18.8200 -12.5155 0.0454
18.8400 -12.5288 0.0470
18.8600 -12.5421 0.0480
18.8800 -12.5554 0.0480
18.9000 -12.5687 0.0488
18.9200 -12.5821 0.0513
18.9400 -12.5955 0.0486
18.9600 -12.6089 0.0519
18.9800 -12.6222 0.0517
19.0000 -12.6355 0.0513
19.0200 -12.6489 0.0514
19.0400 -12.6622 0.0538
19.0600 -12.6756 0.0515
19.0800 -12.6889 0.0556
19.1000 -12.7022 0.0557
19.1200 -12.7155 0.0528
19.1400 -12.7288 0.0541
19.1600 -12.7422 0.0533
19.1800 -12.7555 0.0538
19.2000 -12.7688 0.0552
19.2200 -12.7822 0.0572
19.2400 -12.7955 0.0557
19.2600 -12.8088 0.0585
19.2800 -12.8222 0.0561
19.3000 -12.8355 0.0569
19.3200 -12.8489 0.0567
19.3400 -12.8622 0.0600
19.3600 -12.8755 0.0594
19.3800 -12.8888 0.0609
19.4000 -12.9022 0.0585
19.4200 -12.9156 0.0583
19.4400 -12.9289 0.0587
19.4600 -12.9422 0.0608
19.4800 -12.9555 0.0588
19.5000 -12.9688 0.0601
19.5200 -12.9822 0.0608
19.5400 -12.9954 0.0608
19.5600 -13.0088 0.0598
19.5800 -13.0221 0.0616
19.6000 -13.0355 0.0585
19.6200 -13.0488 0.0588
19.6400 -13.0622 0.0597
19.6600 -13.0755 0.0578
19.6800 -13.0889 0.0615
19.7000 -13.1022 0.0609
19.7200 -13.1155 0.0612
19.7400 -13.1289 0.0610
19.7600 -13.1422 0.0616
19.7800 -13.1556 0.0616
19.8000 -13.1689 0.0622
19.8200 -13.1822 0.0623
19.8400 -13.1955 0.0615
19.8600 -13.2088 0.0621
19.8800 -13.2221 0.0633
19.9000 -13.2354 0.0619
19.9200 -13.2487 0.0629
19.9400 -13.2621 0.0637
19.9600 -13.2755 0.0634
19.9800 -13.2888 0.0646
20.0000 -13.3021 0.0643
20.0200 -13.3155 0.0647
20.0400 -13.3289 0.0661
20.0600 -13.3423 0.0661
20.0800 -13.3556 0.0650
20.1000 -13.3689 0.0665
20.1200 -13.3822 0.0684
20.1400 -13.3956 0.0662
20.1600 -13.4089 0.0667
20.1800 -13.4222 0.0677
20.2000 -13.4355 0.0695
20.2200 -13.4489 0.0686
20.2400 -13.4622 0.0687
20.2600 -13.4755 0.0668
20.2800 -13.4888 0.0706
20.3000 -13.5021 0.0675
20.3200 -13.5155 0.0681
20.3400 -13.5288 0.0684
20.3600 -13.5421 0.0703
20.3800 -13.5555 0.0690
20.4000 -13.5688 0.0709
20.4200 -13.5822 0.0713
20.4400 -13.5955 0.0714
20.4600 -13.6088 0.0723
20.4800 -13.6222 0.0741
20.5000 -13.6356 0.0712
20.5200 -13.6489 0.0711
20.5400 -13.6622 0.0711
20.5600 -13.6755 0.0700
20.5800 -13.6889 0.0728
20.6000 -13.7022 0.0754
20.6200 -13.7155 0.0727
20.6400 -13.7288 0.0736
20.6600 -13.7421 0.0750
20.6800 -13.7555 0.0733
20.7000 -13.7688 0.0761
20.7200 -13.7821 0.0752
20.7400 -13.7955 0.0740
20.7600 -13.8088 0.0744
20.7800 -13.8222 0.0795
20.8000 -13.8355 0.0762
20.8200 -13.8488 0.0773
20.8400 -13.8622 0.0777
20.8600 -13.8756 0.0785
20.8800 -13.8889 0.0793
20.9000 -13.9022 0.0811
20.9200 -13.9155 0.0781
20.9400 -13.9289 0.0804
20.9600 -13.9422 0.0812
20.9800 -13.9555 0.0805
21.0000 -13.9688 0.0802
21.0200 -13.9821 0.0827
21.0400 -13.9955 0.0805
21.0600 -14.0088 0.0831
21.0800 -14.0221 0.0855
21.1000 -14.0355 0.0829
21.1200 -14.0489 0.0841
21.1400 -14.0623 0.0857
21.1600 -14.0756 0.0857
21.1800 -14.0889 0.0864
21.2000 -14.1022 0.0874
21.2200 -14.1156 0.0855
21.2400 -14.1289 0.0874
21.2600 -14.1422 0.0864
21.2800 -14.1555 0.0860
21.3000 -14.1688 0.0880
21.3200 -14.1821 0.0912
21.3400 -14.1954 0.0887
21.3600 -14.2087 0.0893
21.3800 -14.2221 0.0897
21.4000 -14.2355 0.0889
21.4200 -14.2488 0.0897
21.4400 -14.2622 0.0908
21.4600 -14.2755 0.0905
21.4800 -14.2889 0.0914
21.5000 -14.3023 0.0938
21.5200 -14.3156 0.0888
21.5400 -14.3289 0.0901
21.5600 -14.3422 0.0905
21.5800 -14.3556 0.0905
21.6000 -14.3689 0.0926
21.6200 -14.3822 0.0939
21.6400 -14.3955 0.0935
21.6600 -14.4089 0.0921
21.6800 -14.4222 0.0945
21.7000 -14.4355 0.0912
21.7200 -14.4488 0.0941
21.7400 -14.4621 0.0940
21.7600 -14.4755 0.0962
21.7800 -14.4888 0.0947
21.8000 -14.5021 0.0996
21.8200 -14.5155 0.0944
21.8400 -14.5289 0.0972
21.8600 -14.5422 0.0973
21.8800 -14.5555 0.0981
21.9000 -14.5688 0.0992
21.9200 -14.5822 0.1016
21.9400 -14.5955 0.1018
21.9600 -14.6089 0.1024
21.9800 -14.6222 0.1023
22.0000 -14.6355 0.1023
22.0200 -14.6488 0.1037
22.0400 -14.6622 0.1055
22.0600 -14.6755 0.1048
22.0800 -14.6888 0.1045
22.1000 -14.7021 0.1096
22.1200 -14.7155 0.1060
22.1400 -14.7289 0.1084
22.1600 -14.7422 0.1088
22.1800 -14.7555 0.1075
22.2000 -14.7689 0.1069
22.2200 -14.7822 0.1092
22.2400 -14.7956 0.1099
22.2600 -14.8089 0.1077
22.2800 -14.8222 0.1112
22.3000 -14.8355 0.1082
22.3200 -14.8489 0.1101
22.3400 -14.8622 0.1114
22.3600 -14.8755 0.1106
22.3800 -14.8888 0.1127
22.4000 -14.9022 0.1134
22.4200 -14.9155 0.1131
22.4400 -14.9288 0.1113
22.4600 -14.9421 0.1144
22.4800 -14.9555 0.1116
22.5000 -14.9689 0.1160
22.5200 -14.9822 0.1138
22.5400 -14.9955 0.1151
22.5600 -15.0089 0.1126
22.5800 -15.0223 0.1155
22.6000 -15.0356 0.1119
22.6200 -15.0489 0.1153
22.6400 -15.0622 0.1148
22.6600 -15.0756 0.1150
22.6800 -15.0889 0.1124
22.7000 -15.1022 0.1149
22.7200 -15.1155 0.1149
22.7400 -15.1288 0.1152
22.7600 -15.1421 0.1170
22.7800 -15.1554 0.1157
22.8000 -15.1687 0.1158
22.8200 -15.1821 0.1180
22.8400 -15.1955 0.1180
22.8600 -15.2088 0.1171
22.8800 -15.2221 0.1212
22.9000 -15.2355 0.1196
22.9200 -15.2488 0.1205
22.9400 -15.2622 0.1210
22.9600 -15.2756 0.1194
22.9800 -15.2889 0.1207
23.0000 -15.3022 0.1238
23.0200 -15.3156 0.1215
23.0400 -15.3289 0.1219
23.0600 -15.3422 0.1226
23.0800 -15.3555 0.1231
23.1000 -15.3688 0.1232
23.1200 -15.3821 0.1254
23.1400 -15.3955 0.1224
23.1600 -15.4087 0.1237
23.1800 -15.4221 0.1243
23.2000 -15.4354 0.1249
23.2200 -15.4488 0.1239
23.2400 -15.4621 0.1272
23.2600 -15.4754 0.1257
23.2800 -15.4888 0.1264
23.3000 -15.5022 0.1301
23.3200 -15.5156 0.1283
23.3400 -15.5289 0.1277
23.3600 -15.5422 0.1272
23.3800 -15.5556 0.1269
23.4000 -15.5689 0.1269
23.4200 -15.5822 0.1285
23.4400 -15.5955 0.1271
23.4600 -15.6088 0.1278
23.4800 -15.6222 0.1305
23.5000 -15.6355 0.1313
23.5200 -15.6488 0.1304
23.5400 -15.6621 0.1321
23.5600 -15.6755 0.1310
23.5800 -15.6889 0.1295
23.6000 -15.7022 0.1327
23.6200 -15.7155 0.1321
23.6400 -15.7289 0.1310
23.6600 -15.7422 0.1337
23.6800 -15.7555 0.1334
23.7000 -15.7688 0.1331
23.7200 -15.7821 0.1343
23.7400 -15.7955 0.1346
23.7600 -15.8089 0.1337
23.7800 -15.8222 0.1356
23.8000 -15.8355 0.1340
23.8200 -15.8489 0.1357
23.8400 -15.8622 0.1365
23.8600 -15.8755 0.1395
23.8800 -15.8888 0.1364
23.9000 -15.9021 0.1407
23.9200 -15.9155 0.1415
23.9400 -15.9288 0.1412
23.9600 -15.9422 0.1414
23.9800 -15.9555 0.1426
24.0000 -15.9689 0.1409
24.0200 -15.9822 0.1450
24.0400 -15.9956 0.1442
24.0600 -16.0089 0.1449
24.0800 -16.0222 0.1465
24.1000 -16.0356 0.1447
24.1200 -16.0489 0.1434
24.1400 -16.0622 0.1435
24.1600 -16.0755 0.1467
24.1800 -16.0888 0.1444
24.2000 -16.1022 0.1486
24.2200 -16.1155 0.1469
24.2400 -16.1288 0.1475
24.2600 -16.1421 0.1487
24.2800 -16.1555 0.1517
24.3000 -16.1688 0.1496
24.3200 -16.1822 0.1517
24.3400 -16.1955 0.1507
24.3600 -16.2088 0.1503
24.3800 -16.2222 0.1518
24.4000 -16.2356 0.1533
24.4200 -16.2489 0.1522
24.4400 -16.2622 0.1535
24.4600 -16.2755 0.1541
24.4800 -16.2889 0.1528
24.5000 -16.3022 0.1554
24.5200 -16.3155 0.1546
24.5400 -16.3288 0.1546
24.5600 -16.3422 0.1577
24.5800 -16.3555 0.1563
24.6000 -16.3688 0.1578
24.6200 -16.3821 0.1572
24.6400 -16.3955 0.1577
24.6600 -16.4088 0.1562
24.6800 -16.4221 0.1589
24.7000 -16.4354 0.1593
24.7200 -16.4488 0.1588
24.7400 -16.4621 0.1581
24.7600 -16.4755 0.1605
24.7800 -16.4889 0.1566
24.8000 -16.5022 0.1623
24.8200 -16.5155 0.1616
24.8400 -16.5289 0.1603
24.8600 -16.5422 0.1613
24.8800 -16.5555 0.1630
24.9000 -16.5689 0.1610
24.9200 -16.5822 0.1642
24.9400 -16.5955 0.1643
24.9600 -16.6088 0.1623
24.9800 -16.6221 0.1652
25.0000 -16.6355 0.1640
25.0200 -16.6489 0.1616
25.0400 -16.6622 0.1645
25.0600 -16.6755 0.1658
25.0800 -16.6889 0.1645
25.1000 -16.7022 0.1669
25.1200 -16.7156 0.1666
25.1400 -16.7289 0.1666
25.1600 -16.7422 0.1676
25.1800 -16.7555 0.1694
25.2000 -16.7689 0.1685
25.2200 -16.7822 0.1733
25.2400 -16.7955 0.1726
25.2600 -16.8088 0.1719
25.2800 -16.8222 0.1725
25.3000 -16.8355 0.1758
25.3200 -16.8488 0.1728
25.3400 -16.8621 0.1785
25.3600 -16.8755 0.1788
25.3800 -16.8888 0.1790
25.4000 -16.9022 0.1794
25.4200 -16.9155 0.1819
25.4400 -16.9288 0.1785
25.4600 -16.9422 0.1825
25.4800 -16.9556 0.1820
25.5000 -16.9689 0.1833
25.5200 -16.9822 0.1830
25.5400 -16.9955 0.1831
25.5600 -17.0088 0.1797
25.5800 -17.0221 0.1852
25.6000 -17.0354 0.1842
25.6200 -17.0487 0.1837
25.6400 -17.0621 0.1835
25.6600 -17.0755 0.1857
25.6800 -17.0888 0.1835
25.7000 -17.1021 0.1843
25.7200 -17.1155 0.1847
25.7400 -17.1288 0.1807
25.7600 -17.1422 0.1841
25.7800 -17.1555 0.1859
25.8000 -17.1688 0.1832
25.8200 -17.1822 0.1836
25.8400 -17.1956 0.1849
25.8600 -17.2089 0.1826
25.8800 -17.2222 0.1864
25.9000 -17.2355 0.1855
25.9200 -17.2489 0.1859
25.9400 -17.2622 0.1855
25.9600 -17.2755 0.1881
25.9800 -17.2889 0.1863
26.0000 -17.3022 0.1885
26.0200 -17.3155 0.1906
26.0400 -17.3288 0.1887
26.0600 -17.3421 0.1900
26.0800 -17.3555 0.1913
26.1000 -17.3688 0.1874
26.1200 -17.3821 0.1921
26.1400 -17.3954 0.1926
26.1600 -17.4088 0.1921
26.1800 -17.4222 0.1938
26.2000 -17.4356 0.1953
26.2200 -17.4489 0.1929
26.2400 -17.4622 0.1978
26.2600 -17.4756 0.1986
26.2800 -17.4889 0.1983
26.3000 -17.5023 0.1988
26.3200 -17.5156 0.1999
26.3400 -17.5289 0.1981
26.3600 -17.5422 0.2002
26.3800 -17.5555 0.1992
26.4000 -17.5688 0.1976
26.4200 -17.5821 0.1979
26.4400 -17.5955 0.2000
26.4600 -17.6088 0.1984
26.4800 -17.6222 0.2015
26.5000 -17.6355 0.2018
26.5200 -17.6488 0.2002
26.5400 -17.6622 0.2007
26.5600 -17.6756 0.2018
26.5800 -17.6889 0.1973
26.6000 -17.7022 0.1983
26.6200 -17.7155 0.2020
26.6400 -17.7289 0.2000
26.6600 -17.7422 0.1996
26.6800 -17.7555 0.1993
26.7000 -17.7688 0.1997
26.7200 -17.7822 0.1991
26.7400 -17.7955 0.1997
26.7600 -17.8088 0.2000
26.7800 -17.8221 0.2014
26.8000 -17.8354 0.2038
26.8200 -17.8488 0.2021
26.8400 -17.8622 0.2019
26.8600 -17.8755 0.2042
26.8800 -17.8888 0.2016
26.9000 -17.9022 0.2034
26.9200 -17.9155 0.2059
26.9400 -17.9289 0.2035
26.9600 -17.9422 0.2046
26.9800 -17.9555 0.2057
27.0000 -17.9689 0.2041
27.0200 -17.9822 0.2066
27.0400 -17.9955 0.2087
27.0600 -18.0088 0.2059
27.0800 -18.0222 0.2090
27.1000 -18.0355 0.2102
27.1200 -18.0488 0.2097
27.1400 -18.0621 0.2098
27.1600 -18.0754 0.2123
27.1800 -18.0888 0.2121
27.2000 -18.1021 0.2137
27.2200 -18.1154 0.2139
27.2400 -18.1288 0.2166
27.2600 -18.1422 0.2163
27.2800 -18.1556 0.2184
27.3000 -18.1689 0.2172
27.3200 -18.1822 0.2170
27.3400 -18.1955 0.2189
27.3600 -18.2089 0.2188
27.3800 -18.2223 0.2192
27.4000 -18.2355 0.2210
27.4200 -18.2488 0.2190
27.4400 -18.2622 0.2217
27.4600 -18.2755 0.2226
27.4800 -18.2888 0.2225
27.5000 -18.3021 0.2231
27.5200 -18.3155 0.2231
27.5400 -18.3288 0.2223
27.5600 -18.3422 0.2243
27.5800 -18.3555 0.2256
27.6000 -18.3688 0.2246
27.6200 -18.3821 0.2247
27.6400 -18.3955 0.2281
27.6600 -18.4089 0.2260
27.6800 -18.4222 0.2256
27.7000 -18.4355 0.2261
27.7200 -18.4489 0.2262
27.7400 -18.4622 0.2295
27.7600 -18.4756 0.2293
27.7800 -18.4889 0.2295
27.8000 -18.5022 0.2277
27.8200 -18.5156 0.2301
27.8400 -18.5288 0.2280
27.8600 -18.5421 0.2294
27.8800 -18.5554 0.2292
27.9000 -18.5688 0.2324
27.9200 -18.5821 0.2309
27.9400 -18.5955 0.2352
27.9600 -18.6088 0.2296
27.9800 -18.6221 0.2320
28.0000 -18.6355 0.2325
28.0200 -18.6489 0.2337
28.0400 -18.6622 0.2315
28.0600 -18.6755 0.2325
28.0800 -18.6889 0.2300
28.1000 -18.7022 0.2327
28.1200 -18.7156 0.2329
28.1400 -18.7289 0.2322
28.1600 -18.7422 0.2310
28.1800 -18.7555 0.2359
28.2000 -18.7688 0.2343
28.2200 -18.7821 0.2355
28.2400 -18.7954 0.2342
28.2600 -18.8088 0.2331
28.2800 -18.8222 0.2336
28.3000 -18.8355 0.2365
28.3200 -18.8488 0.2362
28.3400 -18.8622 0.2371
28.3600 -18.8755 0.2397
28.3800 -18.8889 0.2407
28.4000 -18.9022 0.2410
28.4200 -18.9155 0.2427
28.4400 -18.9289 0.2434
28.4600 -18.9423 0.2431
28.4800 -18.9556 0.2443
28.5000 -18.9688 0.2432
28.5200 -18.9821 0.2454
28.5400 -18.9954 0.2461
28.5600 -19.0088 0.2450
28.5800 -19.0221 0.2461
28.6000 -19.0354 0.2476
28.6200 -19.0488 0.2462
28.6400 -19.0622 0.2472
28.6600 -19.0755 0.2479
28.6800 -19.0888 0.2490
28.7000 -19.1022 0.2485
28.7200 -19.1156 0.2517
28.7400 -19.1289 0.2490
28.7600 -19.1422 0.2505
28.7800 -19.1555 0.2514
28.8000 -19.1689 0.2515
28.8200 -19.1822 0.2502
28.8400 -19.1956 0.2532
28.8600 -19.2089 0.2492
28.8800 -19.2222 0.2518
28.9000 -19.2355 0.2520
28.9200 -19.2489 0.2528
28.9400 -19.2621 0.2511
28.9600 -19.2755 0.2567
28.9800 -19.2888 0.2548
29.0000 -19.3022 0.2566
29.0200 -19.3155 0.2567
29.0400 -19.3288 0.2549
29.0600 -19.3421 0.2557
29.0800 -19.3555 0.2574
29.1000 -19.3689 0.2560
29.1200 -19.3822 0.2554
29.1400 -19.3955 0.2567
29.1600 -19.4088 0.2577
29.1800 -19.4222 0.2579
29.2000 -19.4355 0.2611
29.2200 -19.4488 0.2592
29.2400 -19.4622 0.2614
29.2600 -19.4755 0.2621
29.2800 -19.4888 0.2637
29.3000 -19.5021 0.2648
29.3200 -19.5154 0.2677
29.3400 -19.5288 0.2669
29.3600 -19.5422 0.2688
29.3800 -19.5555 0.2690
29.4000 -19.5688 0.2678
29.4200 -19.5822 0.2674
29.4400 -19.5955 0.2681
29.4600 -19.6089 0.2695
29.4800 -19.6222 0.2673
29.5000 -19.6355 0.2706
29.5200 -19.6489 0.2681
29.5400 -19.6622 0.2696
29.5600 -19.6755 0.2714
29.5800 -19.6888 0.2705
29.6000 -19.7021 0.2701
29.6200 -19.7155 0.2737
29.6400 -19.7288 0.2733
29.6600 -19.7421 0.2756
29.6800 -19.7554 0.2758
29.7000 -19.7688 0.2779
29.7200 -19.7822 0.2781
29.7400 -19.7955 0.2813
29.7600 -19.8088 0.2818
29.7800 -19.8222 0.2810
29.8000 -19.8355 0.2826
29.8200 -19.8489 0.2835
29.8400 -19.8622 0.2827
29.8600 -19.8755 0.2856
29.8800 -19.8889 0.2872
29.9000 -19.9022 0.2881
29.9200 -19.9156 0.2895
29.9400 -19.9289 0.2896
29.9600 -19.9422 0.2878
29.9800 -19.9555 0.2918
30.0000 -19.9688 0.2907
30.0200 -19.9821 0.2899
30.0400 -19.9954 0.2922
30.0600 -20.0087 0.2927
30.0800 -20.0221 0.2920
30.1000 -20.0355 0.2846
30.1200 -20.0488 0.2426
30.1400 -20.0622 0.1756
30.1600 -20.0755 0.1011
30.1800 -20.0889 0.0194
30.2000 -20.1022 -0.0588
30.2200 -20.1155 -0.1266
30.2400 -20.1289 -0.1797
30.2600 -20.1422 -0.2054
30.2800 -20.1556 -0.2344
30.3000 -20.1689 -0.2723
30.3200 -20.1822 -0.3124
30.3400 -20.1955 -0.3506
30.3600 -20.2088 -0.3941
30.3800 -20.2221 -0.4378
30.4000 -20.2354 -0.4758
30.4200 -20.2488 -0.4973
30.4400 -20.2621 -0.5025
30.4600 -20.2755 -0.5006
30.4800 -20.2888 -0.4991
30.5000 -20.3022 -0.4989
30.5200 -20.3155 -0.4961
30.5400 -20.3289 -0.4955
30.5600 -20.3422 -0.4953
30.5800 -20.3555 -0.4924
30.6000 -20.3688 -0.4921
30.6200 -20.3822 -0.4911
30.6400 -20.3956 -0.4878
30.6600 -20.4089 -0.4883
30.6800 -20.4222 -0.4904
30.7000 -20.4355 -0.4896
30.7200 -20.4488 -0.4917
30.7400 -20.4621 -0.4900
30.7600 -20.4754 -0.4901
30.7800 -20.4888 -0.4883
30.8000 -20.5022 -0.4903
30.8200 -20.5155 -0.4855
30.8400 -20.5288 -0.4892
30.8600 -20.5422 -0.4875
30.8800 -20.5555 -0.4879
30.9000 -20.5689 -0.4867
30.9200 -20.5822 -0.4907
30.9400 -20.5954 -0.4868
30.9600 -20.6088 -0.4870
30.9800 -20.6221 -0.4848
31.0000 -20.6355 -0.4857
31.0200 -20.6488 -0.4860
31.0400 -20.6622 -0.4859
31.0600 -20.6755 -0.4839
31.0800 -20.6889 -0.4814
31.1000 -20.7022 -0.4784
31.1200 -20.7155 -0.4790
31.1400 -20.7288 -0.4795
31.1600 -20.7422 -0.4792
31.1800 -20.7555 -0.4757
31.2000 -20.7688 -0.4768
31.2200 -20.7821 -0.4760
31.2400 -20.7955 -0.4746
31.2600 -20.8089 -0.4752
31.2800 -20.8222 -0.4747
31.3000 -20.8355 -0.4747
31.3200 -20.8489 -0.4744
31.3400 -20.8623 -0.4748
31.3600 -20.8756 -0.4701
31.3800 -20.8889 -0.4697
31.4000 -20.9022 -0.4686
31.4200 -20.9155 -0.4681
31.4400 -20.9288 -0.4666
31.4600 -20.9421 -0.4686
31.4800 -20.9554 -0.4646
31.5000 -20.9688 -0.4656
31.5200 -20.9822 -0.4637
31.5400 -20.9955 -0.4635
31.5600 -21.0088 -0.4619
31.5800 -21.0222 -0.4629
31.6000 -21.0355 -0.4603
31.6200 -21.0489 -0.4602
31.6400 -21.0622 -0.4597
31.6600 -21.0755 -0.4593
31.6800 -21.0889 -0.4581
31.7000 -21.1022 -0.4576
31.7200 -21.1156 -0.4542
31.7400 -21.1289 -0.4545
31.7600 -21.1422 -0.4535
31.7800 -21.1555 -0.4530
31.8000 -21.1689 -0.4523
31.8200 -21.1822 -0.4528
31.8400 -21.1954 -0.4504
31.8600 -21.2088 -0.4497
31.8800 -21.2222 -0.4501
31.9000 -21.2355 -0.4482
31.9200 -21.2488 -0.4475
31.9400 -21.2621 -0.4496
31.9600 -21.2755 -0.4465
31.9800 -21.2889 -0.4459
32.0000 -21.3022 -0.4445
32.0200 -21.3155 -0.4432
32.0400 -21.3288 -0.4429
32.0600 -21.3422 -0.4419
32.0800 -21.3556 -0.4416
32.1000 -21.3689 -0.4388
32.1200 -21.3822 -0.4407
32.1400 -21.3955 -0.4375
32.1600 -21.4089 -0.4364
32.1800 -21.4222 -0.4343
32.2000 -21.4354 -0.4348
32.2200 -21.4488 -0.4312
32.2400 -21.4622 -0.4355
32.2600 -21.4755 -0.4296
32.2800 -21.4888 -0.4316
32.3000 -21.5022 -0.4306
32.3200 -21.5155 -0.4320
32.3400 -21.5289 -0.4303
32.3600 -21.5422 -0.4300
32.3800 -21.5555 -0.4291
32.4000 -21.5688 -0.4269
32.4200 -21.5822 -0.4285
32.4400 -21.5955 -0.4261
32.4600 -21.6088 -0.4224
32.4800 -21.6221 -0.4228
32.5000 -21.6355 -0.4218
32.5200 -21.6488 -0.4191
32.5400 -21.6622 -0.4197
32.5600 -21.6754 -0.4184
32.5800 -21.6888 -0.4154
32.6000 -21.7022 -0.4164
32.6200 -21.7155 -0.4138
32.6400 -21.7288 -0.4138
32.6600 -21.7421 -0.4126
32.6800 -21.7555 -0.4116
32.7000 -21.7689 -0.4099
32.7200 -21.7822 -0.4103
32.7400 -21.7955 -0.4099
32.7600 -21.8088 -0.4096
32.7800 -21.8222 -0.4090
32.8000 -21.8356 -0.4083
32.8200 -21.8489 -0.4073
32.8400 -21.8622 -0.4069
32.8600 -21.8755 -0.4077
32.8800 -21.8888 -0.4072
32.9000 -21.9022 -0.4066
32.9200 -21.9155 -0.4043
32.9400 -21.9288 -0.4055
32.9600 -21.9422 -0.4053
32.9800 -21.9555 -0.4044
33.0000 -21.9688 -0.4032
33.0200 -21.9821 -0.4055
33.0400 -21.9955 -0.4046
33.0600 -22.0089 -0.4036
33.0800 -22.0222 -0.4026
33.1000 -22.0355 -0.4014
33.1200 -22.0488 -0.4035
33.1400 -22.0622 -0.4038
33.1600 -22.0756 -0.4031
33.1800 -22.0889 -0.4028
33.2000 -22.1022 -0.4024
33.2200 -22.1155 -0.4030
33.2400 -22.1289 -0.4004
33.2600 -22.1422 -0.4006
33.2800 -22.1555 -0.3991
33.3000 -22.1688 -0.3995
33.3200 -22.1821 -0.3988
33.3400 -22.1954 -0.3965
33.3600 -22.2087 -0.3963
33.3800 -22.2221 -0.3958
33.4000 -22.2354 -0.3955
33.4200 -22.2488 -0.3940
33.4400 -22.2622 -0.3940
33.4600 -22.2755 -0.3938
33.4800 -22.2889 -0.3942
33.5000 -22.3022 -0.3924
33.5200 -22.3156 -0.3927
33.5400 -22.3289 -0.3902
33.5600 -22.3422 -0.3917
33.5800 -22.3555 -0.3907
33.6000 -22.3688 -0.3905
33.6200 -22.3822 -0.3893
33.6400 -22.3955 -0.3887
33.6600 -22.4088 -0.3868
33.6800 -22.4221 -0.3868
33.7000 -22.4355 -0.3855
33.7200 -22.4489 -0.3867
33.7400 -22.4622 -0.3872
33.7600 -22.4755 -0.3876
33.7800 -22.4889 -0.3865
33.8000 -22.5022 -0.3858
33.8200 -22.5155 -0.3840
33.8400 -22.5288 -0.3818
33.8600 -22.5422 -0.3835
33.8800 -22.5556 -0.3805
33.9000 -22.5689 -0.3830
33.9200 -22.5822 -0.3812
33.9400 -22.5955 -0.3801
33.9600 -22.6088 -0.3793
33.9800 -22.6222 -0.3780
34.0000 -22.6354 -0.3765
34.0200 -22.6488 -0.3765
34.0400 -22.6621 -0.3761
34.0600 -22.6755 -0.3729
34.0800 -22.6888 -0.3723
34.1000 -22.7022 -0.3710
34.1200 -22.7155 -0.3714
34.1400 -22.7289 -0.3710
34.1600 -22.7422 -0.3716
34.1800 -22.7555 -0.3705
34.2000 -22.7689 -0.3701
34.2200 -22.7822 -0.3681
34.2400 -22.7956 -0.3658
34.2600 -22.8089 -0.3670
34.2800 -22.8222 -0.3631
34.3000 -22.8355 -0.3644
34.3200 -22.8489 -0.3621
34.3400 -22.8622 -0.3628
34.3600 -22.8755 -0.3605
34.3800 -22.8888 -0.3610
34.4000 -22.9021 -0.3570
34.4200 -22.9155 -0.3577
34.4400 -22.9288 -0.3550
34.4600 -22.9421 -0.3557
34.4800 -22.9555 -0.3557
34.5000 -22.9689 -0.3550
34.5200 -22.9822 -0.3528
34.5400 -22.9955 -0.3531
34.5600 -23.0089 -0.3523
34.5800 -23.0222 -0.3501
34.6000 -23.0356 -0.3499
34.6200 -23.0489 -0.3484
34.6400 -23.0622 -0.3477
34.6600 -23.0755 -0.3472
34.6800 -23.0888 -0.3446
34.7000 -23.1022 -0.3429
34.7200 -23.1155 -0.3436
34.7400 -23.1288 -0.3439
34.7600 -23.1421 -0.3439
34.7800 -23.1555 -0.3431
34.8000 -23.1688 -0.3427
34.8200 -23.1821 -0.3428
34.8400 -23.1955 -0.3431
34.8600 -23.2088 -0.3414
34.8800 -23.2222 -0.3408
34.9000 -23.2355 -0.3408
34.9200 -23.2488 -0.3421
34.9400 -23.2622 -0.3402
34.9600 -23.2755 -0.3406
34.9800 -23.2889 -0.3396
35.0000 -23.3022 -0.3408
35.0200 -23.3155 -0.3400
35.0400 -23.3289 -0.3412
35.0600 -23.3422 -0.3381
35.0800 -23.3555 -0.3409
35.1000 -23.3688 -0.3392
35.1200 -23.3821 -0.3393
35.1400 -23.3955 -0.3378
35.1600 -23.4088 -0.3378
35.1800 -23.4221 -0.3382
35.2000 -23.4355 -0.3409
35.2200 -23.4488 -0.3396
35.2400 -23.4622 -0.3391
35.2600 -23.4755 -0.3385
35.2800 -23.4888 -0.3381
35.3000 -23.5022 -0.3371
35.3200 -23.5156 -0.3368
35.3400 -23.5289 -0.3376
35.3600 -23.5422 -0.3363
35.3800 -23.5555 -0.3381
35.4000 -23.5689 -0.3366
35.4200 -23.5822 -0.3350
35.4400 -23.5955 -0.3348
35.4600 -23.6088 -0.3335
35.4800 -23.6221 -0.3334
35.5000 -23.6355 -0.3339
35.5200 -23.6488 -0.3328
35.5400 -23.6621 -0.3318
35.5600 -23.6755 -0.3315
35.5800 -23.6889 -0.3307
35.6000 -23.7022 -0.3263
35.6200 -23.7156 -0.3287
35.6400 -23.7289 -0.3272
35.6600 -23.7422 -0.3282
35.6800 -23.7556 -0.3258
35.7000 -23.7689 -0.3258
35.7200 -23.7822 -0.3250
35.7400 -23.7955 -0.3244
35.7600 -23.8088 -0.3222
35.7800 -23.8221 -0.3237
35.8000 -23.8354 -0.3232
35.8200 -23.8487 -0.3232
35.8400 -23.8621 -0.3196
35.8600 -23.8755 -0.3190
35.8800 -23.8888 -0.3171
35.9000 -23.9022 -0.3172
35.9200 -23.9155 -0.3154
35.9400 -23.9289 -0.3158
35.9600 -23.9423 -0.3142
35.9800 -23.9556 -0.3146
36.0000 -23.9689 -0.3129
36.0200 -23.9822 -0.3130
36.0400 -23.9956 -0.3114
36.0600 -24.0089 -0.3109
36.0800 -24.0222 -0.3108
36.1000 -24.0355 -0.3099
36.1200 -24.0489 -0.3103
36.1400 -24.0622 -0.3092
36.1600 -24.0755 -0.3094
36.1800 -24.0888 -0.3088
36.2000 -24.1021 -0.3064
36.2200 -24.1155 -0.3056
36.2400 -24.1288 -0.3069
36.2600 -24.1421 -0.3036
36.2800 -24.1555 -0.3034
36.3000 -24.1688 -0.3016
36.3200 -24.1822 -0.3026
36.3400 -24.1955 -0.3023
36.3600 -24.2088 -0.3049
36.3800 -24.2222 -0.3016
36.4000 -24.2355 -0.3037
36.4200 -24.2489 -0.3016
36.4400 -24.2622 -0.3017
36.4600 -24.2755 -0.2998
36.4800 -24.2888 -0.3005
36.5000 -24.3022 -0.2992
36.5200 -24.3155 -0.3014
36.5400 -24.3288 -0.2980
36.5600 -24.3421 -0.2974
36.5800 -24.3555 -0.2936
36.6000 -24.3688 -0.2961
36.6200 -24.3822 -0.2953
36.6400 -24.3955 -0.2950
36.6600 -24.4088 -0.2957
36.6800 -24.4222 -0.2935
36.7000 -24.4356 -0.2917
36.7200 -24.4489 -0.2928
36.7400 -24.4622 -0.2936
36.7600 -24.4755 -0.2911
36.7800 -24.4889 -0.2906
36.8000 -24.5022 -0.2886
36.8200 -24.5155 -0.2910
36.8400 -24.5288 -0.2876
36.8600 -24.5422 -0.2901
36.8800 -24.5555 -0.2861
36.9000 -24.5688 -0.2914
36.9200 -24.5821 -0.2881
36.9400 -24.5955 -0.2867
36.9600 -24.6089 -0.2860
36.9800 -24.6222 -0.2887
37.0000 -24.6355 -0.2876
37.0200 -24.6489 -0.2881
37.0400 -24.6622 -0.2852
37.0600 -24.6756 -0.2826
37.0800 -24.6889 -0.2837
37.1000 -24.7022 -0.2844
37.1200 -24.7156 -0.2847
37.1400 -24.7289 -0.2840
37.1600 -24.7422 -0.2829
37.1800 -24.7555 -0.2798
37.2000 -24.7688 -0.2818
37.2200 -24.7822 -0.2796
37.2400 -24.7955 -0.2815
37.2600 -24.8088 -0.2815
37.2800 -24.8221 -0.2826
37.3000 -24.8355 -0.2827
37.3200 -24.8488 -0.2821
37.3400 -24.8621 -0.2807
37.3600 -24.8754 -0.2814
37.3800 -24.8888 -0.2816
37.4000 -24.9022 -0.2832
37.4200 -24.9156 -0.2822
37.4400 -24.9289 -0.2821
37.4600 -24.9422 -0.2798
37.4800 -24.9556 -0.2796
37.5000 -24.9689 -0.2807
37.5200 -24.9822 -0.2805
37.5400 -24.9955 -0.2805
37.5600 -25.0088 -0.2802
37.5800 -25.0222 -0.2761
37.6000 -25.0355 -0.2761
37.6200 -25.0487 -0.2768
37.6400 -25.0621 -0.2776
37.6600 -25.0754 -0.2741
37.6800 -25.0888 -0.2750
37.7000 -25.1021 -0.2733
37.7200 -25.1155 -0.2749
37.7400 -25.1289 -0.2752
37.7600 -25.1423 -0.2727
37.7800 -25.1556 -0.2689
37.8000 -25.1689 -0.2705
37.8200 -25.1822 -0.2686
37.8400 -25.1955 -0.2702
37.8600 -25.2089 -0.2682
37.8800 -25.2222 -0.2687
37.9000 -25.2355 -0.2668
37.9200 -25.2488 -0.2674
37.9400 -25.2622 -0.2654
37.9600 -25.2755 -0.2652
37.9800 -25.2888 -0.2658
38.0000 -25.3021 -0.2664
38.0200 -25.3155 -0.2639
38.0400 -25.3288 -0.2648
38.0600 -25.3422 -0.2632
38.0800 -25.3555 -0.2633
38.1000 -25.3689 -0.2634
38.1200 -25.3822 -0.2605
38.1400 -25.3955 -0.2611
38.1600 -25.4088 -0.2591
38.1800 -25.4221 -0.2605
38.2000 -25.4355 -0.2583
38.2200 -25.4488 -0.2591
38.2400 -25.4622 -0.2589
38.2600 -25.4755 -0.2573
38.2800 -25.4888 -0.2573
38.3000 -25.5022 -0.2544
38.3200 -25.5155 -0.2548
38.3400 -25.5288 -0.2556
38.3600 -25.5421 -0.2548
38.3800 -25.5555 -0.2532
38.4000 -25.5688 -0.2526
38.4200 -25.5822 -0.2520
38.4400 -25.5955 -0.2502
38.4600 -25.6088 -0.2522
38.4800 -25.6222 -0.2509
38.5000 -25.6356 -0.2507
38.5200 -25.6489 -0.2502
38.5400 -25.6622 -0.2493
38.5600 -25.6756 -0.2481
38.5800 -25.6889 -0.2498
38.6000 -25.7022 -0.2468
38.6200 -25.7155 -0.2477
38.6400 -25.7288 -0.2461
38.6600 -25.7422 -0.2473
38.6800 -25.7555 -0.2454
38.7000 -25.7688 -0.2474
38.7200 -25.7821 -0.2464
38.7400 -25.7955 -0.2454
38.7600 -25.8088 -0.2444
38.7800 -25.8222 -0.2428
38.8000 -25.8355 -0.2412
38.8200 -25.8488 -0.2430
38.8400 -25.8622 -0.2430
38.8600 -25.8756 -0.2408
38.8800 -25.8889 -0.2425
38.9000 -25.9022 -0.2402
38.9200 -25.9155 -0.2414
38.9400 -25.9289 -0.2401
38.9600 -25.9422 -0.2407
38.9800 -25.9555 -0.2399
39.0000 -25.9688 -0.2410
39.0200 -25.9822 -0.2400
39.0400 -25.9955 -0.2375
39.0600 -26.0088 -0.2368
39.0800 -26.0221 -0.2361
39.1000 -26.0355 -0.2346
39.1200 -26.0488 -0.2358
39.1400 -26.0622 -0.2352
39.1600 -26.0755 -0.2337
39.1800 -26.0888 -0.2346
39.2000 -26.1022 -0.2328
39.2200 -26.1155 -0.2322
39.2400 -26.1289 -0.2311
39.2600 -26.1422 -0.2301
39.2800 -26.1555 -0.2273
39.3000 -26.1689 -0.2300
39.3200 -26.1822 -0.2289
39.3400 -26.1955 -0.2277
39.3600 -26.2089 -0.2288
39.3800 -26.2222 -0.2279
39.4000 -26.2356 -0.2267
39.4200 -26.2488 -0.2258
39.4400 -26.2621 -0.2269
39.4600 -26.2755 -0.2243
39.4800 -26.2888 -0.2266
39.5000 -26.3022 -0.2246
39.5200 -26.3155 -0.2252
39.5400 -26.3288 -0.2220
39.5600 -26.3422 -0.2236
39.5800 -26.3556 -0.2218
39.6000 -26.3689 -0.2247
39.6200 -26.3822 -0.2224
39.6400 -26.3955 -0.2216
39.6600 -26.4089 -0.2219
39.6800 -26.4222 -0.2220
39.7000 -26.4355 -0.2211
39.7200 -26.4488 -0.2201
39.7400 -26.4622 -0.2202
39.7600 -26.4755 -0.2180
39.7800 -26.4888 -0.2187
39.8000 -26.5021 -0.2184
39.8200 -26.5155 -0.2161
39.8400 -26.5289 -0.2152
39.8600 -26.5422 -0.2158
39.8800 -26.5555 -0.2148
39.9000 -26.5688 -0.2168
39.9200 -26.5822 -0.2150
39.9400 -26.5956 -0.2156
39.9600 -26.6089 -0.2136
39.9800 -26.6222 -0.2131
40.0000 -26.6355 -0.2099
40.0200 -26.6489 -0.2115
40.0400 -26.6622 -0.2131
40.0600 -26.6755 -0.2118
40.0800 -26.6888 -0.2105
40.1000 -26.7021 -0.2114
40.1200 -26.7155 -0.2099
40.1400 -26.7288 -0.2096
40.1600 -26.7421 -0.2097
40.1800 -26.7554 -0.2067
40.2000 -26.7688 -0.2083
40.2200 -26.7822 -0.2075
40.2400 -26.7955 -0.2083
40.2600 -26.8088 -0.2085
40.2800 -26.8222 -0.2106
40.3000 -26.8355 -0.2082
40.3200 -26.8489 -0.2075
40.3400 -26.8622 -0.2050
40.3600 -26.8755 -0.2056
40.3800 -26.8889 -0.2027
40.4000 -26.9022 -0.2065
40.4200 -26.9155 -0.2027
40.4400 -26.9288 -0.2063
40.4600 -26.9422 -0.2029
40.4800 -26.9555 -0.2021
40.5000 -26.9688 -0.2014
40.5200 -26.9821 -0.2037
40.5400 -26.9954 -0.2010
40.5600 -27.0088 -0.2043
40.5800 -27.0221 -0.2029
40.6000 -27.0354 -0.2013
40.6200 -27.0487 -0.2022
40.6400 -27.0621 -0.2026
40.6600 -27.0756 -0.1982
40.6800 -27.0889 -0.1968
40.7000 -27.1022 -0.1965
40.7200 -27.1155 -0.1940
40.7400 -27.1289 -0.1959
40.7600 -27.1423 -0.1941
40.7800 -27.1556 -0.1954
40.8000 -27.1688 -0.1934
40.8200 -27.1821 -0.1952
40.8400 -27.1955 -0.1923
40.8600 -27.2088 -0.1928
40.8800 -27.2221 -0.1916
40.9000 -27.2355 -0.1899
40.9200 -27.2488 -0.1882
40.9400 -27.2622 -0.1904
40.9600 -27.2755 -0.1879
40.9800 -27.2888 -0.1888
41.0000 -27.3022 -0.1889
41.0200 -27.3156 -0.1874
41.0400 -27.3289 -0.1855
41.0600 -27.3422 -0.1866
41.0800 -27.3555 -0.1849
41.1000 -27.3689 -0.1835
41.1200 -27.3822 -0.1840
41.1400 -27.3955 -0.1837
41.1600 -27.4088 -0.1827
41.1800 -27.4222 -0.1868
41.2000 -27.4355 -0.1813
41.2200 -27.4488 -0.1844
41.2400 -27.4621 -0.1822
41.2600 -27.4754 -0.1823
41.2800 -27.4888 -0.1817
41.3000 -27.5022 -0.1809
41.3200 -27.5155 -0.1809
41.3400 -27.5288 -0.1797
41.3600 -27.5422 -0.1838
41.3800 -27.5555 -0.1804
41.4000 -27.5689 -0.1793
41.4200 -27.5822 -0.1817
41.4400 -27.5955 -0.1815
41.4600 -27.6089 -0.1818
41.4800 -27.6222 -0.1838
41.5000 -27.6355 -0.1819
41.5200 -27.6488 -0.1839
41.5400 -27.6622 -0.1853
41.5600 -27.6755 -0.1812
41.5800 -27.6888 -0.1815
41.6000 -27.7021 -0.1824
41.6200 -27.7154 -0.1840
41.6400 -27.7288 -0.1829
41.6600 -27.7421 -0.1829
41.6800 -27.7555 -0.1801
41.7000 -27.7688 -0.1790
41.7200 -27.7822 -0.1822
41.7400 -27.7956 -0.1788
41.7600 -27.8089 -0.1784
41.7800 -27.8222 -0.1810
41.8000 -27.8355 -0.1787
41.8200 -27.8489 -0.1767
41.8400 -27.8622 -0.1767
41.8600 -27.8756 -0.1762
41.8800 -27.8888 -0.1751
41.9000 -27.9022 -0.1756
41.9200 -27.9155 -0.1747
41.9400 -27.9288 -0.1721
41.9600 -27.9421 -0.1726
41.9800 -27.9555 -0.1713
42.0000 -27.9688 -0.1714
42.0200 -27.9822 -0.1715
42.0400 -27.9955 -0.1688
42.0600 -28.0088 -0.1687
42.0800 -28.0221 -0.1716
42.1000 -28.0355 -0.1701
42.1200 -28.0489 -0.1688
42.1400 -28.0622 -0.1700
42.1600 -28.0755 -0.1671
42.1800 -28.0889 -0.1647
42.2000 -28.1022 -0.1658
42.2200 -28.1156 -0.1631
42.2400 -28.1289 -0.1630
42.2600 -28.1422 -0.1653
42.2800 -28.1556 -0.1633
42.3000 -28.1689 -0.1605
42.3200 -28.1821 -0.1641
42.3400 -28.1954 -0.1605
42.3600 -28.2088 -0.1608
42.3800 -28.2222 -0.1613
42.4000 -28.2355 -0.1594
42.4200 -28.2488 -0.1577
42.4400 -28.2621 -0.1574
42.4600 -28.2755 -0.1567
42.4800 -28.2889 -0.1559
42.5000 -28.3022 -0.1596
42.5200 -28.3155 -0.1572
42.5400 -28.3289 -0.1562
42.5600 -28.3422 -0.1557
42.5800 -28.3556 -0.1559
42.6000 -28.3689 -0.1538
42.6200 -28.3822 -0.1545
42.6400 -28.3955 -0.1537
42.6600 -28.4089 -0.1533
42.6800 -28.4221 -0.1548
42.7000 -28.4354 -0.1506
42.7200 -28.4488 -0.1512
42.7400 -28.4621 -0.1515
42.7600 -28.4755 -0.1524
42.7800 -28.4888 -0.1496
42.8000 -28.5021 -0.1537
42.8200 -28.5155 -0.1491
42.8400 -28.5289 -0.1495
42.8600 -28.5422 -0.1516
42.8800 -28.5556 -0.1500
42.9000 -28.5689 -0.1479
42.9200 -28.5822 -0.1492
42.9400 -28.5956 -0.1471
42.9600 -28.6088 -0.1467
42.9800 -28.6221 -0.1487
43.0000 -28.6354 -0.1450
43.0200 -28.6488 -0.1447
43.0400 -28.6621 -0.1454
43.0600 -28.6754 -0.1448
43.0800 -28.6888 -0.1418
43.1000 -28.7022 -0.1450
43.1200 -28.7155 -0.1425
43.1400 -28.7288 -0.1442
43.1600 -28.7422 -0.1447
43.1800 -28.7556 -0.1413
43.2000 -28.7689 -0.1407
43.2200 -28.7822 -0.1414
43.2400 -28.7955 -0.1407
43.2600 -28.8089 -0.1373
43.2800 -28.8222 -0.1415
43.3000 -28.8356 -0.1394
43.3200 -28.8489 -0.1396
43.3400 -28.8622 -0.1387
43.3600 -28.8755 -0.1378
43.3800 -28.8889 -0.1332
43.4000 -28.9022 -0.1350
43.4200 -28.9155 -0.1319
43.4400 -28.9288 -0.1344
43.4600 -28.9422 -0.1341
43.4800 -28.9555 -0.1354
43.5000 -28.9688 -0.1324
43.5200 -28.9822 -0.1351
43.5400 -28.9955 -0.1322
43.5600 -29.0089 -0.1301
43.5800 -29.0222 -0.1327
43.6000 -29.0355 -0.1294
43.6200 -29.0488 -0.1290
43.6400 -29.0622 -0.1310
43.6600 -29.0756 -0.1315
43.6800 -29.0889 -0.1281
43.7000 -29.1022 -0.1310
43.7200 -29.1155 -0.1279
43.7400 -29.1288 -0.1283
43.7600 -29.1421 -0.1267
43.7800 -29.1554 -0.1279
43.8000 -29.1688 -0.1249
43.8200 -29.1822 -0.1284
43.8400 -29.1955 -0.1278
43.8600 -29.2088 -0.1272
43.8800 -29.2222 -0.1270
43.9000 -29.2355 -0.1276
43.9200 -29.2489 -0.1258
43.9400 -29.2622 -0.1285
43.9600 -29.2755 -0.1258
43.9800 -29.2888 -0.1265
44.0000 -29.3022 -0.1277
44.0200 -29.3155 -0.1266
44.0400 -29.3288 -0.1241
44.0600 -29.3422 -0.1260
44.0800 -29.3555 -0.1269
44.1000 -29.3688 -0.1249
44.1200 -29.3821 -0.1279
44.1400 -29.3954 -0.1274
44.1600 -29.4088 -0.1250
44.1800 -29.4222 -0.1271
44.2000 -29.4355 -0.1244
44.2200 -29.4488 -0.1241
44.2400 -29.4622 -0.1233
44.2600 -29.4755 -0.1238
44.2800 -29.4889 -0.1207
44.3000 -29.5022 -0.1259
44.3200 -29.5155 -0.1260
44.3400 -29.5289 -0.1255
44.3600 -29.5422 -0.1244
44.3800 -29.5556 -0.1243
44.4000 -29.5688 -0.1212
44.4200 -29.5821 -0.1232
44.4400 -29.5955 -0.1222
44.4600 -29.6088 -0.1207
44.4800 -29.6221 -0.1213
44.5000 -29.6354 -0.1201
44.5200 -29.6488 -0.1206
44.5400 -29.6621 -0.1213
44.5600 -29.6755 -0.1220
44.5800 -29.6888 -0.1178
44.6000 -29.7021 -0.1223
44.6200 -29.7155 -0.1198
44.6400 -29.7289 -0.1156
44.6600 -29.7422 -0.1146
44.6800 -29.7556 -0.1157
44.7000 -29.7689 -0.1136
44.7200 -29.7822 -0.1155
44.7400 -29.7956 -0.1149
44.7600 -29.8089 -0.1141
44.7800 -29.8222 -0.1134
44.8000 -29.8355 -0.1130
44.8200 -29.8488 -0.1095
44.8400 -29.8621 -0.1097
44.8600 -29.8754 -0.1091
44.8800 -29.8887 -0.1074
44.9000 -29.9021 -0.1074
44.9200 -29.9155 -0.1068
44.9400 -29.9288 -0.1055
44.9600 -29.9422 -0.1054
44.9800 -29.9555 -0.1055
45.0000 -29.9689 -0.1029
45.0200 -29.9823 -0.1035
45.0400 -29.9955 -0.1012
45.0600 -30.0089 -0.0999
45.0800 -30.0222 -0.1020
45.1000 -30.0356 -0.1012
45.1200 -30.0489 -0.0990
45.1400 -30.0622 -0.1005
45.1600 -30.0755 -0.0983
45.1800 -30.0888 -0.0958
45.2000 -30.1021 -0.0979
45.2200 -30.1154 -0.1000
45.2400 -30.1288 -0.0954
45.2600 -30.1422 -0.0972
45.2800 -30.1555 -0.0942
45.3000 -30.1688 -0.0944
45.3200 -30.1822 -0.0962
45.3400 -30.1955 -0.0959
45.3600 -30.2089 -0.0942
45.3800 -30.2222 -0.0963
45.4000 -30.2354 -0.0979
45.4200 -30.2488 -0.0955
45.4400 -30.2622 -0.0963
45.4600 -30.2755 -0.0929
45.4800 -30.2889 -0.0929
45.5000 -30.3022 -0.0922
45.5200 -30.3155 -0.0941
45.5400 -30.3289 -0.0928
45.5600 -30.3422 -0.0945
45.5800 -30.3555 -0.0939
45.6000 -30.3688 -0.0933
45.6200 -30.3821 -0.0906
45.6400 -30.3955 -0.0924
45.6600 -30.4088 -0.0906
45.6800 -30.4221 -0.0929
45.7000 -30.4355 -0.0913
45.7200 -30.4489 -0.0900
45.7400 -30.4622 -0.0892
45.7600 -30.4755 -0.0916
45.7800 -30.4889 -0.0892
45.8000 -30.5022 -0.0900
45.8200 -30.5156 -0.0892
45.8400 -30.5289 -0.0888
45.8600 -30.5422 -0.0889
45.8800 -30.5555 -0.0892
45.9000 -30.5689 -0.0853
45.9200 -30.5822 -0.0881
45.9400 -30.5954 -0.0858
45.9600 -30.6088 -0.0842
45.9800 -30.6221 -0.0834
46.0000 -30.6355 -0.0852
46.0200 -30.6488 -0.0805
46.0400 -30.6621 -0.0819
46.0600 -30.6755 -0.0810
46.0800 -30.6888 -0.0824
46.1000 -30.7022 -0.0824
46.1200 -30.7155 -0.0833
46.1400 -30.7289 -0.0787
46.1600 -30.7422 -0.0802
46.1800 -30.7556 -0.0809
46.2000 -30.7689 -0.0795
46.2200 -30.7822 -0.0808
46.2400 -30.7955 -0.0803
46.2600 -30.8089 -0.0765
46.2800 -30.8222 -0.0773
46.3000 -30.8355 -0.0778
46.3200 -30.8488 -0.0740
46.3400 -30.8621 -0.0755
46.3600 -30.8755 -0.0747
46.3800 -30.8888 -0.0749
46.4000 -30.9021 -0.0733
46.4200 -30.9155 -0.0751
46.4400 -30.9289 -0.0717
46.4600 -30.9422 -0.0737
46.4800 -30.9555 -0.0729
46.5000 -30.9688 -0.0724
46.5200 -30.9822 -0.0708
46.5400 -30.9956 -0.0730
46.5600 -31.0089 -0.0694
46.5800 -31.0222 -0.0722
46.6000 -31.0355 -0.0697
46.6200 -31.0489 -0.0675
46.6400 -31.0622 -0.0675
46.6600 -31.0755 -0.0698
46.6800 -31.0888 -0.0664
46.7000 -31.1021 -0.0684
46.7200 -31.1155 -0.0671
46.7400 -31.1288 -0.0657
46.7600 -31.1422 -0.0646
46.7800 -31.1555 -0.0663
46.8000 -31.1689 -0.0620
46.8200 -31.1822 -0.0639
46.8400 -31.1955 -0.0653
46.8600 -31.2088 -0.0620
46.8800 -31.2222 -0.0616
46.9000 -31.2355 -0.0623
46.9200 -31.2488 -0.0603
46.9400 -31.2622 -0.0616
46.9600 -31.2755 -0.0618
46.9800 -31.2888 -0.0601
47.0000 -31.3022 -0.0595
47.0200 -31.3154 -0.0596
47.0400 -31.3288 -0.0568
47.0600 -31.3421 -0.0568
47.0800 -31.3555 -0.0573
47.1000 -31.3689 -0.0560
47.1200 -31.3822 -0.0574
47.1400 -31.3955 -0.0565
47.1600 -31.4089 -0.0543
47.1800 -31.4222 -0.0532
47.2000 -31.4355 -0.0558
47.2200 -31.4488 -0.0544
47.2400 -31.4622 -0.0549
47.2600 -31.4755 -0.0546
47.2800 -31.4889 -0.0519
47.3000 -31.5022 -0.0525
47.3200 -31.5155 -0.0527
47.3400 -31.5288 -0.0502
47.3600 -31.5422 -0.0508
47.3800 -31.5555 -0.0508
47.4000 -31.5688 -0.0485
47.4200 -31.5821 -0.0482
47.4400 -31.5955 -0.0493
47.4600 -31.6088 -0.0467
47.4800 -31.6221 -0.0482
47.5000 -31.6355 -0.0470
47.5200 -31.6489 -0.0472
47.5400 -31.6622 -0.0453
47.5600 -31.6755 -0.0486
47.5800 -31.6888 -0.0457
47.6000 -31.7022 -0.0454
47.6200 -31.7155 -0.0448
47.6400 -31.7289 -0.0440
47.6600 -31.7422 -0.0445
47.6800 -31.7555 -0.0449
47.7000 -31.7689 -0.0433
47.7200 -31.7822 -0.0428
47.7400 -31.7955 -0.0462
47.7600 -31.8088 -0.0435
47.7800 -31.8221 -0.0431
47.8000 -31.8354 -0.0440
47.8200 -31.8488 -0.0434
47.8400 -31.8621 -0.0432
47.8600 -31.8754 -0.0450
47.8800 -31.8888 -0.0394
47.9000 -31.9022 -0.0392
47.9200 -31.9155 -0.0395
47.9400 -31.9289 -0.0381
47.9600 -31.9422 -0.0376
47.9800 -31.9556 -0.0363
48.0000 -31.9689 -0.0354
48.0200 -31.9822 -0.0378
48.0400 -31.9955 -0.0364
48.0600 -32.0088 -0.0341
48.0800 -32.0222 -0.0328
48.1000 -32.0355 -0.0335
48.1200 -32.0488 -0.0333
48.1400 -32.0621 -0.0324
48.1600 -32.0755 -0.0347
48.1800 -32.0888 -0.0315
48.2000 -32.1021 -0.0303
48.2200 -32.1155 -0.0311
48.2400 -32.1289 -0.0280
48.2600 -32.1423 -0.0263
48.2800 -32.1556 -0.0282
48.3000 -32.1689 -0.0264
48.3200 -32.1822 -0.0267
48.3400 -32.1955 -0.0260
48.3600 -32.2089 -0.0247
48.3800 -32.2222 -0.0240
48.4000 -32.2355 -0.0264
48.4200 -32.2488 -0.0249
48.4400 -32.2622 -0.0254
48.4600 -32.2755 -0.0271
48.4800 -32.2888 -0.0253
48.5000 -32.3021 -0.0231
48.5200 -32.3155 -0.0232
48.5400 -32.3288 -0.0238
48.5600 -32.3421 -0.0223
48.5800 -32.3555 -0.0242
48.6000 -32.3689 -0.0233
48.6200 -32.3822 -0.0204
48.6400 -32.3955 -0.0221
48.6600 -32.4089 -0.0222
48.6800 -32.4222 -0.0203
48.7000 -32.4356 -0.0222
48.7200 -32.4489 -0.0192
48.7400 -32.4622 -0.0184
48.7600 -32.4755 -0.0213
48.7800 -32.4888 -0.0203
48.8000 -32.5022 -0.0205
48.8200 -32.5155 -0.0189
48.8400 -32.5288 -0.0199
48.8600 -32.5421 -0.0183
48.8800 -32.5555 -0.0184
48.9000 -32.5688 -0.0174
48.9200 -32.5821 -0.0191
48.9400 -32.5955 -0.0198
48.9600 -32.6089 -0.0173
48.9800 -32.6223 -0.0147
49.0000 -32.6356 -0.0168
49.0200 -32.6489 -0.0138
49.0400 -32.6622 -0.0151
49.0600 -32.6756 -0.0140
49.0800 -32.6889 -0.0130
49.1000 -32.7022 -0.0133
49.1200 -32.7155 -0.0142
49.1400 -32.7289 -0.0166
49.1600 -32.7422 -0.0120
49.1800 -32.7555 -0.0147
49.2000 -32.7688 -0.0102
49.2200 -32.7821 -0.0114
49.2400 -32.7955 -0.0110
49.2600 -32.8088 -0.0118
49.2800 -32.8221 -0.0093
49.3000 -32.8355 -0.0102
49.3200 -32.8488 -0.0085
49.3400 -32.8622 -0.0106
49.3600 -32.8755 -0.0078
49.3800 -32.8888 -0.0088
49.4000 -32.9022 -0.0066
49.4200 -32.9156 -0.0087
49.4400 -32.9289 -0.0085
49.4600 -32.9422 -0.0090
49.4800 -32.9555 -0.0076
49.5000 -32.9689 -0.0053
49.5200 -32.9822 -0.0036
49.5400 -32.9955 -0.0057
49.5600 -33.0088 -0.0046
49.5800 -33.0221 -0.0025
49.6000 -33.0355 -0.0047
49.6200 -33.0488 -0.0029
49.6400 -33.0621 -0.0026
49.6600 -33.0754 -0.0042
49.6800 -33.0888 -0.0035
49.7000 -33.1022 -0.0001
49.7200 -33.1155 -0.0022
49.7400 -33.1288 -0.0013
49.7600 -33.1422 -0.0001
49.7800 -33.1555 -0.0009
49.8000 -33.1689 0.0002
49.8200 -33.1822 0.0030
49.8400 -33.1955 0.0010
49.8600 -33.2089 0.0019
49.8800 -33.2222 0.0041
49.9000 -33.2355 0.0034
49.9200 -33.2488 0.0029
49.9400 -33.2621 0.0049
49.9600 -33.2755 0.0030
49.9800 -33.2888 0.0041
50.0000 -33.3021 0.0052
50.0200 -33.3155 0.0031
50.0400 -33.3288 0.0049
50.0600 -33.3422 0.0059
50.0800 -33.3556 0.0038
50.1000 -33.3689 0.0065
50.1200 -33.3822 0.0049
50.1400 -33.3956 0.0058
50.1600 -33.4089 0.0044
50.1800 -33.4222 0.0088
50.2000 -33.4355 0.0077
50.2200 -33.4488 0.0101
50.2400 -33.4621 0.0116
50.2600 -33.4754 0.0124
50.2800 -33.4887 0.0104
50.3000 -33.5021 0.0148
50.3200 -33.5155 0.0118
50.3400 -33.5288 0.0138
50.3600 -33.5422 0.0137
50.3800 -33.5555 0.0153
50.4000 -33.5689 0.0147
50.4200 -33.5823 0.0174
50.4400 -33.5956 0.0169
50.4600 -33.6089 0.0181
50.4800 -33.6222 0.0204
50.5000 -33.6356 0.0204
50.5200 -33.6489 0.0220
50.5400 -33.6622 0.0225
50.5600 -33.6755 0.0223
50.5800 -33.6889 0.0209
50.6000 -33.7022 0.0247
50.6200 -33.7155 0.0226
50.6400 -33.7288 0.0238
50.6600 -33.7421 0.0238
50.6800 -33.7555 0.0254
50.7000 -33.7689 0.0239
50.7200 -33.7822 0.0275
50.7400 -33.7955 0.0270
50.7600 -33.8088 0.0267
50.7800 -33.8222 0.0278
50.8000 -33.8356 0.0258
50.8200 -33.8489 0.0253
50.8400 -33.8622 0.0290
50.8600 -33.8755 0.0279
50.8800 -33.8889 0.0269
50.9000 -33.9022 0.0288
50.9200 -33.9155 0.0270
50.9400 -33.9288 0.0285
50.9600 -33.9422 0.0303
50.9800 -33.9555 0.0312
51.0000 -33.9687 0.0301
51.0200 -33.9820 0.0292
51.0400 -33.9954 0.0301
51.0600 -34.0088 0.0297
51.0800 -34.0221 0.0316
51.1000 -34.0355 0.0312
51.1200 -34.0488 0.0315
51.1400 -34.0622 0.0321
51.1600 -34.0756 0.0324
51.1800 -34.0889 0.0315
51.2000 -34.1022 0.0318
51.2200 -34.1155 0.0290
51.2400 -34.1289 0.0307
51.2600 -34.1422 0.0326
51.2800 -34.1555 0.0338
51.3000 -34.1688 0.0323
51.3200 -34.1822 0.0335
51.3400 -34.1955 0.0314
51.3600 -34.2088 0.0323
51.3800 -34.2221 0.0351
51.4000 -34.2355 0.0348
51.4200 -34.2489 0.0358
51.4400 -34.2622 0.0355
51.4600 -34.2755 0.0353
51.4800 -34.2888 0.0368
51.5000 -34.3022 0.0375
51.5200 -34.3156 0.0367
51.5400 -34.3289 0.0383
51.5600 -34.3422 0.0378
51.5800 -34.3556 0.0373
51.6000 -34.3689 0.0376
51.6200 -34.3822 0.0397
51.6400 -34.3955 0.0393
51.6600 -34.4089 0.0391
51.6800 -34.4222 0.0409
51.7000 -34.4355 0.0400
51.7200 -34.4488 0.0411
51.7400 -34.4621 0.0436
51.7600 -34.4754 0.0426
51.7800 -34.4888 0.0427
51.8000 -34.5022 0.0441
51.8200 -34.5155 0.0441
51.8400 -34.5288 0.0457
51.8600 -34.5422 0.0463
51.8800 -34.5556 0.0494
51.9000 -34.5689 0.0479
51.9200 -34.5822 0.0505
51.9400 -34.5956 0.0489
51.9600 -34.6089 0.0499
51.9800 -34.6222 0.0493
52.0000 -34.6355 0.0524
52.0200 -34.6488 0.0498
52.0400 -34.6622 0.0526
52.0600 -34.6755 0.0522
52.0800 -34.6888 0.0530
52.1000 -34.7021 0.0551
52.1200 -34.7154 0.0564
52.1400 -34.7288 0.0561
52.1600 -34.7421 0.0571
52.1800 -34.7555 0.0580
52.2000 -34.7688 0.0553
52.2200 -34.7822 0.0577
52.2400 -34.7956 0.0575
52.2600 -34.8089 0.0578
52.2800 -34.8222 0.0584
52.3000 -34.8355 0.0595
52.3200 -34.8489 0.0578
52.3400 -34.8622 0.0606
52.3600 -34.8755 0.0615
52.3800 -34.8888 0.0614
52.4000 -34.9021 0.0641
52.4200 -34.9155 0.0638
52.4400 -34.9288 0.0636
52.4600 -34.9421 0.0663
52.4800 -34.9554 0.0637
52.5000 -34.9689 0.0657
52.5200 -34.9822 0.0685
52.5400 -34.9955 0.0683
52.5600 -35.0088 0.0680
52.5800 -35.0222 0.0705
52.6000 -35.0355 0.0690
52.6200 -35.0488 0.0718
52.6400 -35.0621 0.0704
52.6600 -35.0754 0.0741
52.6800 -35.0888 0.0712
52.7000 -35.1022 0.0751
52.7200 -35.1155 0.0722
52.7400 -35.1288 0.0745
52.7600 -35.1422 0.0739
52.7800 -35.1556 0.0743
52.8000 -35.1688 0.0729
52.8200 -35.1821 0.0750
52.8400 -35.1955 0.0743
52.8600 -35.2088 0.0763
52.8800 -35.2221 0.0745
52.9000 -35.2355 0.0747
52.9200 -35.2488 0.0745
52.9400 -35.2622 0.0772
52.9600 -35.2756 0.0760
52.9800 -35.2889 0.0765
53.0000 -35.3022 0.0781
53.0200 -35.3155 0.0793
53.0400 -35.3289 0.0777
53.0600 -35.3423 0.0782
53.0800 -35.3555 0.0778
53.1000 -35.3689 0.0791
53.1200 -35.3822 0.0800
53.1400 -35.3955 0.0804
53.1600 -35.4088 0.0811
53.1800 -35.4221 0.0812
53.2000 -35.4354 0.0826
53.2200 -35.4488 0.0814
53.2400 -35.4622 0.0850
53.2600 -35.4755 0.0815
53.2800 -35.4888 0.0828
53.3000 -35.5022 0.0835
53.3200 -35.5155 0.0849
53.3400 -35.5289 0.0826
53.3600 -35.5422 0.0833
53.3800 -35.5555 0.0847
53.4000 -35.5689 0.0848
53.4200 -35.5822 0.0859
53.4400 -35.5955 0.0880
53.4600 -35.6088 0.0863
53.4800 -35.6222 0.0863
53.5000 -35.6355 0.0866
53.5200 -35.6488 0.0868
53.5400 -35.6621 0.0873
53.5600 -35.6754 0.0890
53.5800 -35.6888 0.0886
53.6000 -35.7022 0.0906
53.6200 -35.7155 0.0885
53.6400 -35.7288 0.0902
53.6600 -35.7421 0.0901
53.6800 -35.7555 0.0927
53.7000 -35.7689 0.0902
53.7200 -35.7822 0.0925
53.7400 -35.7955 0.0909
53.7600 -35.8089 0.0942
53.7800 -35.8222 0.0929
53.8000 -35.8355 0.0931
53.8200 -35.8489 0.0928
53.8400 -35.8622 0.0963
53.8600 -35.8755 0.0945
53.8800 -35.8888 0.0934
53.9000 -35.9021 0.0961
53.9200 -35.9155 0.0964
53.9400 -35.9288 0.0976
53.9600 -35.9422 0.0974
53.9800 -35.9555 0.0980
54.0000 -35.9688 0.0971
54.0200 -35.9822 0.0975
54.0400 -35.9956 0.0974
54.0600 -36.0089 0.1010
54.0800 -36.0222 0.1025
54.1000 -36.0355 0.1020
54.1200 -36.0489 0.1016
54.1400 -36.0622 0.1028
54.1600 -36.0755 0.1020
54.1800 -36.0888 0.1023
54.2000 -36.1022 0.1014
54.2200 -36.1155 0.1031
54.2400 -36.1288 0.1043
54.2600 -36.1421 0.1037
54.2800 -36.1555 0.1023
54.3000 -36.1688 0.1038
54.3200 -36.1822 0.1061
54.3400 -36.1955 0.1066
54.3600 -36.2088 0.1056
54.3800 -36.2222 0.1073
54.4000 -36.2356 0.1064
54.4200 -36.2489 0.1082
54.4400 -36.2622 0.1071
54.4600 -36.2755 0.1108
54.4800 -36.2888 0.1076
54.5000 -36.3022 0.1101
54.5200 -36.3155 0.1106
54.5400 -36.3288 0.1114
54.5600 -36.3421 0.1116
54.5800 -36.3555 0.1134
54.6000 -36.3688 0.1129
54.6200 -36.3821 0.1146
54.6400 -36.3955 0.1144
54.6600 -36.4088 0.1162
54.6800 -36.4222 0.1175
54.7000 -36.4355 0.1172
54.7200 -36.4488 0.1185
54.7400 -36.4622 0.1189
54.7600 -36.4755 0.1200
54.7800 -36.4889 0.1196
54.8000 -36.5022 0.1209
54.8200 -36.5155 0.1205
54.8400 -36.5289 0.1202
54.8600 -36.5422 0.1218
54.8800 -36.5555 0.1225
54.9000 -36.5689 0.1218
54.9200 -36.5822 0.1240
54.9400 -36.5956 0.1269
54.9600 -36.6089 0.1268
54.9800 -36.6221 0.1276
55.0000 -36.6355 0.1264
55.0200 -36.6488 0.1291
55.0400 -36.6621 0.1267
55.0600 -36.6754 0.1277
55.0800 -36.6887 0.1256
55.1000 -36.7021 0.1294
55.1200 -36.7155 0.1301
55.1400 -36.7289 0.1322
55.1600 -36.7422 0.1309
55.1800 -36.7555 0.1327
55.2000 -36.7689 0.1328
55.2200 -36.7823 0.1335
55.2400 -36.7956 0.1326
55.2600 -36.8089 0.1346
55.2800 -36.8222 0.1336
55.3000 -36.8355 0.1358
55.3200 -36.8488 0.1342
55.3400 -36.8621 0.1359
55.3600 -36.8754 0.1364
55.3800 -36.8888 0.1369
55.4000 -36.9022 0.1367
55.4200 -36.9155 0.1379
55.4400 -36.9288 0.1356
55.4600 -36.9422 0.1382
55.4800 -36.9555 0.1375
55.5000 -36.9689 0.1395
55.5200 -36.9822 0.1370
55.5400 -36.9955 0.1402
55.5600 -37.0089 0.1393
55.5800 -37.0222 0.1415
55.6000 -37.0355 0.1388
55.6200 -37.0488 0.1415
55.6400 -37.0622 0.1410
55.6600 -37.0755 0.1427
55.6800 -37.0888 0.1421
55.7000 -37.1021 0.1436
55.7200 -37.1154 0.1460
55.7400 -37.1288 0.1465
55.7600 -37.1422 0.1472
55.7800 -37.1555 0.1447
55.8000 -37.1688 0.1484
55.8200 -37.1822 0.1473
55.8400 -37.1955 0.1508
55.8600 -37.2089 0.1508
55.8800 -37.2222 0.1516
55.9000 -37.2355 0.1518
55.9200 -37.2489 0.1541
55.9400 -37.2623 0.1525
55.9600 -37.2756 0.1533
55.9800 -37.2889 0.1533
56.0000 -37.3022 0.1558
56.0200 -37.3155 0.1538
56.0400 -37.3288 0.1569
56.0600 -37.3421 0.1550
56.0800 -37.3554 0.1575
56.1000 -37.3688 0.1590
56.1200 -37.3822 0.1588
56.1400 -37.3955 0.1575
56.1600 -37.4088 0.1577
56.1800 -37.4221 0.1586
56.2000 -37.4355 0.1601
56.2200 -37.4489 0.1603
56.2400 -37.4622 0.1604
56.2600 -37.4755 0.1620
56.2800 -37.4889 0.1625
56.3000 -37.5023 0.1625
56.3200 -37.5156 0.1635
56.3400 -37.5289 0.1630
56.3600 -37.5422 0.1644
56.3800 -37.5555 0.1641
56.4000 -37.5689 0.1656
56.4200 -37.5821 0.1631
56.4400 -37.5955 0.1642
56.4600 -37.6088 0.1641
56.4800 -37.6222 0.1678
56.5000 -37.6355 0.1669
56.5200 -37.6488 0.1677
56.5400 -37.6621 0.1667
56.5600 -37.6755 0.1668
56.5800 -37.6889 0.1689
56.6000 -37.7022 0.1700
56.6200 -37.7155 0.1700
56.6400 -37.7288 0.1699
56.6600 -37.7422 0.1703
56.6800 -37.7556 0.1721
56.7000 -37.7689 0.1733
56.7200 -37.7822 0.1726
56.7400 -37.7956 0.1759
56.7600 -37.8089 0.1744
56.7800 -37.8222 0.1752
56.8000 -37.8355 0.1747
56.8200 -37.8488 0.1767
56.8400 -37.8622 0.1765
56.8600 -37.8755 0.1794
56.8800 -37.8888 0.1785
56.9000 -37.9021 0.1797
56.9200 -37.9155 0.1786
56.9400 -37.9289 0.1819
56.9600 -37.9422 0.1802
56.9800 -37.9555 0.1795
57.0000 -37.9689 0.1803
57.0200 -37.9822 0.1823
57.0400 -37.9956 0.1828
57.0600 -38.0089 0.1837
57.0800 -38.0222 0.1829
57.1000 -38.0355 0.1839
57.1200 -38.0489 0.1849
57.1400 -38.0621 0.1836
57.1600 -38.0754 0.1845
57.1800 -38.0888 0.1876
57.2000 -38.1021 0.1868
57.2200 -38.1155 0.1877
57.2400 -38.1288 0.1859
57.2600 -38.1421 0.1881
57.2800 -38.1555 0.1873
57.3000 -38.1689 0.1886
57.3200 -38.1822 0.1896
57.3400 -38.1956 0.1901
57.3600 -38.2089 0.1903
57.3800 -38.2223 0.1904
57.4000 -38.2356 0.1917
57.4200 -38.2488 0.1939
57.4400 -38.2621 0.1935
57.4600 -38.2754 0.1936
57.4800 -38.2888 0.1955
57.5000 -38.3021 0.1935
57.5200 -38.3154 0.1952
57.5400 -38.3288 0.1964
57.5600 -38.3421 0.1998
57.5800 -38.3555 0.1985
57.6000 -38.3688 0.1996
57.6200 -38.3822 0.1979
57.6400 -38.3955 0.1991
57.6600 -38.4089 0.2000
57.6800 -38.4222 0.2013
57.7000 -38.4355 0.2024
57.7200 -38.4489 0.2031
57.7400 -38.4622 0.2033
57.7600 -38.4756 0.2031
57.7800 -38.4889 0.2043
57.8000 -38.5022 0.2061
57.8200 -38.5155 0.2090
57.8400 -38.5289 0.2072
57.8600 -38.5422 0.2084
57.8800 -38.5555 0.2060
57.9000 -38.5688 0.2107
57.9200 -38.5822 0.2104
57.9400 -38.5955 0.2121
57.9600 -38.6088 0.2132
57.9800 -38.6221 0.2112
58.0000 -38.6355 0.2129
58.0200 -38.6489 0.2142
58.0400 -38.6622 0.2157
58.0600 -38.6755 0.2156
58.0800 -38.6888 0.2144
58.1000 -38.7022 0.2150
58.1200 -38.7155 0.2152
58.1400 -38.7288 0.2153
58.1600 -38.7422 0.2159
58.1800 -38.7555 0.2173
58.2000 -38.7689 0.2177
58.2200 -38.7822 0.2186
58.2400 -38.7954 0.2182
58.2600 -38.8088 0.2213
58.2800 -38.8221 0.2199
58.3000 -38.8355 0.2218
58.3200 -38.8488 0.2216
58.3400 -38.8622 0.2233
58.3600 -38.8755 0.2224
58.3800 -38.8889 0.2253
58.4000 -38.9022 0.2258
58.4200 -38.9155 0.2265
58.4400 -38.9288 0.2273
58.4600 -38.9422 0.2281
58.4800 -38.9555 0.2272
58.5000 -38.9688 0.2292
58.5200 -38.9822 0.2313
58.5400 -38.9955 0.2302
58.5600 -39.0088 0.2340
58.5800 -39.0221 0.2321
58.6000 -39.0354 0.2334
58.6200 -39.0488 0.2322
58.6400 -39.0622 0.2338
58.6600 -39.0755 0.2338
58.6800 -39.0889 0.2342
58.7000 -39.1022 0.2354
58.7200 -39.1155 0.2361
58.7400 -39.1289 0.2364
58.7600 -39.1422 0.2383
58.7800 -39.1555 0.2345
58.8000 -39.1688 0.2374
58.8200 -39.1822 0.2353
58.8400 -39.1956 0.2372
58.8600 -39.2089 0.2391
58.8800 -39.2222 0.2418
58.9000 -39.2355 0.2404
58.9200 -39.2488 0.2411
58.9400 -39.2621 0.2422
58.9600 -39.2754 0.2413
58.9800 -39.2887 0.2426
59.0000 -39.3021 0.2440
59.0200 -39.3155 0.2433
59.0400 -39.3288 0.2463
59.0600 -39.3421 0.2462
59.0800 -39.3555 0.2471
59.1000 -39.3689 0.2491
59.1200 -39.3822 0.2499
59.1400 -39.3955 0.2474
59.1600 -39.4089 0.2492
59.1800 -39.4222 0.2498
59.2000 -39.4356 0.2496
59.2200 -39.4489 0.2494
59.2400 -39.4622 0.2510
59.2600 -39.4755 0.2496
59.2800 -39.4888 0.2510
59.3000 -39.5021 0.2528
59.3200 -39.5154 0.2515
59.3400 -39.5287 0.2550
59.3600 -39.5421 0.2541
59.3800 -39.5555 0.2552
59.4000 -39.5688 0.2558
59.4200 -39.5821 0.2559
59.4400 -39.5955 0.2565
59.4600 -39.6089 0.2578
59.4800 -39.6223 0.2569
59.5000 -39.6355 0.2570
59.5200 -39.6489 0.2588
59.5400 -39.6622 0.2623
59.5600 -39.6756 0.2596
59.5800 -39.6889 0.2625
59.6000 -39.7022 0.2614
59.6200 -39.7155 0.2629
59.6400 -39.7288 0.2622
59.6600 -39.7421 0.2655
59.6800 -39.7554 0.2634
59.7000 -39.7688 0.2668
59.7200 -39.7821 0.2651
59.7400 -39.7955 0.2676
59.7600 -39.8088 0.2688
59.7800 -39.8222 0.2739
59.8000 -39.8355 0.2726
59.8200 -39.8489 0.2744
59.8400 -39.8622 0.2762
59.8600 -39.8755 0.2745
59.8800 -39.8888 0.2762
59.9000 -39.9021 0.2758
59.9200 -39.9155 0.2765
59.9400 -39.9289 0.2773
59.9600 -39.9422 0.2816
59.9800 -39.9555 0.2771
60.0000 -39.9689 0.2796
60.0200 -39.9822 0.2781
60.0400 -39.9955 0.2806
60.0470 -40.0000 0.2849
