Raw Data
Time Displacement Force
(s) (mm) (N)
0.0000 0.0000 -0.7179
0.0200 -0.0001 -0.7184
0.0400 -0.0020 -0.7328
0.0600 -0.0094 -0.7331
0.0800 -0.0213 -0.7229
0.1000 -0.0339 -0.7221
0.1200 -0.0467 -0.7226
0.1400 -0.0600 -0.7238
0.1600 -0.0739 -0.7208
0.1800 -0.0880 -0.7184
0.2000 -0.1018 -0.7194
0.2200 -0.1154 -0.7167
0.2400 -0.1288 -0.7175
0.2600 -0.1421 -0.7141
0.2800 -0.1554 -0.7162
0.3000 -0.1687 -0.7137
0.3200 -0.1821 -0.7179
0.3400 -0.1954 -0.7128
0.3600 -0.2088 -0.7139
0.3800 -0.2220 -0.7097
0.4000 -0.2354 -0.7131
0.4200 -0.2487 -0.7098
0.4400 -0.2621 -0.7107
0.4600 -0.2754 -0.7110
0.4800 -0.2888 -0.7091
0.5000 -0.3021 -0.7059
0.5200 -0.3155 -0.7063
0.5400 -0.3288 -0.7049
0.5600 -0.3421 -0.7035
0.5800 -0.3554 -0.7035
0.6000 -0.3688 -0.7005
0.6200 -0.3822 -0.7003
0.6400 -0.3955 -0.6963
0.6600 -0.4088 -0.6982
0.6800 -0.4221 -0.6954
0.7000 -0.4355 -0.6966
0.7200 -0.4488 -0.6916
0.7400 -0.4620 -0.6911
0.7600 -0.4754 -0.6891
0.7800 -0.4888 -0.6887
0.8000 -0.5021 -0.6866
0.8200 -0.5155 -0.6842
0.8400 -0.5288 -0.6821
0.8600 -0.5421 -0.6810
0.8800 -0.5555 -0.6790
0.9000 -0.5688 -0.6776
0.9200 -0.5821 -0.6784
0.9400 -0.5954 -0.6755
0.9600 -0.6088 -0.6753
0.9800 -0.6222 -0.6700
1.0000 -0.6355 -0.6697
1.0200 -0.6488 -0.6677
1.0400 -0.6621 -0.6652
1.0600 -0.6754 -0.6633
1.0800 -0.6887 -0.6617
1.1000 -0.7020 -0.6607
1.1200 -0.7153 -0.6592
1.1400 -0.7287 -0.6584
1.1600 -0.7421 -0.6547
1.1800 -0.7554 -0.6533
1.2000 -0.7688 -0.6516
1.2200 -0.7821 -0.6504
1.2400 -0.7955 -0.6507
1.2600 -0.8089 -0.6491
1.2800 -0.8222 -0.6479
1.3000 -0.8355 -0.6480
1.3200 -0.8488 -0.6494
1.3400 -0.8622 -0.6440
1.3600 -0.8755 -0.6449
1.3800 -0.8888 -0.6420
1.4000 -0.9021 -0.6421
1.4200 -0.9155 -0.6391
1.4400 -0.9287 -0.6376
1.4600 -0.9420 -0.6379
1.4800 -0.9553 -0.6368
1.5000 -0.9687 -0.6358
1.5200 -0.9821 -0.6329
1.5400 -0.9954 -0.6330
1.5600 -1.0087 -0.6318
1.5800 -1.0221 -0.6291
1.6000 -1.0355 -0.6278
1.6200 -1.0489 -0.6261
1.6400 -1.0622 -0.6251
1.6600 -1.0755 -0.6229
1.6800 -1.0888 -0.6222
1.7000 -1.1022 -0.6205
1.7200 -1.1155 -0.6188
1.7400 -1.1288 -0.6186
1.7600 -1.1421 -0.6160
1.7800 -1.1555 -0.6155
1.8000 -1.1688 -0.6116
1.8200 -1.1821 -0.6124
1.8400 -1.1954 -0.6113
1.8600 -1.2088 -0.6105
1.8800 -1.2221 -0.6078
1.9000 -1.2355 -0.6073
1.9200 -1.2488 -0.6056
1.9400 -1.2621 -0.6054
1.9600 -1.2755 -0.6043
1.9800 -1.2888 -0.6042
2.0000 -1.3021 -0.6033
2.0200 -1.3154 -0.5992
2.0400 -1.3288 -0.5981
2.0600 -1.3421 -0.5984
2.0800 -1.3555 -0.5967
2.1000 -1.3688 -0.5970
2.1200 -1.3821 -0.5956
2.1400 -1.3955 -0.5911
2.1600 -1.4088 -0.5922
2.1800 -1.4221 -0.5907
2.2000 -1.4354 -0.5915
2.2200 -1.4488 -0.5887
2.2400 -1.4621 -0.5900
2.2600 -1.4754 -0.5850
2.2800 -1.4888 -0.5866
2.3000 -1.5021 -0.5831
2.3200 -1.5155 -0.5835
2.3400 -1.5289 -0.5817
2.3600 -1.5422 -0.5816
2.3800 -1.5555 -0.5805
2.4000 -1.5688 -0.5801
2.4200 -1.5822 -0.5798
2.4400 -1.5955 -0.5772
2.4600 -1.6088 -0.5765
2.4800 -1.6221 -0.5743
2.5000 -1.6355 -0.5732
2.5200 -1.6488 -0.5713
2.5400 -1.6621 -0.5725
2.5600 -1.6754 -0.5681
2.5800 -1.6887 -0.5674
2.6000 -1.7021 -0.5651
2.6200 -1.7155 -0.5656
2.6400 -1.7288 -0.5647
2.6600 -1.7421 -0.5628
2.6800 -1.7555 -0.5594
2.7000 -1.7688 -0.5621
2.7200 -1.7821 -0.5586
2.7400 -1.7954 -0.5600
2.7600 -1.8088 -0.5550
2.7800 -1.8222 -0.5574
2.8000 -1.8355 -0.5551
2.8200 -1.8488 -0.5565
2.8400 -1.8621 -0.5546
2.8600 -1.8755 -0.5527
2.8800 -1.8888 -0.5509
2.9000 -1.9021 -0.5509
2.9200 -1.9154 -0.5497
2.9400 -1.9287 -0.5472
2.9600 -1.9421 -0.5494
2.9800 -1.9554 -0.5455
3.0000 -1.9688 -0.5487
3.0200 -1.9821 -0.5452
3.0400 -1.9955 -0.5459
3.0600 -2.0088 -0.5440
3.0800 -2.0221 -0.5447
3.1000 -2.0355 -0.5400
3.1200 -2.0488 -0.5413
3.1400 -2.0622 -0.5368
3.1600 -2.0755 -0.5389
3.1800 -2.0888 -0.5391
3.2000 -2.1021 -0.5369
3.2200 -2.1155 -0.5324
3.2400 -2.1288 -0.5324
3.2600 -2.1421 -0.5305
3.2800 -2.1554 -0.5327
3.3000 -2.1687 -0.5298
3.3200 -2.1821 -0.5318
3.3400 -2.1955 -0.5260
3.3600 -2.2088 -0.5287
3.3800 -2.2221 -0.5240
3.4000 -2.2355 -0.5266
3.4200 -2.2489 -0.5208
3.4400 -2.2622 -0.5225
3.4600 -2.2755 -0.5192
3.4800 -2.2888 -0.5210
3.5000 -2.3021 -0.5185
3.5200 -2.3155 -0.5178
3.5400 -2.3288 -0.5169
3.5600 -2.3421 -0.5146
3.5800 -2.3555 -0.5143
3.6000 -2.3688 -0.5130
3.6200 -2.3821 -0.5138
3.6400 -2.3954 -0.5097
3.6600 -2.4087 -0.5092
3.6800 -2.4221 -0.5064
3.7000 -2.4355 -0.5066
3.7200 -2.4488 -0.5040
3.7400 -2.4621 -0.5069
3.7600 -2.4755 -0.5024
3.7800 -2.4889 -0.5051
3.8000 -2.5022 -0.4995
3.8200 -2.5155 -0.5019
3.8400 -2.5288 -0.4962
3.8600 -2.5422 -0.5003
3.8800 -2.5555 -0.4914
3.9000 -2.5688 -0.4933
3.9200 -2.5821 -0.4903
3.9400 -2.5954 -0.4945
3.9600 -2.6088 -0.4908
3.9800 -2.6221 -0.4939
4.0000 -2.6354 -0.4897
4.0200 -2.6487 -0.4883
4.0400 -2.6621 -0.4866
4.0600 -2.6755 -0.4859
4.0800 -2.6888 -0.4833
4.1000 -2.7021 -0.4831
4.1200 -2.7155 -0.4831
4.1400 -2.7288 -0.4825
4.1600 -2.7421 -0.4819
4.1800 -2.7554 -0.4782
4.2000 -2.7688 -0.4798
4.2200 -2.7821 -0.4776
4.2400 -2.7955 -0.4776
4.2600 -2.8088 -0.4747
4.2800 -2.8221 -0.4730
4.3000 -2.8355 -0.4734
4.3200 -2.8488 -0.4699
4.3400 -2.8621 -0.4731
4.3600 -2.8754 -0.4687
4.3800 -2.8887 -0.4700
4.4000 -2.9021 -0.4681
4.4200 -2.9154 -0.4684
4.4400 -2.9287 -0.4646
4.4600 -2.9420 -0.4663
4.4800 -2.9554 -0.4630
4.5000 -2.9688 -0.4614
4.5200 -2.9822 -0.4624
4.5400 -2.9955 -0.4611
4.5600 -3.0088 -0.4632
4.5800 -3.0222 -0.4617
4.6000 -3.0355 -0.4604
4.6200 -3.0488 -0.4569
4.6400 -3.0621 -0.4603
4.6600 -3.0754 -0.4536
4.6800 -3.0888 -0.4556
4.7000 -3.1021 -0.4531
4.7200 -3.1154 -0.4534
4.7400 -3.1287 -0.4514
4.7600 -3.1421 -0.4524
4.7800 -3.1555 -0.4498
4.8000 -3.1688 -0.4506
4.8200 -3.1821 -0.4468
4.8400 -3.1955 -0.4467
4.8600 -3.2089 -0.4467
4.8800 -3.2222 -0.4459
4.9000 -3.2355 -0.4457
4.9200 -3.2488 -0.4451
4.9400 -3.2622 -0.4456
4.9600 -3.2755 -0.4395
4.9800 -3.2888 -0.4408
5.0000 -3.3021 -0.4393
5.0200 -3.3155 -0.4383
5.0400 -3.3288 -0.4361
5.0600 -3.3421 -0.4373
5.0800 -3.3554 -0.4346
5.1000 -3.3687 -0.4346
5.1200 -3.3821 -0.4336
5.1400 -3.3954 -0.4318
5.1600 -3.4088 -0.4313
5.1800 -3.4221 -0.4316
5.2000 -3.4355 -0.4292
5.2200 -3.4488 -0.4269
5.2400 -3.4622 -0.4290
5.2600 -3.4755 -0.4268
5.2800 -3.4888 -0.4266
5.3000 -3.5022 -0.4258
5.3200 -3.5155 -0.4240
5.3400 -3.5288 -0.4229
5.3600 -3.5421 -0.4231
5.3800 -3.5555 -0.4211
5.4000 -3.5688 -0.4201
5.4200 -3.5821 -0.4202
5.4400 -3.5954 -0.4180
5.4600 -3.6087 -0.4172
5.4800 -3.6221 -0.4184
5.5000 -3.6354 -0.4151
5.5200 -3.6487 -0.4150
5.5400 -3.6621 -0.4155
5.5600 -3.6754 -0.4135
5.5800 -3.6888 -0.4133
5.6000 -3.7022 -0.4110
5.6200 -3.7155 -0.4111
5.6400 -3.7288 -0.4106
5.6600 -3.7422 -0.4101
5.6800 -3.7555 -0.4079
5.7000 -3.7688 -0.4070
5.7200 -3.7821 -0.4071
5.7400 -3.7955 -0.4063
5.7600 -3.8088 -0.4038
5.7800 -3.8221 -0.4056
5.8000 -3.8354 -0.4014
5.8200 -3.8487 -0.4012
5.8400 -3.8621 -0.4030
5.8600 -3.8755 -0.4001
5.8800 -3.8888 -0.3996
5.9000 -3.9021 -0.4004
5.9200 -3.9154 -0.3986
5.9400 -3.9288 -0.3954
5.9600 -3.9422 -0.3965
5.9800 -3.9555 -0.3958
6.0000 -3.9688 -0.3946
6.0200 -3.9822 -0.3948
6.0400 -3.9955 -0.3916
6.0600 -4.0089 -0.3908
6.0800 -4.0222 -0.3907
6.1000 -4.0355 -0.3862
6.1200 -4.0488 -0.3859
6.1400 -4.0621 -0.3866
6.1600 -4.0754 -0.3887
6.1800 -4.0887 -0.3858
6.2000 -4.1021 -0.3870
6.2200 -4.1155 -0.3847
6.2400 -4.1288 -0.3830
6.2600 -4.1421 -0.3845
6.2800 -4.1554 -0.3814
6.3000 -4.1688 -0.3788
6.3200 -4.1822 -0.3801
6.3400 -4.1955 -0.3776
6.3600 -4.2088 -0.3762
6.3800 -4.2221 -0.3763
6.4000 -4.2355 -0.3759
6.4200 -4.2488 -0.3745
6.4400 -4.2621 -0.3758
6.4600 -4.2755 -0.3718
6.4800 -4.2888 -0.3705
6.5000 -4.3021 -0.3712
6.5200 -4.3154 -0.3695
6.5400 -4.3287 -0.3695
6.5600 -4.3421 -0.3700
6.5800 -4.3554 -0.3674
6.6000 -4.3688 -0.3637
6.6200 -4.3821 -0.3668
6.6400 -4.3954 -0.3636
6.6600 -4.4088 -0.3644
6.6800 -4.4222 -0.3637
6.7000 -4.4355 -0.3624
6.7200 -4.4488 -0.3597
6.7400 -4.4622 -0.3606
6.7600 -4.4755 -0.3599
6.7800 -4.4888 -0.3597
6.8000 -4.5021 -0.3601
6.8200 -4.5154 -0.3589
6.8400 -4.5287 -0.3549
6.8600 -4.5421 -0.3572
6.8800 -4.5554 -0.3540
6.9000 -4.5687 -0.3534
6.9200 -4.5821 -0.3518
6.9400 -4.5954 -0.3512
6.9600 -4.6088 -0.3499
6.9800 -4.6221 -0.3509
7.0000 -4.6355 -0.3507
7.0200 -4.6488 -0.3486
7.0400 -4.6622 -0.3482
7.0600 -4.6755 -0.3470
7.0800 -4.6888 -0.3442
7.1000 -4.7021 -0.3468
7.1200 -4.7155 -0.3441
7.1400 -4.7288 -0.3422
7.1600 -4.7421 -0.3421
7.1800 -4.7555 -0.3412
7.2000 -4.7688 -0.3400
7.2200 -4.7821 -0.3401
7.2400 -4.7954 -0.3384
7.2600 -4.8087 -0.3365
7.2800 -4.8221 -0.3360
7.3000 -4.8355 -0.3362
7.3200 -4.8488 -0.3349
7.3400 -4.8621 -0.3357
7.3600 -4.8755 -0.3351
7.3800 -4.8888 -0.3313
7.4000 -4.9022 -0.3337
7.4200 -4.9155 -0.3312
7.4400 -4.9288 -0.3313
7.4600 -4.9421 -0.3310
7.4800 -4.9555 -0.3296
7.5000 -4.9688 -0.3281
7.5200 -4.9821 -0.3286
7.5400 -4.9954 -0.3262
7.5600 -5.0088 -0.3255
7.5800 -5.0221 -0.3238
7.6000 -5.0354 -0.3238
7.6200 -5.0487 -0.3204
7.6400 -5.0621 -0.3229
7.6600 -5.0754 -0.3198
7.6800 -5.0888 -0.3197
7.7000 -5.1021 -0.3199
7.7200 -5.1155 -0.3180
7.7400 -5.1288 -0.3157
7.7600 -5.1422 -0.3173
7.7800 -5.1555 -0.3167
7.8000 -5.1688 -0.3152
7.8200 -5.1821 -0.3159
7.8400 -5.1955 -0.3166
7.8600 -5.2088 -0.3135
7.8800 -5.2221 -0.3131
7.9000 -5.2354 -0.3099
7.9200 -5.2488 -0.3101
7.9400 -5.2621 -0.3107
7.9600 -5.2754 -0.3113
7.9800 -5.2887 -0.3082
8.0000 -5.3021 -0.3096
8.0200 -5.3155 -0.3062
8.0400 -5.3288 -0.3063
8.0600 -5.3421 -0.3041
8.0800 -5.3555 -0.3045
8.1000 -5.3688 -0.3017
8.1200 -5.3822 -0.3022
8.1400 -5.3955 -0.3019
8.1600 -5.4088 -0.2994
8.1800 -5.4221 -0.3008
8.2000 -5.4355 -0.3001
8.2200 -5.4489 -0.2968
8.2400 -5.4622 -0.2963
8.2600 -5.4755 -0.2970
8.2800 -5.4888 -0.2939
8.3000 -5.5021 -0.2936
8.3200 -5.5154 -0.2932
8.3400 -5.5287 -0.2912
8.3600 -5.5420 -0.2896
8.3800 -5.5554 -0.2910
8.4000 -5.5688 -0.2885
8.4200 -5.5821 -0.2900
8.4400 -5.5954 -0.2903
8.4600 -5.6088 -0.2875
8.4800 -5.6222 -0.2877
8.5000 -5.6355 -0.2868
8.5200 -5.6488 -0.2829
8.5400 -5.6622 -0.2842
8.5600 -5.6755 -0.2838
8.5800 -5.6889 -0.2803
8.6000 -5.7022 -0.2798
8.6200 -5.7155 -0.2803
8.6400 -5.7288 -0.2772
8.6600 -5.7421 -0.2791
8.6800 -5.7554 -0.2767
8.7000 -5.7687 -0.2758
8.7200 -5.7820 -0.2753
8.7400 -5.7954 -0.2763
8.7600 -5.8088 -0.2708
8.7800 -5.8221 -0.2728
8.8000 -5.8354 -0.2710
8.8200 -5.8488 -0.2717
8.8400 -5.8622 -0.2690
8.8600 -5.8755 -0.2700
8.8800 -5.8888 -0.2663
8.9000 -5.9022 -0.2676
8.9200 -5.9155 -0.2679
8.9400 -5.9289 -0.2639
8.9600 -5.9422 -0.2639
8.9800 -5.9555 -0.2639
9.0000 -5.9688 -0.2599
9.0200 -5.9821 -0.2621
9.0400 -5.9954 -0.2626
9.0600 -6.0087 -0.2598
9.0800 -6.0221 -0.2618
9.1000 -6.0354 -0.2614
9.1200 -6.0488 -0.2603
9.1400 -6.0621 -0.2601
9.1600 -6.0754 -0.2594
9.1800 -6.0888 -0.2565
9.2000 -6.1022 -0.2570
9.2200 -6.1155 -0.2569
9.2400 -6.1287 -0.2545
9.2600 -6.1421 -0.2548
9.2800 -6.1554 -0.2560
9.3000 -6.1688 -0.2518
9.3200 -6.1821 -0.2521
9.3400 -6.1955 -0.2521
9.3600 -6.2088 -0.2508
9.3800 -6.2222 -0.2496
9.4000 -6.2355 -0.2510
9.4200 -6.2488 -0.2484
9.4400 -6.2621 -0.2487
9.4600 -6.2754 -0.2486
9.4800 -6.2888 -0.2463
9.5000 -6.3021 -0.2459
9.5200 -6.3154 -0.2480
9.5400 -6.3288 -0.2428
9.5600 -6.3422 -0.2455
9.5800 -6.3555 -0.2442
9.6000 -6.3688 -0.2424
9.6200 -6.3821 -0.2412
9.6400 -6.3955 -0.2422
9.6600 -6.4089 -0.2377
9.6800 -6.4222 -0.2397
9.7000 -6.4355 -0.2380
9.7200 -6.4488 -0.2371
9.7400 -6.4621 -0.2361
9.7600 -6.4754 -0.2378
9.7800 -6.4887 -0.2338
9.8000 -6.5021 -0.2332
9.8200 -6.5154 -0.2303
9.8400 -6.5288 -0.2308
9.8600 -6.5421 -0.2311
9.8800 -6.5554 -0.2313
9.9000 -6.5688 -0.2283
9.9200 -6.5822 -0.2283
9.9400 -6.5955 -0.2285
9.9600 -6.6088 -0.2259
9.9800 -6.6221 -0.2252
10.0000 -6.6355 -0.2255
10.0200 -6.6488 -0.2218
10.0400 -6.6621 -0.2219
10.0600 -6.6755 -0.2223
10.0800 -6.6888 -0.2171
10.1000 -6.7022 -0.2176
10.1200 -6.7155 -0.2186
10.1400 -6.7287 -0.2184
10.1600 -6.7421 -0.2181
10.1800 -6.7554 -0.2198
10.2000 -6.7688 -0.2168
10.2200 -6.7821 -0.2167
10.2400 -6.7954 -0.2166
10.2600 -6.8088 -0.2147
10.2800 -6.8221 -0.2133
10.3000 -6.8355 -0.2134
10.3200 -6.8488 -0.2103
10.3400 -6.8621 -0.2117
10.3600 -6.8755 -0.2129
10.3800 -6.8888 -0.2100
10.4000 -6.9022 -0.2087
10.4200 -6.9155 -0.2049
10.4400 -6.9288 -0.2032
10.4600 -6.9422 -0.2034
10.4800 -6.9555 -0.2059
10.5000 -6.9687 -0.2017
10.5200 -6.9821 -0.2014
10.5400 -6.9954 -0.2011
10.5600 -7.0088 -0.1989
10.5800 -7.0221 -0.2000
10.6000 -7.0354 -0.2004
10.6200 -7.0488 -0.1975
10.6400 -7.0622 -0.1966
10.6600 -7.0755 -0.1954
10.6800 -7.0888 -0.1927
10.7000 -7.1021 -0.1929
10.7200 -7.1155 -0.1926
10.7400 -7.1288 -0.1916
10.7600 -7.1421 -0.1905
10.7800 -7.1554 -0.1903
10.8000 -7.1688 -0.1878
10.8200 -7.1821 -0.1864
10.8400 -7.1954 -0.1876
10.8600 -7.2087 -0.1876
10.8800 -7.2221 -0.1865
10.9000 -7.2354 -0.1865
10.9200 -7.2488 -0.1846
10.9400 -7.2621 -0.1838
10.9600 -7.2754 -0.1846
10.9800 -7.2888 -0.1825
11.0000 -7.3022 -0.1823
11.0200 -7.3155 -0.1828
11.0400 -7.3288 -0.1813
11.0600 -7.3421 -0.1804
11.0800 -7.3555 -0.1823
11.1000 -7.3688 -0.1760
11.1200 -7.3822 -0.1759
11.1400 -7.3954 -0.1774
11.1600 -7.4087 -0.1774
11.1800 -7.4221 -0.1785
11.2000 -7.4354 -0.1768
11.2200 -7.4487 -0.1743
11.2400 -7.4621 -0.1725
11.2600 -7.4755 -0.1751
11.2800 -7.4888 -0.1725
11.3000 -7.5021 -0.1716
11.3200 -7.5154 -0.1726
11.3400 -7.5288 -0.1685
11.3600 -7.5422 -0.1674
11.3800 -7.5555 -0.1688
11.4000 -7.5688 -0.1673
11.4200 -7.5821 -0.1677
11.4400 -7.5955 -0.1686
11.4600 -7.6088 -0.1653
11.4800 -7.6222 -0.1628
11.5000 -7.6355 -0.1633
11.5200 -7.6488 -0.1612
11.5400 -7.6622 -0.1600
11.5600 -7.6755 -0.1606
11.5800 -7.6888 -0.1618
11.6000 -7.7021 -0.1593
11.6200 -7.7154 -0.1622
11.6400 -7.7287 -0.1586
11.6600 -7.7420 -0.1595
11.6800 -7.7554 -0.1593
11.7000 -7.7688 -0.1588
11.7200 -7.7822 -0.1560
11.7400 -7.7955 -0.1548
11.7600 -7.8088 -0.1528
11.7800 -7.8222 -0.1519
11.8000 -7.8355 -0.1535
11.8200 -7.8489 -0.1530
11.8400 -7.8622 -0.1490
11.8600 -7.8755 -0.1502
11.8800 -7.8888 -0.1484
11.9000 -7.9021 -0.1471
11.9200 -7.9154 -0.1472
11.9400 -7.9287 -0.1451
11.9600 -7.9421 -0.1432
11.9800 -7.9554 -0.1443
12.0000 -7.9688 -0.1422
12.0200 -7.9821 -0.1406
12.0400 -7.9954 -0.1407
12.0600 -8.0088 -0.1386
12.0800 -8.0222 -0.1365
12.1000 -8.0355 -0.1398
12.1200 -8.0488 -0.1378
12.1400 -8.0621 -0.1374
12.1600 -8.0755 -0.1375
12.1800 -8.0888 -0.1360
12.2000 -8.1022 -0.1334
12.2200 -8.1155 -0.1367
12.2400 -8.1288 -0.1344
12.2600 -8.1421 -0.1318
12.2800 -8.1555 -0.1315
12.3000 -8.1688 -0.1291
12.3200 -8.1821 -0.1287
12.3400 -8.1954 -0.1276
12.3600 -8.2088 -0.1267
12.3800 -8.2221 -0.1236
12.4000 -8.2354 -0.1292
12.4200 -8.2488 -0.1263
12.4400 -8.2621 -0.1253
12.4600 -8.2755 -0.1247
12.4800 -8.2888 -0.1243
12.5000 -8.3021 -0.1221
12.5200 -8.3155 -0.1247
12.5400 -8.3289 -0.1220
12.5600 -8.3422 -0.1198
12.5800 -8.3555 -0.1206
12.6000 -8.3688 -0.1214
12.6200 -8.3821 -0.1186
12.6400 -8.3955 -0.1189
12.6600 -8.4087 -0.1167
12.6800 -8.4220 -0.1142
12.7000 -8.4354 -0.1147
12.7200 -8.4487 -0.1130
12.7400 -8.4621 -0.1104
12.7600 -8.4754 -0.1122
12.7800 -8.4888 -0.1096
12.8000 -8.5021 -0.1092
12.8200 -8.5155 -0.1078
12.8400 -8.5288 -0.1087
12.8600 -8.5421 -0.1045
12.8800 -8.5555 -0.1089
12.9000 -8.5688 -0.1039
12.9200 -8.5822 -0.1039
12.9400 -8.5955 -0.1037
12.9600 -8.6088 -0.1039
12.9800 -8.6222 -0.1011
13.0000 -8.6355 -0.1022
13.0200 -8.6488 -0.1001
13.0400 -8.6621 -0.0998
13.0600 -8.6754 -0.1003
13.0800 -8.6888 -0.0975
13.1000 -8.7021 -0.0957
13.1200 -8.7154 -0.0973
13.1400 -8.7287 -0.0984
13.1600 -8.7421 -0.0949
13.1800 -8.7555 -0.0960
13.2000 -8.7688 -0.0917
13.2200 -8.7821 -0.0930
13.2400 -8.7955 -0.0931
13.2600 -8.8088 -0.0935
13.2800 -8.8222 -0.0877
13.3000 -8.8355 -0.0922
13.3200 -8.8488 -0.0902
13.3400 -8.8622 -0.0902
13.3600 -8.8755 -0.0876
13.3800 -8.8888 -0.0890
13.4000 -8.9021 -0.0856
13.4200 -8.9154 -0.0865
13.4400 -8.9288 -0.0850
13.4600 -8.9421 -0.0851
13.4800 -8.9554 -0.0861
13.5000 -8.9687 -0.0855
13.5200 -8.9821 -0.0812
13.5400 -8.9955 -0.0830
13.5600 -9.0088 -0.0811
13.5800 -9.0221 -0.0788
13.6000 -9.0355 -0.0803
13.6200 -9.0488 -0.0792
13.6400 -9.0622 -0.0775
13.6600 -9.0755 -0.0785
13.6800 -9.0888 -0.0785
13.7000 -9.1022 -0.0760
13.7200 -9.1155 -0.0761
13.7400 -9.1288 -0.0772
13.7600 -9.1421 -0.0732
13.7800 -9.1554 -0.0755
13.8000 -9.1688 -0.0711
13.8200 -9.1821 -0.0715
13.8400 -9.1954 -0.0719
13.8600 -9.2087 -0.0724
13.8800 -9.2221 -0.0703
13.9000 -9.2355 -0.0698
13.9200 -9.2489 -0.0695
13.9400 -9.2622 -0.0672
13.9600 -9.2755 -0.0685
13.9800 -9.2888 -0.0672
14.0000 -9.3022 -0.0660
14.0200 -9.3155 -0.0666
14.0400 -9.3288 -0.0660
14.0600 -9.3421 -0.0637
14.0800 -9.3554 -0.0637
14.1000 -9.3687 -0.0649
14.1200 -9.3820 -0.0614
14.1400 -9.3954 -0.0630
14.1600 -9.4087 -0.0614
14.1800 -9.4221 -0.0576
14.2000 -9.4354 -0.0615
14.2200 -9.4488 -0.0596
14.2400 -9.4621 -0.0573
14.2600 -9.4755 -0.0546
14.2800 -9.4889 -0.0550
14.3000 -9.5021 -0.0516
14.3200 -9.5155 -0.0535
14.3400 -9.5288 -0.0517
14.3600 -9.5422 -0.0513
14.3800 -9.5555 -0.0504
14.4000 -9.5688 -0.0503
14.4200 -9.5822 -0.0489
14.4400 -9.5955 -0.0505
14.4600 -9.6088 -0.0503
14.4800 -9.6221 -0.0464
14.5000 -9.6354 -0.0462
14.5200 -9.6488 -0.0441
14.5400 -9.6621 -0.0424
14.5600 -9.6754 -0.0435
14.5800 -9.6888 -0.0449
14.6000 -9.7021 -0.0419
14.6200 -9.7155 -0.0422
14.6400 -9.7288 -0.0412
14.6600 -9.7421 -0.0391
14.6800 -9.7555 -0.0401
14.7000 -9.7688 -0.0365
14.7200 -9.7822 -0.0349
14.7400 -9.7955 -0.0338
14.7600 -9.8088 -0.0334
14.7800 -9.8221 -0.0295
14.8000 -9.8355 -0.0325
14.8200 -9.8488 -0.0321
14.8400 -9.8621 -0.0290
14.8600 -9.8754 -0.0288
14.8800 -9.8887 -0.0292
14.9000 -9.9021 -0.0265
14.9200 -9.9155 -0.0280
14.9400 -9.9288 -0.0263
14.9600 -9.9421 -0.0229
14.9800 -9.9555 -0.0246
15.0000 -9.9688 -0.0238
15.0200 -9.9821 -0.0235
15.0400 -9.9955 -0.0213
15.0600 -10.0088 -0.0220
15.0800 -10.0222 -0.0206
15.1000 -10.0355 -0.0214
15.1200 -10.0488 -0.0198
15.1400 -10.0621 -0.0189
15.1600 -10.0754 -0.0174
15.1800 -10.0887 -0.0181
15.2000 -10.1021 -0.0156
15.2200 -10.1154 -0.0149
15.2400 -10.1288 -0.0144
15.2600 -10.1421 -0.0121
15.2800 -10.1555 -0.0120
15.3000 -10.1688 -0.0125
15.3200 -10.1821 -0.0125
15.3400 -10.1955 -0.0125
15.3600 -10.2088 -0.0119
15.3800 -10.2221 -0.0105
15.4000 -10.2355 -0.0104
15.4200 -10.2488 -0.0086
15.4400 -10.2622 -0.0050
15.4600 -10.2755 -0.0071
15.4800 -10.2888 -0.0072
15.5000 -10.3021 -0.0061
15.5200 -10.3155 -0.0050
15.5400 -10.3288 -0.0037
15.5600 -10.3420 -0.0041
15.5800 -10.3554 -0.0027
15.6000 -10.3687 -0.0051
15.6200 -10.3821 -0.0012
15.6400 -10.3954 -0.0016
15.6600 -10.4088 -0.0014
15.6800 -10.4221 -0.0002
15.7000 -10.4355 0.0018
15.7200 -10.4489 0.0022
15.7400 -10.4622 0.0043
15.7600 -10.4755 0.0031
15.7800 -10.4888 0.0054
15.8000 -10.5022 0.0062
15.8200 -10.5155 0.0070
15.8400 -10.5288 0.0048
15.8600 -10.5421 0.0077
15.8800 -10.5555 0.0086
15.9000 -10.5688 0.0086
15.9200 -10.5821 0.0102
15.9400 -10.5954 0.0105
15.9600 -10.6087 0.0121
15.9800 -10.6221 0.0136
16.0000 -10.6354 0.0125
16.0200 -10.6487 0.0123
16.0400 -10.6621 0.0147
16.0600 -10.6755 0.0153
16.0800 -10.6889 0.0167
16.1000 -10.7022 0.0172
16.1200 -10.7155 0.0175
16.1400 -10.7288 0.0173
16.1600 -10.7422 0.0193
16.1800 -10.7555 0.0192
16.2000 -10.7688 0.0193
16.2200 -10.7821 0.0224
16.2400 -10.7954 0.0246
16.2600 -10.8088 0.0237
16.2800 -10.8221 0.0243
16.3000 -10.8354 0.0222
16.3200 -10.8487 0.0242
16.3400 -10.8621 0.0258
16.3600 -10.8755 0.0283
16.3800 -10.8888 0.0261
16.4000 -10.9021 0.0291
16.4200 -10.9155 0.0296
16.4400 -10.9288 0.0295
16.4600 -10.9421 0.0316
16.4800 -10.9554 0.0328
16.5000 -10.9687 0.0305
16.5200 -10.9821 0.0343
16.5400 -10.9955 0.0333
16.5600 -11.0088 0.0337
16.5800 -11.0221 0.0349
16.6000 -11.0355 0.0378
16.6200 -11.0488 0.0378
16.6400 -11.0621 0.0407
16.6600 -11.0754 0.0397
16.6800 -11.0888 0.0391
16.7000 -11.1021 0.0405
16.7200 -11.1154 0.0414
16.7400 -11.1288 0.0398
16.7600 -11.1421 0.0409
16.7800 -11.1555 0.0426
16.8000 -11.1689 0.0452
16.8200 -11.1822 0.0465
16.8400 -11.1955 0.0458
16.8600 -11.2088 0.0449
16.8800 -11.2222 0.0474
16.9000 -11.2355 0.0492
16.9200 -11.2488 0.0476
16.9400 -11.2621 0.0487
16.9600 -11.2755 0.0500
16.9800 -11.2888 0.0485
17.0000 -11.3021 0.0505
17.0200 -11.3154 0.0503
17.0400 -11.3287 0.0509
17.0600 -11.3421 0.0524
17.0800 -11.3555 0.0544
17.1000 -11.3688 0.0542
17.1200 -11.3821 0.0556
17.1400 -11.3955 0.0570
17.1600 -11.4088 0.0564
17.1800 -11.4222 0.0583
17.2000 -11.4355 0.0577
17.2200 -11.4488 0.0577
17.2400 -11.4622 0.0588
17.2600 -11.4755 0.0631
17.2800 -11.4888 0.0608
17.3000 -11.5021 0.0636
17.3200 -11.5155 0.0635
17.3400 -11.5288 0.0660
17.3600 -11.5421 0.0663
17.3800 -11.5554 0.0666
17.4000 -11.5687 0.0650
17.4200 -11.5821 0.0680
17.4400 -11.5955 0.0715
17.4600 -11.6088 0.0707
17.4800 -11.6221 0.0712
17.5000 -11.6354 0.0724
17.5200 -11.6488 0.0727
17.5400 -11.6621 0.0736
17.5600 -11.6755 0.0759
17.5800 -11.6888 0.0764
17.6000 -11.7021 0.0768
17.6200 -11.7155 0.0781
17.6400 -11.7288 0.0781
17.6600 -11.7421 0.0788
17.6800 -11.7555 0.0793
17.7000 -11.7688 0.0801
17.7200 -11.7821 0.0789
17.7400 -11.7954 0.0832
17.7600 -11.8087 0.0823
17.7800 -11.8221 0.0845
17.8000 -11.8355 0.0848
17.8200 -11.8488 0.0857
17.8400 -11.8621 0.0859
17.8600 -11.8755 0.0878
17.8800 -11.8888 0.0880
17.9000 -11.9022 0.0886
17.9200 -11.9155 0.0909
17.9400 -11.9288 0.0897
17.9600 -11.9422 0.0906
17.9800 -11.9555 0.0917
18.0000 -11.9688 0.0920
18.0200 -11.9821 0.0928
18.0400 -11.9955 0.0949
18.0600 -12.0088 0.0945
18.0800 -12.0221 0.0959
18.1000 -12.0354 0.0957
18.1200 -12.0488 0.0964
18.1400 -12.0621 0.0958
18.1600 -12.0755 0.0979
18.1800 -12.0888 0.0986
18.2000 -12.1021 0.0974
18.2200 -12.1155 0.0982
18.2400 -12.1288 0.0998
18.2600 -12.1422 0.1002
18.2800 -12.1555 0.1034
18.3000 -12.1688 0.1024
18.3200 -12.1821 0.1047
18.3400 -12.1955 0.1060
18.3600 -12.2088 0.1048
18.3800 -12.2221 0.1063
18.4000 -12.2354 0.1065
18.4200 -12.2488 0.1085
18.4400 -12.2621 0.1103
18.4600 -12.2754 0.1096
18.4800 -12.2887 0.1104
18.5000 -12.3021 0.1104
18.5200 -12.3155 0.1129
18.5400 -12.3288 0.1114
18.5600 -12.3421 0.1133
18.5800 -12.3555 0.1144
18.6000 -12.3688 0.1156
18.6200 -12.3822 0.1161
18.6400 -12.3955 0.1175
18.6600 -12.4088 0.1197
18.6800 -12.4221 0.1211
18.7000 -12.4355 0.1228
18.7200 -12.4488 0.1217
18.7400 -12.4621 0.1234
18.7600 -12.4755 0.1251
18.7800 -12.4889 0.1253
18.8000 -12.5021 0.1267
18.8200 -12.5154 0.1285
18.8400 -12.5287 0.1283
18.8600 -12.5421 0.1293
18.8800 -12.5554 0.1281
18.9000 -12.5687 0.1294
18.9200 -12.5820 0.1297
18.9400 -12.5954 0.1323
18.9600 -12.6088 0.1330
18.9800 -12.6222 0.1362
19.0000 -12.6355 0.1343
19.0200 -12.6488 0.1357
19.0400 -12.6622 0.1339
19.0600 -12.6755 0.1372
19.0800 -12.6889 0.1353
19.1000 -12.7021 0.1382
19.1200 -12.7154 0.1384
19.1400 -12.7288 0.1390
19.1600 -12.7421 0.1379
19.1800 -12.7554 0.1413
19.2000 -12.7687 0.1406
19.2200 -12.7821 0.1418
19.2400 -12.7955 0.1413
19.2600 -12.8088 0.1429
19.2800 -12.8221 0.1432
19.3000 -12.8355 0.1431
19.3200 -12.8488 0.1437
19.3400 -12.8622 0.1433
19.3600 -12.8755 0.1460
19.3800 -12.8888 0.1448
19.4000 -12.9022 0.1462
19.4200 -12.9155 0.1470
19.4400 -12.9288 0.1486
19.4600 -12.9421 0.1485
19.4800 -12.9554 0.1497
19.5000 -12.9688 0.1487
19.5200 -12.9821 0.1494
19.5400 -12.9954 0.1498
19.5600 -13.0087 0.1526
19.5800 -13.0221 0.1512
19.6000 -13.0354 0.1542
19.6200 -13.0488 0.1529
19.6400 -13.0621 0.1513
19.6600 -13.0755 0.1538
19.6800 -13.0888 0.1543
19.7000 -13.1022 0.1561
19.7200 -13.1155 0.1589
19.7400 -13.1288 0.1593
19.7600 -13.1422 0.1609
19.7800 -13.1555 0.1605
19.8000 -13.1688 0.1620
19.8200 -13.1821 0.1630
19.8400 -13.1954 0.1646
19.8600 -13.2088 0.1661
19.8800 -13.2221 0.1656
19.9000 -13.2354 0.1663
19.9200 -13.2487 0.1668
19.9400 -13.2620 0.1661
19.9600 -13.2754 0.1683
19.9800 -13.2888 0.1675
20.0000 -13.3021 0.1709
20.0200 -13.3154 0.1720
20.0400 -13.3288 0.1711
20.0600 -13.3422 0.1722
20.0800 -13.3555 0.1742
20.1000 -13.3688 0.1761
20.1200 -13.3822 0.1768
20.1400 -13.3955 0.1770
20.1600 -13.4088 0.1775
20.1800 -13.4221 0.1781
20.2000 -13.4355 0.1792
20.2200 -13.4488 0.1792
20.2400 -13.4621 0.1800
20.2600 -13.4754 0.1819
20.2800 -13.4887 0.1841
20.3000 -13.5021 0.1830
20.3200 -13.5155 0.1839
20.3400 -13.5288 0.1836
20.3600 -13.5421 0.1838
20.3800 -13.5554 0.1840
20.4000 -13.5688 0.1856
20.4200 -13.5822 0.1865
20.4400 -13.5955 0.1890
20.4600 -13.6088 0.1903
20.4800 -13.6221 0.1892
20.5000 -13.6355 0.1929
20.5200 -13.6488 0.1923
20.5400 -13.6621 0.1944
20.5600 -13.6755 0.1923
20.5800 -13.6888 0.1939
20.6000 -13.7021 0.1954
20.6200 -13.7154 0.1969
20.6400 -13.7287 0.1973
20.6600 -13.7421 0.1998
20.6800 -13.7554 0.1997
20.7000 -13.7688 0.2008
20.7200 -13.7821 0.1996
20.7400 -13.7954 0.2029
20.7600 -13.8088 0.2027
20.7800 -13.8222 0.2044
20.8000 -13.8355 0.2033
20.8200 -13.8488 0.2052
20.8400 -13.8621 0.2075
20.8600 -13.8755 0.2086
20.8800 -13.8889 0.2067
20.9000 -13.9022 0.2081
20.9200 -13.9155 0.2085
20.9400 -13.9288 0.2113
20.9600 -13.9422 0.2108
20.9800 -13.9554 0.2124
21.0000 -13.9687 0.2121
21.0200 -13.9821 0.2136
21.0400 -13.9954 0.2139
21.0600 -14.0088 0.2135
21.0800 -14.0221 0.2156
21.1000 -14.0354 0.2158
21.1200 -14.0488 0.2183
21.1400 -14.0622 0.2183
21.1600 -14.0755 0.2182
21.1800 -14.0888 0.2194
21.2000 -14.1022 0.2209
21.2200 -14.1155 0.2201
21.2400 -14.1289 0.2224
21.2600 -14.1421 0.2203
21.2800 -14.1554 0.2245
21.3000 -14.1687 0.2230
21.3200 -14.1821 0.2264
21.3400 -14.1954 0.2240
21.3600 -14.2087 0.2281
21.3800 -14.2221 0.2279
21.4000 -14.2354 0.2299
21.4200 -14.2488 0.2298
21.4400 -14.2621 0.2310
21.4600 -14.2755 0.2298
21.4800 -14.2888 0.2327
21.5000 -14.3022 0.2322
21.5200 -14.3155 0.2331
21.5400 -14.3288 0.2343
21.5600 -14.3421 0.2357
21.5800 -14.3555 0.2367
21.6000 -14.3688 0.2390
21.6200 -14.3821 0.2387
21.6400 -14.3955 0.2407
21.6600 -14.4088 0.2429
21.6800 -14.4222 0.2449
21.7000 -14.4354 0.2438
21.7200 -14.4487 0.2448
21.7400 -14.4621 0.2459
21.7600 -14.4754 0.2474
21.7800 -14.4888 0.2468
21.8000 -14.5021 0.2487
21.8200 -14.5154 0.2509
21.8400 -14.5288 0.2515
21.8600 -14.5422 0.2535
21.8800 -14.5555 0.2538
21.9000 -14.5688 0.2537
21.9200 -14.5821 0.2548
21.9400 -14.5955 0.2564
21.9600 -14.6088 0.2588
21.9800 -14.6221 0.2598
22.0000 -14.6354 0.2616
22.0200 -14.6488 0.2641
22.0400 -14.6621 0.2631
22.0600 -14.6754 0.2650
22.0800 -14.6887 0.2648
22.1000 -14.7021 0.2669
22.1200 -14.7154 0.2674
22.1400 -14.7288 0.2695
22.1600 -14.7421 0.2696
22.1800 -14.7555 0.2724
22.2000 -14.7688 0.2714
22.2200 -14.7822 0.2739
22.2400 -14.7955 0.2719
22.2600 -14.8088 0.2748
22.2800 -14.8221 0.2757
22.3000 -14.8355 0.2771
22.3200 -14.8488 0.2777
22.3400 -14.8621 0.2782
22.3600 -14.8754 0.2763
22.3800 -14.8888 0.2790
22.4000 -14.9021 0.2804
22.4200 -14.9154 0.2811
22.4400 -14.9287 0.2804
22.4600 -14.9421 0.2825
22.4800 -14.9554 0.2803
22.5000 -14.9688 0.2835
22.5200 -14.9821 0.2810
22.5400 -14.9955 0.2830
22.5600 -15.0088 0.2850
22.5800 -15.0222 0.2845
22.6000 -15.0355 0.2859
22.6200 -15.0488 0.2870
22.6400 -15.0622 0.2884
22.6600 -15.0755 0.2859
22.6800 -15.0889 0.2880
22.7000 -15.1022 0.2887
22.7200 -15.1155 0.2891
22.7400 -15.1288 0.2907
22.7600 -15.1421 0.2921
22.7800 -15.1554 0.2921
22.8000 -15.1687 0.2935
22.8200 -15.1820 0.2933
22.8400 -15.1954 0.2944
22.8600 -15.2088 0.2956
22.8800 -15.2221 0.2941
22.9000 -15.2354 0.2955
22.9200 -15.2488 0.2985
22.9400 -15.2622 0.3023
22.9600 -15.2755 0.3010
22.9800 -15.2888 0.3017
23.0000 -15.3022 0.3035
23.0200 -15.3155 0.3027
23.0400 -15.3289 0.3060
23.0600 -15.3422 0.3054
23.0800 -15.3555 0.3066
23.1000 -15.3688 0.3071
23.1200 -15.3821 0.3097
23.1400 -15.3954 0.3078
23.1600 -15.4087 0.3105
23.1800 -15.4220 0.3101
23.2000 -15.4354 0.3116
23.2200 -15.4488 0.3115
23.2400 -15.4621 0.3158
23.2600 -15.4754 0.3125
23.2800 -15.4888 0.3152
23.3000 -15.5022 0.3161
23.3200 -15.5155 0.3175
23.3400 -15.5288 0.3170
23.3600 -15.5422 0.3179
23.3800 -15.5555 0.3184
23.4000 -15.5688 0.3209
23.4200 -15.5821 0.3223
23.4400 -15.5954 0.3230
23.4600 -15.6088 0.3234
23.4800 -15.6221 0.3244
23.5000 -15.6354 0.3242
23.5200 -15.6487 0.3247
23.5400 -15.6621 0.3283
23.5600 -15.6754 0.3276
23.5800 -15.6888 0.3283
23.6000 -15.7021 0.3289
23.6200 -15.7155 0.3303
23.6400 -15.7288 0.3314
23.6600 -15.7422 0.3309
23.6800 -15.7555 0.3311
23.7000 -15.7688 0.3325
23.7200 -15.7821 0.3326
23.7400 -15.7954 0.3348
23.7600 -15.8088 0.3358
23.7800 -15.8221 0.3362
23.8000 -15.8355 0.3337
23.8200 -15.8488 0.3344
23.8400 -15.8622 0.3371
23.8600 -15.8755 0.3386
23.8800 -15.8888 0.3394
23.9000 -15.9021 0.3415
23.9200 -15.9154 0.3406
23.9400 -15.9288 0.3426
23.9600 -15.9421 0.3416
23.9800 -15.9554 0.3431
24.0000 -15.9688 0.3428
24.0200 -15.9822 0.3468
24.0400 -15.9955 0.3467
24.0600 -16.0088 0.3472
24.0800 -16.0222 0.3487
24.1000 -16.0355 0.3473
24.1200 -16.0489 0.3487
24.1400 -16.0622 0.3507
24.1600 -16.0755 0.3528
24.1800 -16.0888 0.3534
24.2000 -16.1021 0.3552
24.2200 -16.1155 0.3546
24.2400 -16.1287 0.3568
24.2600 -16.1421 0.3582
24.2800 -16.1554 0.3607
24.3000 -16.1688 0.3606
24.3200 -16.1821 0.3648
24.3400 -16.1954 0.3641
24.3600 -16.2088 0.3664
24.3800 -16.2221 0.3681
24.4000 -16.2355 0.3685
24.4200 -16.2488 0.3699
24.4400 -16.2621 0.3719
24.4600 -16.2755 0.3716
24.4800 -16.2889 0.3742
24.5000 -16.3022 0.3755
24.5200 -16.3155 0.3752
24.5400 -16.3288 0.3774
24.5600 -16.3421 0.3796
24.5800 -16.3555 0.3770
24.6000 -16.3687 0.3786
24.6200 -16.3820 0.3818
24.6400 -16.3954 0.3814
24.6600 -16.4088 0.3837
24.6800 -16.4221 0.3837
24.7000 -16.4354 0.3830
24.7200 -16.4487 0.3841
24.7400 -16.4621 0.3849
24.7600 -16.4755 0.3870
24.7800 -16.4888 0.3872
24.8000 -16.5021 0.3883
24.8200 -16.5155 0.3870
24.8400 -16.5288 0.3871
24.8600 -16.5422 0.3906
24.8800 -16.5555 0.3917
24.9000 -16.5688 0.3926
24.9200 -16.5822 0.3936
24.9400 -16.5955 0.3946
24.9600 -16.6088 0.3955
24.9800 -16.6221 0.3982
25.0000 -16.6354 0.3963
25.0200 -16.6488 0.3982
25.0400 -16.6622 0.3991
25.0600 -16.6755 0.4019
25.0800 -16.6888 0.4013
25.1000 -16.7022 0.4053
25.1200 -16.7155 0.4017
25.1400 -16.7288 0.4044
25.1600 -16.7421 0.4047
25.1800 -16.7555 0.4052
25.2000 -16.7688 0.4071
25.2200 -16.7822 0.4114
25.2400 -16.7955 0.4088
25.2600 -16.8088 0.4103
25.2800 -16.8221 0.4104
25.3000 -16.8354 0.4129
25.3200 -16.8487 0.4134
25.3400 -16.8621 0.4154
25.3600 -16.8754 0.4158
25.3800 -16.8888 0.4169
25.4000 -16.9021 0.4178
25.4200 -16.9154 0.4177
25.4400 -16.9288 0.4197
25.4600 -16.9421 0.4236
25.4800 -16.9555 0.4235
25.5000 -16.9688 0.4240
25.5200 -16.9821 0.4250
25.5400 -16.9954 0.4249
25.5600 -17.0088 0.4269
25.5800 -17.0221 0.4290
25.6000 -17.0354 0.4295
25.6200 -17.0487 0.4295
25.6400 -17.0621 0.4320
25.6600 -17.0754 0.4348
25.6800 -17.0887 0.4338
25.7000 -17.1021 0.4390
25.7200 -17.1154 0.4367
25.7400 -17.1288 0.4377
25.7600 -17.1421 0.4389
25.7800 -17.1554 0.4401
25.8000 -17.1688 0.4381
25.8200 -17.1821 0.4410
25.8400 -17.1955 0.4410
25.8600 -17.2088 0.4411
25.8800 -17.2221 0.4423
25.9000 -17.2354 0.4437
25.9200 -17.2488 0.4441
25.9400 -17.2622 0.4461
25.9600 -17.2755 0.4467
25.9800 -17.2888 0.4445
26.0000 -17.3022 0.4490
26.0200 -17.3155 0.4464
26.0400 -17.3288 0.4507
26.0600 -17.3421 0.4510
26.0800 -17.3554 0.4551
26.1000 -17.3688 0.4516
26.1200 -17.3821 0.4568
26.1400 -17.3954 0.4561
26.1600 -17.4087 0.4559
26.1800 -17.4221 0.4581
26.2000 -17.4355 0.4614
26.2200 -17.4488 0.4586
26.2400 -17.4621 0.4635
26.2600 -17.4755 0.4621
26.2800 -17.4889 0.4646
26.3000 -17.5022 0.4665
26.3200 -17.5155 0.4681
26.3400 -17.5288 0.4670
26.3600 -17.5421 0.4681
26.3800 -17.5555 0.4686
26.4000 -17.5688 0.4699
26.4200 -17.5821 0.4717
26.4400 -17.5954 0.4724
26.4600 -17.6088 0.4706
26.4800 -17.6221 0.4738
26.5000 -17.6355 0.4739
26.5200 -17.6488 0.4744
26.5400 -17.6622 0.4769
26.5600 -17.6755 0.4762
26.5800 -17.6889 0.4765
26.6000 -17.7021 0.4783
26.6200 -17.7155 0.4799
26.6400 -17.7288 0.4792
26.6600 -17.7422 0.4825
26.6800 -17.7555 0.4812
26.7000 -17.7688 0.4815
26.7200 -17.7821 0.4854
26.7400 -17.7955 0.4860
26.7600 -17.8088 0.4862
26.7800 -17.8221 0.4897
26.8000 -17.8354 0.4892
26.8200 -17.8488 0.4896
26.8400 -17.8621 0.4925
26.8600 -17.8754 0.4930
26.8800 -17.8888 0.4926
26.9000 -17.9021 0.4933
26.9200 -17.9155 0.4948
26.9400 -17.9288 0.4949
26.9600 -17.9421 0.4975
26.9800 -17.9555 0.5022
27.0000 -17.9688 0.5001
27.0200 -17.9822 0.5034
27.0400 -17.9955 0.5024
27.0600 -18.0088 0.5058
27.0800 -18.0221 0.5062
27.1000 -18.0355 0.5087
27.1200 -18.0487 0.5029
27.1400 -18.0620 0.5080
27.1600 -18.0754 0.5062
27.1800 -18.0887 0.5079
27.2000 -18.1021 0.5093
27.2200 -18.1154 0.5119
27.2400 -18.1287 0.5087
27.2600 -18.1421 0.5142
27.2800 -18.1555 0.5119
27.3000 -18.1689 0.5129
27.3200 -18.1822 0.5134
27.3400 -18.1955 0.5149
27.3600 -18.2089 0.5173
27.3800 -18.2222 0.5205
27.4000 -18.2355 0.5213
27.4200 -18.2488 0.5188
27.4400 -18.2621 0.5220
27.4600 -18.2755 0.5215
27.4800 -18.2888 0.5228
27.5000 -18.3021 0.5251
27.5200 -18.3154 0.5273
27.5400 -18.3288 0.5241
27.5600 -18.3421 0.5308
27.5800 -18.3554 0.5297
27.6000 -18.3687 0.5303
27.6200 -18.3821 0.5340
27.6400 -18.3955 0.5349
27.6600 -18.4088 0.5339
27.6800 -18.4221 0.5364
27.7000 -18.4355 0.5372
27.7200 -18.4488 0.5357
27.7400 -18.4622 0.5395
27.7600 -18.4755 0.5430
27.7800 -18.4888 0.5426
27.8000 -18.5022 0.5427
27.8200 -18.5155 0.5431
27.8400 -18.5288 0.5425
27.8600 -18.5421 0.5452
27.8800 -18.5554 0.5474
27.9000 -18.5688 0.5476
27.9200 -18.5821 0.5501
27.9400 -18.5954 0.5515
27.9600 -18.6088 0.5520
27.9800 -18.6221 0.5536
28.0000 -18.6355 0.5579
28.0200 -18.6488 0.5559
28.0400 -18.6621 0.5588
28.0600 -18.6754 0.5600
28.0800 -18.6888 0.5592
28.1000 -18.7022 0.5579
28.1200 -18.7155 0.5599
28.1400 -18.7288 0.5612
28.1600 -18.7421 0.5653
28.1800 -18.7555 0.5657
28.2000 -18.7688 0.5645
28.2200 -18.7821 0.5670
28.2400 -18.7954 0.5678
28.2600 -18.8087 0.5673
28.2800 -18.8221 0.5701
28.3000 -18.8354 0.5728
28.3200 -18.8487 0.5713
28.3400 -18.8621 0.5749
28.3600 -18.8755 0.5765
28.3800 -18.8889 0.5751
28.4000 -18.9022 0.5776
28.4200 -18.9155 0.5783
28.4400 -18.9288 0.5776
28.4600 -18.9422 0.5802
28.4800 -18.9555 0.5817
28.5000 -18.9688 0.5838
28.5200 -18.9821 0.5857
28.5400 -18.9954 0.5871
28.5600 -19.0087 0.5866
28.5800 -19.0220 0.5885
28.6000 -19.0354 0.5900
28.6200 -19.0487 0.5905
28.6400 -19.0621 0.5938
28.6600 -19.0755 0.5942
28.6800 -19.0888 0.5945
28.7000 -19.1021 0.5960
28.7200 -19.1155 0.5980
28.7400 -19.1289 0.5971
28.7600 -19.1422 0.5982
28.7800 -19.1555 0.6005
28.8000 -19.1688 0.6007
28.8200 -19.1822 0.6031
28.8400 -19.1955 0.6026
28.8600 -19.2088 0.6028
28.8800 -19.2221 0.6057
28.9000 -19.2355 0.6093
28.9200 -19.2488 0.6075
28.9400 -19.2621 0.6075
28.9600 -19.2754 0.6112
28.9800 -19.2887 0.6086
29.0000 -19.3021 0.6117
29.0200 -19.3154 0.6141
29.0400 -19.3288 0.6135
29.0600 -19.3421 0.6118
29.0800 -19.3555 0.6162
29.1000 -19.3688 0.6154
29.1200 -19.3821 0.6150
29.1400 -19.3955 0.6179
29.1600 -19.4088 0.6186
29.1800 -19.4222 0.6218
29.2000 -19.4355 0.6250
29.2200 -19.4488 0.6242
29.2400 -19.4621 0.6279
29.2600 -19.4755 0.6294
29.2800 -19.4888 0.6287
29.3000 -19.5021 0.6311
29.3200 -19.5154 0.6347
29.3400 -19.5287 0.6344
29.3600 -19.5421 0.6355
29.3800 -19.5555 0.6384
29.4000 -19.5688 0.6370
29.4200 -19.5821 0.6392
29.4400 -19.5955 0.6415
29.4600 -19.6089 0.6405
29.4800 -19.6222 0.6436
29.5000 -19.6355 0.6449
29.5200 -19.6488 0.6419
29.5400 -19.6622 0.6424
29.5600 -19.6755 0.6443
29.5800 -19.6888 0.6435
29.6000 -19.7021 0.6461
29.6200 -19.7154 0.6480
29.6400 -19.7288 0.6472
29.6600 -19.7421 0.6471
29.6800 -19.7554 0.6510
29.7000 -19.7687 0.6498
29.7200 -19.7821 0.6530
29.7400 -19.7955 0.6571
29.7600 -19.8088 0.6549
29.7800 -19.8221 0.6559
29.8000 -19.8355 0.6577
29.8200 -19.8488 0.6586
29.8400 -19.8621 0.6607
29.8600 -19.8755 0.6651
29.8800 -19.8888 0.6648
29.9000 -19.9022 0.6658
29.9200 -19.9155 0.6683
29.9400 -19.9288 0.6668
29.9600 -19.9421 0.6603
29.9800 -19.9555 0.6236
30.0000 -19.9688 0.5557
30.0200 -19.9821 0.4859
30.0400 -19.9954 0.4151
30.0600 -20.0087 0.3454
30.0800 -20.0221 0.2763
30.1000 -20.0354 0.2116
30.1200 -20.0488 0.1388
30.1400 -20.0621 0.0657
30.1600 -20.0755 -0.0061
30.1800 -20.0889 -0.0796
30.2000 -20.1022 -0.1321
30.2200 -20.1155 -0.1759
30.2400 -20.1288 -0.2307
30.2600 -20.1422 -0.2860
30.2800 -20.1555 -0.3399
30.3000 -20.1688 -0.3929
30.3200 -20.1821 -0.4410
30.3400 -20.1955 -0.4918
30.3600 -20.2088 -0.5517
30.3800 -20.2221 -0.6143
30.4000 -20.2354 -0.6789
30.4200 -20.2487 -0.7461
30.4400 -20.2621 -0.8119
30.4600 -20.2754 -0.8647
30.4800 -20.2888 -0.8896
30.5000 -20.3021 -0.8915
30.5200 -20.3155 -0.8870
30.5400 -20.3289 -0.8858
30.5600 -20.3422 -0.8833
30.5800 -20.3555 -0.8804
30.6000 -20.3688 -0.8810
30.6200 -20.3822 -0.8812
30.6400 -20.3955 -0.8791
30.6600 -20.4088 -0.8805
30.6800 -20.4221 -0.8792
30.7000 -20.4354 -0.8773
30.7200 -20.4488 -0.8766
30.7400 -20.4621 -0.8785
30.7600 -20.4754 -0.8762
30.7800 -20.4887 -0.8796
30.8000 -20.5021 -0.8781
30.8200 -20.5155 -0.8765
30.8400 -20.5288 -0.8770
30.8600 -20.5421 -0.8760
30.8800 -20.5555 -0.8729
30.9000 -20.5688 -0.8751
30.9200 -20.5821 -0.8747
30.9400 -20.5954 -0.8746
30.9600 -20.6087 -0.8719
30.9800 -20.6221 -0.8714
31.0000 -20.6355 -0.8668
31.0200 -20.6488 -0.8676
31.0400 -20.6621 -0.8659
31.0600 -20.6755 -0.8643
31.0800 -20.6888 -0.8632
31.1000 -20.7021 -0.8622
31.1200 -20.7154 -0.8580
31.1400 -20.7288 -0.8564
31.1600 -20.7421 -0.8559
31.1800 -20.7554 -0.8540
31.2000 -20.7688 -0.8524
31.2200 -20.7821 -0.8518
31.2400 -20.7955 -0.8472
31.2600 -20.8089 -0.8462
31.2800 -20.8222 -0.8464
31.3000 -20.8355 -0.8419
31.3200 -20.8488 -0.8420
31.3400 -20.8622 -0.8400
31.3600 -20.8755 -0.8347
31.3800 -20.8888 -0.8356
31.4000 -20.9021 -0.8325
31.4200 -20.9155 -0.8283
31.4400 -20.9288 -0.8271
31.4600 -20.9421 -0.8259
31.4800 -20.9554 -0.8238
31.5000 -20.9687 -0.8236
31.5200 -20.9821 -0.8230
31.5400 -20.9955 -0.8186
31.5600 -21.0088 -0.8170
31.5800 -21.0221 -0.8150
31.6000 -21.0355 -0.8125
31.6200 -21.0489 -0.8111
31.6400 -21.0622 -0.8119
31.6600 -21.0755 -0.8067
31.6800 -21.0888 -0.8075
31.7000 -21.1022 -0.8041
31.7200 -21.1155 -0.8025
31.7400 -21.1288 -0.8003
31.7600 -21.1421 -0.8018
31.7800 -21.1555 -0.7974
31.8000 -21.1688 -0.7983
31.8200 -21.1821 -0.7966
31.8400 -21.1954 -0.7946
31.8600 -21.2087 -0.7928
31.8800 -21.2221 -0.7927
31.9000 -21.2355 -0.7886
31.9200 -21.2488 -0.7896
31.9400 -21.2621 -0.7863
31.9600 -21.2754 -0.7841
31.9800 -21.2888 -0.7832
32.0000 -21.3022 -0.7826
32.0200 -21.3155 -0.7772
32.0400 -21.3288 -0.7765
32.0600 -21.3421 -0.7765
32.0800 -21.3555 -0.7731
32.1000 -21.3688 -0.7712
32.1200 -21.3821 -0.7721
32.1400 -21.3955 -0.7685
32.1600 -21.4088 -0.7676
32.1800 -21.4221 -0.7663
32.2000 -21.4354 -0.7629
32.2200 -21.4487 -0.7627
32.2400 -21.4621 -0.7658
32.2600 -21.4755 -0.7612
32.2800 -21.4888 -0.7603
32.3000 -21.5021 -0.7598
32.3200 -21.5155 -0.7541
32.3400 -21.5289 -0.7500
32.3600 -21.5422 -0.7500
32.3800 -21.5555 -0.7485
32.4000 -21.5688 -0.7501
32.4200 -21.5821 -0.7490
32.4400 -21.5955 -0.7420
32.4600 -21.6088 -0.7419
32.4800 -21.6221 -0.7410
32.5000 -21.6354 -0.7362
32.5200 -21.6488 -0.7331
32.5400 -21.6621 -0.7327
32.5600 -21.6754 -0.7294
32.5800 -21.6887 -0.7305
32.6000 -21.7021 -0.7314
32.6200 -21.7155 -0.7260
32.6400 -21.7288 -0.7249
32.6600 -21.7421 -0.7280
32.6800 -21.7554 -0.7216
32.7000 -21.7688 -0.7217
32.7200 -21.7822 -0.7221
32.7400 -21.7955 -0.7207
32.7600 -21.8088 -0.7184
32.7800 -21.8222 -0.7205
32.8000 -21.8355 -0.7188
32.8200 -21.8488 -0.7197
32.8400 -21.8621 -0.7200
32.8600 -21.8754 -0.7187
32.8800 -21.8888 -0.7175
32.9000 -21.9021 -0.7194
32.9200 -21.9154 -0.7154
32.9400 -21.9287 -0.7143
32.9600 -21.9421 -0.7152
32.9800 -21.9555 -0.7134
33.0000 -21.9688 -0.7127
33.0200 -21.9821 -0.7133
33.0400 -21.9954 -0.7091
33.0600 -22.0088 -0.7077
33.0800 -22.0222 -0.7084
33.1000 -22.0355 -0.7067
33.1200 -22.0488 -0.7056
33.1400 -22.0621 -0.7044
33.1600 -22.0755 -0.7008
33.1800 -22.0888 -0.6994
33.2000 -22.1021 -0.6992
33.2200 -22.1155 -0.6961
33.2400 -22.1288 -0.6947
33.2600 -22.1422 -0.6941
33.2800 -22.1554 -0.6928
33.3000 -22.1687 -0.6915
33.3200 -22.1820 -0.6909
33.3400 -22.1954 -0.6891
33.3600 -22.2087 -0.6873
33.3800 -22.2220 -0.6876
33.4000 -22.2354 -0.6871
33.4200 -22.2488 -0.6850
33.4400 -22.2622 -0.6859
33.4600 -22.2755 -0.6830
33.4800 -22.2888 -0.6829
33.5000 -22.3022 -0.6825
33.5200 -22.3155 -0.6805
33.5400 -22.3289 -0.6789
33.5600 -22.3422 -0.6808
33.5800 -22.3555 -0.6769
33.6000 -22.3688 -0.6780
33.6200 -22.3821 -0.6755
33.6400 -22.3954 -0.6764
33.6600 -22.4087 -0.6740
33.6800 -22.4221 -0.6766
33.7000 -22.4355 -0.6723
33.7200 -22.4488 -0.6713
33.7400 -22.4621 -0.6698
33.7600 -22.4755 -0.6676
33.7800 -22.4889 -0.6663
33.8000 -22.5022 -0.6663
33.8200 -22.5155 -0.6647
33.8400 -22.5288 -0.6634
33.8600 -22.5421 -0.6635
33.8800 -22.5555 -0.6611
33.9000 -22.5688 -0.6593
33.9200 -22.5821 -0.6588
33.9400 -22.5954 -0.6573
33.9600 -22.6088 -0.6524
33.9800 -22.6221 -0.6548
34.0000 -22.6354 -0.6506
34.0200 -22.6487 -0.6522
34.0400 -22.6621 -0.6513
34.0600 -22.6754 -0.6479
34.0800 -22.6888 -0.6456
34.1000 -22.7021 -0.6458
34.1200 -22.7154 -0.6436
34.1400 -22.7288 -0.6411
34.1600 -22.7422 -0.6392
34.1800 -22.7555 -0.6380
34.2000 -22.7688 -0.6338
34.2200 -22.7822 -0.6351
34.2400 -22.7955 -0.6335
34.2600 -22.8088 -0.6327
34.2800 -22.8221 -0.6308
34.3000 -22.8355 -0.6275
34.3200 -22.8488 -0.6245
34.3400 -22.8621 -0.6249
34.3600 -22.8754 -0.6229
34.3800 -22.8887 -0.6224
34.4000 -22.9021 -0.6198
34.4200 -22.9154 -0.6179
34.4400 -22.9288 -0.6143
34.4600 -22.9421 -0.6155
34.4800 -22.9554 -0.6109
34.5000 -22.9688 -0.6108
34.5200 -22.9822 -0.6109
34.5400 -22.9955 -0.6094
34.5600 -23.0088 -0.6091
34.5800 -23.0222 -0.6074
34.6000 -23.0355 -0.6040
34.6200 -23.0489 -0.6019
34.6400 -23.0621 -0.6036
34.6600 -23.0755 -0.6005
34.6800 -23.0888 -0.5978
34.7000 -23.1021 -0.6001
34.7200 -23.1154 -0.5997
34.7400 -23.1287 -0.5953
34.7600 -23.1421 -0.5964
34.7800 -23.1554 -0.5939
34.8000 -23.1688 -0.5933
34.8200 -23.1821 -0.5939
34.8400 -23.1954 -0.5899
34.8600 -23.2088 -0.5915
34.8800 -23.2222 -0.5917
34.9000 -23.2355 -0.5894
34.9200 -23.2488 -0.5888
34.9400 -23.2621 -0.5877
34.9600 -23.2755 -0.5879
34.9800 -23.2888 -0.5855
35.0000 -23.3022 -0.5869
35.0200 -23.3155 -0.5840
35.0400 -23.3288 -0.5854
35.0600 -23.3422 -0.5863
35.0800 -23.3554 -0.5861
35.1000 -23.3687 -0.5840
35.1200 -23.3821 -0.5858
35.1400 -23.3954 -0.5848
35.1600 -23.4088 -0.5855
35.1800 -23.4221 -0.5861
35.2000 -23.4354 -0.5844
35.2200 -23.4488 -0.5848
35.2400 -23.4622 -0.5843
35.2600 -23.4755 -0.5859
35.2800 -23.4888 -0.5832
35.3000 -23.5021 -0.5850
35.3200 -23.5155 -0.5825
35.3400 -23.5289 -0.5802
35.3600 -23.5422 -0.5807
35.3800 -23.5555 -0.5790
35.4000 -23.5688 -0.5777
35.4200 -23.5822 -0.5763
35.4400 -23.5954 -0.5753
35.4600 -23.6087 -0.5730
35.4800 -23.6220 -0.5722
35.5000 -23.6354 -0.5725
35.5200 -23.6488 -0.5705
35.5400 -23.6621 -0.5690
35.5600 -23.6754 -0.5684
35.5800 -23.6888 -0.5664
35.6000 -23.7022 -0.5652
35.6200 -23.7155 -0.5626
35.6400 -23.7288 -0.5602
35.6600 -23.7422 -0.5594
35.6800 -23.7555 -0.5588
35.7000 -23.7689 -0.5568
35.7200 -23.7822 -0.5556
35.7400 -23.7954 -0.5548
35.7600 -23.8087 -0.5505
35.7800 -23.8221 -0.5524
35.8000 -23.8354 -0.5514
35.8200 -23.8487 -0.5499
35.8400 -23.8620 -0.5460
35.8600 -23.8754 -0.5462
35.8800 -23.8888 -0.5432
35.9000 -23.9021 -0.5433
35.9200 -23.9155 -0.5399
35.9400 -23.9288 -0.5405
35.9600 -23.9422 -0.5381
35.9800 -23.9555 -0.5400
36.0000 -23.9688 -0.5367
36.0200 -23.9821 -0.5388
36.0400 -23.9955 -0.5324
36.0600 -24.0089 -0.5321
36.0800 -24.0222 -0.5318
36.1000 -24.0355 -0.5319
36.1200 -24.0488 -0.5284
36.1400 -24.0622 -0.5293
36.1600 -24.0755 -0.5268
36.1800 -24.0887 -0.5254
36.2000 -24.1021 -0.5262
36.2200 -24.1154 -0.5245
36.2400 -24.1288 -0.5229
36.2600 -24.1421 -0.5212
36.2800 -24.1554 -0.5246
36.3000 -24.1688 -0.5210
36.3200 -24.1822 -0.5182
36.3400 -24.1955 -0.5223
36.3600 -24.2088 -0.5176
36.3800 -24.2221 -0.5185
36.4000 -24.2355 -0.5163
36.4200 -24.2488 -0.5129
36.4400 -24.2621 -0.5129
36.4600 -24.2754 -0.5116
36.4800 -24.2888 -0.5104
36.5000 -24.3021 -0.5088
36.5200 -24.3154 -0.5098
36.5400 -24.3287 -0.5058
36.5600 -24.3420 -0.5054
36.5800 -24.3554 -0.5029
36.6000 -24.3688 -0.5015
36.6200 -24.3821 -0.5027
36.6400 -24.3954 -0.5037
36.6600 -24.4088 -0.4978
36.6800 -24.4222 -0.4991
36.7000 -24.4355 -0.4978
36.7200 -24.4488 -0.4981
36.7400 -24.4621 -0.4969
36.7600 -24.4755 -0.4980
36.7800 -24.4888 -0.4944
36.8000 -24.5021 -0.4966
36.8200 -24.5154 -0.4949
36.8400 -24.5288 -0.4936
36.8600 -24.5421 -0.4929
36.8800 -24.5554 -0.4948
36.9000 -24.5687 -0.4900
36.9200 -24.5821 -0.4911
36.9400 -24.5955 -0.4886
36.9600 -24.6088 -0.4903
36.9800 -24.6222 -0.4882
37.0000 -24.6355 -0.4888
37.0200 -24.6488 -0.4870
37.0400 -24.6622 -0.4883
37.0600 -24.6755 -0.4854
37.0800 -24.6888 -0.4831
37.1000 -24.7022 -0.4813
37.1200 -24.7155 -0.4829
37.1400 -24.7289 -0.4822
37.1600 -24.7422 -0.4810
37.1800 -24.7555 -0.4820
37.2000 -24.7688 -0.4802
37.2200 -24.7821 -0.4813
37.2400 -24.7954 -0.4799
37.2600 -24.8087 -0.4789
37.2800 -24.8220 -0.4763
37.3000 -24.8354 -0.4783
37.3200 -24.8488 -0.4761
37.3400 -24.8621 -0.4746
37.3600 -24.8754 -0.4738
37.3800 -24.8888 -0.4722
37.4000 -24.9022 -0.4720
37.4200 -24.9155 -0.4744
37.4400 -24.9288 -0.4698
37.4600 -24.9422 -0.4704
37.4800 -24.9555 -0.4699
37.5000 -24.9689 -0.4688
37.5200 -24.9822 -0.4698
37.5400 -24.9955 -0.4699
37.5600 -25.0088 -0.4670
37.5800 -25.0221 -0.4662
37.6000 -25.0354 -0.4654
37.6200 -25.0487 -0.4630
37.6400 -25.0620 -0.4610
37.6600 -25.0754 -0.4623
37.6800 -25.0888 -0.4606
37.7000 -25.1021 -0.4583
37.7200 -25.1154 -0.4583
37.7400 -25.1288 -0.4542
37.7600 -25.1422 -0.4524
37.7800 -25.1555 -0.4512
37.8000 -25.1688 -0.4516
37.8200 -25.1822 -0.4499
37.8400 -25.1955 -0.4471
37.8600 -25.2088 -0.4458
37.8800 -25.2222 -0.4447
37.9000 -25.2354 -0.4436
37.9200 -25.2488 -0.4406
37.9400 -25.2621 -0.4391
37.9600 -25.2754 -0.4400
37.9800 -25.2887 -0.4385
38.0000 -25.3021 -0.4376
38.0200 -25.3154 -0.4379
38.0400 -25.3288 -0.4348
38.0600 -25.3421 -0.4356
38.0800 -25.3555 -0.4336
38.1000 -25.3688 -0.4335
38.1200 -25.3822 -0.4313
38.1400 -25.3955 -0.4306
38.1600 -25.4088 -0.4309
38.1800 -25.4221 -0.4293
38.2000 -25.4354 -0.4274
38.2200 -25.4488 -0.4264
38.2400 -25.4621 -0.4260
38.2600 -25.4754 -0.4263
38.2800 -25.4888 -0.4241
38.3000 -25.5021 -0.4243
38.3200 -25.5154 -0.4242
38.3400 -25.5287 -0.4241
38.3600 -25.5421 -0.4227
38.3800 -25.5554 -0.4222
38.4000 -25.5688 -0.4212
38.4200 -25.5821 -0.4221
38.4400 -25.5954 -0.4223
38.4600 -25.6088 -0.4199
38.4800 -25.6222 -0.4171
38.5000 -25.6355 -0.4177
38.5200 -25.6488 -0.4184
38.5400 -25.6621 -0.4161
38.5600 -25.6755 -0.4155
38.5800 -25.6889 -0.4152
38.6000 -25.7022 -0.4139
38.6200 -25.7155 -0.4129
38.6400 -25.7288 -0.4118
38.6600 -25.7421 -0.4108
38.6800 -25.7555 -0.4112
38.7000 -25.7688 -0.4105
38.7200 -25.7821 -0.4086
38.7400 -25.7954 -0.4082
38.7600 -25.8088 -0.4063
38.7800 -25.8221 -0.4062
38.8000 -25.8354 -0.4072
38.8200 -25.8488 -0.4054
38.8400 -25.8622 -0.4031
38.8600 -25.8755 -0.4022
38.8800 -25.8888 -0.4024
38.9000 -25.9021 -0.4028
38.9200 -25.9155 -0.3994
38.9400 -25.9288 -0.3983
38.9600 -25.9422 -0.3935
38.9800 -25.9555 -0.3970
39.0000 -25.9688 -0.3939
39.0200 -25.9821 -0.3938
39.0400 -25.9955 -0.3915
39.0600 -26.0088 -0.3908
39.0800 -26.0221 -0.3900
39.1000 -26.0354 -0.3907
39.1200 -26.0488 -0.3891
39.1400 -26.0621 -0.3870
39.1600 -26.0754 -0.3855
39.1800 -26.0888 -0.3841
39.2000 -26.1021 -0.3840
39.2200 -26.1155 -0.3809
39.2400 -26.1288 -0.3814
39.2600 -26.1421 -0.3799
39.2800 -26.1554 -0.3807
39.3000 -26.1688 -0.3776
39.3200 -26.1822 -0.3800
39.3400 -26.1955 -0.3789
39.3600 -26.2088 -0.3765
39.3800 -26.2222 -0.3737
39.4000 -26.2355 -0.3734
39.4200 -26.2488 -0.3729
39.4400 -26.2621 -0.3726
39.4600 -26.2754 -0.3694
39.4800 -26.2888 -0.3709
39.5000 -26.3021 -0.3677
39.5200 -26.3154 -0.3694
39.5400 -26.3288 -0.3676
39.5600 -26.3422 -0.3671
39.5800 -26.3555 -0.3658
39.6000 -26.3688 -0.3651
39.6200 -26.3821 -0.3631
39.6400 -26.3955 -0.3644
39.6600 -26.4088 -0.3626
39.6800 -26.4221 -0.3622
39.7000 -26.4355 -0.3604
39.7200 -26.4488 -0.3600
39.7400 -26.4621 -0.3558
39.7600 -26.4755 -0.3571
39.7800 -26.4888 -0.3557
39.8000 -26.5021 -0.3564
39.8200 -26.5154 -0.3548
39.8400 -26.5288 -0.3553
39.8600 -26.5422 -0.3495
39.8800 -26.5555 -0.3527
39.9000 -26.5688 -0.3505
39.9200 -26.5821 -0.3500
39.9400 -26.5955 -0.3463
39.9600 -26.6088 -0.3482
39.9800 -26.6221 -0.3463
40.0000 -26.6355 -0.3462
40.0200 -26.6488 -0.3440
40.0400 -26.6622 -0.3433
40.0600 -26.6755 -0.3421
40.0800 -26.6888 -0.3413
40.1000 -26.7021 -0.3408
40.1200 -26.7154 -0.3387
40.1400 -26.7287 -0.3404
40.1600 -26.7420 -0.3390
40.1800 -26.7554 -0.3388
40.2000 -26.7688 -0.3369
40.2200 -26.7821 -0.3378
40.2400 -26.7954 -0.3362
40.2600 -26.8088 -0.3382
40.2800 -26.8221 -0.3344
40.3000 -26.8355 -0.3358
40.3200 -26.8488 -0.3329
40.3400 -26.8621 -0.3341
40.3600 -26.8754 -0.3328
40.3800 -26.8888 -0.3348
40.4000 -26.9022 -0.3319
40.4200 -26.9155 -0.3323
40.4400 -26.9288 -0.3298
40.4600 -26.9422 -0.3324
40.4800 -26.9555 -0.3313
40.5000 -26.9688 -0.3315
40.5200 -26.9821 -0.3284
40.5400 -26.9954 -0.3280
40.5600 -27.0087 -0.3259
40.5800 -27.0220 -0.3262
40.6000 -27.0354 -0.3251
40.6200 -27.0487 -0.3242
40.6400 -27.0621 -0.3219
40.6600 -27.0755 -0.3221
40.6800 -27.0888 -0.3180
40.7000 -27.1021 -0.3195
40.7200 -27.1155 -0.3191
40.7400 -27.1289 -0.3203
40.7600 -27.1422 -0.3158
40.7800 -27.1555 -0.3157
40.8000 -27.1688 -0.3123
40.8200 -27.1821 -0.3121
40.8400 -27.1955 -0.3085
40.8600 -27.2088 -0.3101
40.8800 -27.2221 -0.3080
40.9000 -27.2354 -0.3112
40.9200 -27.2488 -0.3076
40.9400 -27.2622 -0.3066
40.9600 -27.2755 -0.3032
40.9800 -27.2888 -0.3021
41.0000 -27.3022 -0.3021
41.0200 -27.3155 -0.3027
41.0400 -27.3289 -0.3021
41.0600 -27.3422 -0.3015
41.0800 -27.3555 -0.2984
41.1000 -27.3688 -0.2970
41.1200 -27.3822 -0.2967
41.1400 -27.3955 -0.2943
41.1600 -27.4088 -0.2936
41.1800 -27.4221 -0.2927
41.2000 -27.4355 -0.2922
41.2200 -27.4488 -0.2915
41.2400 -27.4621 -0.2922
41.2600 -27.4754 -0.2897
41.2800 -27.4888 -0.2906
41.3000 -27.5021 -0.2891
41.3200 -27.5155 -0.2889
41.3400 -27.5288 -0.2872
41.3600 -27.5421 -0.2871
41.3800 -27.5555 -0.2864
41.4000 -27.5688 -0.2898
41.4200 -27.5821 -0.2878
41.4400 -27.5955 -0.2870
41.4600 -27.6088 -0.2884
41.4800 -27.6222 -0.2875
41.5000 -27.6355 -0.2855
41.5200 -27.6488 -0.2868
41.5400 -27.6621 -0.2861
41.5600 -27.6755 -0.2857
41.5800 -27.6888 -0.2838
41.6000 -27.7021 -0.2842
41.6200 -27.7154 -0.2823
41.6400 -27.7287 -0.2830
41.6600 -27.7421 -0.2806
41.6800 -27.7554 -0.2820
41.7000 -27.7687 -0.2817
41.7200 -27.7821 -0.2815
41.7400 -27.7955 -0.2783
41.7600 -27.8089 -0.2794
41.7800 -27.8222 -0.2768
41.8000 -27.8355 -0.2773
41.8200 -27.8488 -0.2755
41.8400 -27.8622 -0.2744
41.8600 -27.8755 -0.2707
41.8800 -27.8888 -0.2701
41.9000 -27.9021 -0.2710
41.9200 -27.9155 -0.2687
41.9400 -27.9288 -0.2684
41.9600 -27.9421 -0.2671
41.9800 -27.9554 -0.2662
42.0000 -27.9688 -0.2648
42.0200 -27.9821 -0.2639
42.0400 -27.9954 -0.2633
42.0600 -28.0087 -0.2623
42.0800 -28.0221 -0.2605
42.1000 -28.0355 -0.2595
42.1200 -28.0488 -0.2581
42.1400 -28.0621 -0.2596
42.1600 -28.0755 -0.2574
42.1800 -28.0888 -0.2569
42.2000 -28.1022 -0.2541
42.2200 -28.1155 -0.2544
42.2400 -28.1288 -0.2530
42.2600 -28.1422 -0.2530
42.2800 -28.1555 -0.2502
42.3000 -28.1688 -0.2505
42.3200 -28.1821 -0.2486
42.3400 -28.1954 -0.2491
42.3600 -28.2087 -0.2478
42.3800 -28.2221 -0.2485
42.4000 -28.2354 -0.2440
42.4200 -28.2487 -0.2438
42.4400 -28.2621 -0.2432
42.4600 -28.2755 -0.2423
42.4800 -28.2888 -0.2424
42.5000 -28.3021 -0.2416
42.5200 -28.3154 -0.2414
42.5400 -28.3288 -0.2417
42.5600 -28.3422 -0.2388
42.5800 -28.3555 -0.2363
42.6000 -28.3688 -0.2351
42.6200 -28.3822 -0.2357
42.6400 -28.3955 -0.2325
42.6600 -28.4088 -0.2320
42.6800 -28.4221 -0.2326
42.7000 -28.4354 -0.2318
42.7200 -28.4487 -0.2318
42.7400 -28.4621 -0.2306
42.7600 -28.4754 -0.2306
42.7800 -28.4887 -0.2283
42.8000 -28.5021 -0.2275
42.8200 -28.5155 -0.2254
42.8400 -28.5289 -0.2254
42.8600 -28.5422 -0.2238
42.8800 -28.5555 -0.2240
42.9000 -28.5688 -0.2217
42.9200 -28.5822 -0.2214
42.9400 -28.5955 -0.2185
42.9600 -28.6088 -0.2197
42.9800 -28.6221 -0.2174
43.0000 -28.6354 -0.2161
43.0200 -28.6487 -0.2143
43.0400 -28.6620 -0.2142
43.0600 -28.6754 -0.2119
43.0800 -28.6887 -0.2127
43.1000 -28.7021 -0.2117
43.1200 -28.7155 -0.2105
43.1400 -28.7288 -0.2087
43.1600 -28.7421 -0.2090
43.1800 -28.7555 -0.2072
43.2000 -28.7689 -0.2065
43.2200 -28.7822 -0.2060
43.2400 -28.7955 -0.2011
43.2600 -28.8088 -0.2009
43.2800 -28.8222 -0.2007
43.3000 -28.8355 -0.1983
43.3200 -28.8488 -0.1996
43.3400 -28.8621 -0.1977
43.3600 -28.8755 -0.1960
43.3800 -28.8888 -0.1942
43.4000 -28.9021 -0.1946
43.4200 -28.9154 -0.1939
43.4400 -28.9287 -0.1952
43.4600 -28.9421 -0.1941
43.4800 -28.9554 -0.1905
43.5000 -28.9688 -0.1910
43.5200 -28.9821 -0.1901
43.5400 -28.9955 -0.1876
43.5600 -29.0089 -0.1867
43.5800 -29.0222 -0.1877
43.6000 -29.0355 -0.1831
43.6200 -29.0488 -0.1835
43.6400 -29.0622 -0.1828
43.6600 -29.0755 -0.1803
43.6800 -29.0888 -0.1807
43.7000 -29.1021 -0.1824
43.7200 -29.1155 -0.1801
43.7400 -29.1288 -0.1796
43.7600 -29.1421 -0.1793
43.7800 -29.1554 -0.1778
43.8000 -29.1687 -0.1777
43.8200 -29.1821 -0.1775
43.8400 -29.1955 -0.1758
43.8600 -29.2088 -0.1762
43.8800 -29.2221 -0.1764
43.9000 -29.2355 -0.1764
43.9200 -29.2488 -0.1749
43.9400 -29.2622 -0.1739
43.9600 -29.2755 -0.1717
43.9800 -29.2888 -0.1728
44.0000 -29.3022 -0.1725
44.0200 -29.3155 -0.1719
44.0400 -29.3288 -0.1721
44.0600 -29.3421 -0.1735
44.0800 -29.3554 -0.1686
44.1000 -29.3688 -0.1684
44.1200 -29.3821 -0.1685
44.1400 -29.3954 -0.1698
44.1600 -29.4087 -0.1668
44.1800 -29.4221 -0.1682
44.2000 -29.4355 -0.1672
44.2200 -29.4488 -0.1661
44.2400 -29.4621 -0.1672
44.2600 -29.4755 -0.1653
44.2800 -29.4888 -0.1644
44.3000 -29.5021 -0.1639
44.3200 -29.5155 -0.1634
44.3400 -29.5288 -0.1628
44.3600 -29.5422 -0.1644
44.3800 -29.5555 -0.1614
44.4000 -29.5688 -0.1608
44.4200 -29.5821 -0.1612
44.4400 -29.5955 -0.1612
44.4600 -29.6088 -0.1577
44.4800 -29.6221 -0.1580
44.5000 -29.6354 -0.1565
44.5200 -29.6487 -0.1548
44.5400 -29.6621 -0.1554
44.5600 -29.6755 -0.1541
44.5800 -29.6888 -0.1528
44.6000 -29.7021 -0.1551
44.6200 -29.7155 -0.1508
44.6400 -29.7289 -0.1510
44.6600 -29.7422 -0.1513
44.6800 -29.7555 -0.1477
44.7000 -29.7688 -0.1477
44.7200 -29.7822 -0.1470
44.7400 -29.7955 -0.1423
44.7600 -29.8088 -0.1405
44.7800 -29.8221 -0.1411
44.8000 -29.8355 -0.1402
44.8200 -29.8488 -0.1377
44.8400 -29.8621 -0.1381
44.8600 -29.8754 -0.1348
44.8800 -29.8887 -0.1333
44.9000 -29.9021 -0.1323
44.9200 -29.9154 -0.1315
44.9400 -29.9287 -0.1313
44.9600 -29.9421 -0.1311
44.9800 -29.9555 -0.1307
45.0000 -29.9689 -0.1300
45.0200 -29.9822 -0.1299
45.0400 -29.9955 -0.1276
45.0600 -30.0088 -0.1246
45.0800 -30.0222 -0.1241
45.1000 -30.0355 -0.1215
45.1200 -30.0488 -0.1224
45.1400 -30.0621 -0.1218
45.1600 -30.0755 -0.1201
45.1800 -30.0888 -0.1200
45.2000 -30.1021 -0.1175
45.2200 -30.1154 -0.1179
45.2400 -30.1287 -0.1147
45.2600 -30.1421 -0.1184
45.2800 -30.1555 -0.1138
45.3000 -30.1688 -0.1146
45.3200 -30.1821 -0.1130
45.3400 -30.1955 -0.1148
45.3600 -30.2088 -0.1115
45.3800 -30.2221 -0.1137
45.4000 -30.2354 -0.1102
45.4200 -30.2487 -0.1119
45.4400 -30.2621 -0.1105
45.4600 -30.2755 -0.1098
45.4800 -30.2888 -0.1101
45.5000 -30.3021 -0.1107
45.5200 -30.3155 -0.1093
45.5400 -30.3288 -0.1092
45.5600 -30.3421 -0.1092
45.5800 -30.3554 -0.1091
45.6000 -30.3687 -0.1074
45.6200 -30.3821 -0.1081
45.6400 -30.3954 -0.1072
45.6600 -30.4088 -0.1057
45.6800 -30.4221 -0.1076
45.7000 -30.4355 -0.1061
45.7200 -30.4488 -0.1043
45.7400 -30.4622 -0.1039
45.7600 -30.4755 -0.1004
45.7800 -30.4888 -0.0999
45.8000 -30.5022 -0.1005
45.8200 -30.5155 -0.1005
45.8400 -30.5288 -0.0989
45.8600 -30.5421 -0.0990
45.8800 -30.5554 -0.0969
45.9000 -30.5688 -0.0945
45.9200 -30.5821 -0.0962
45.9400 -30.5954 -0.0934
45.9600 -30.6087 -0.0934
45.9800 -30.6221 -0.0925
46.0000 -30.6354 -0.0917
46.0200 -30.6487 -0.0885
46.0400 -30.6621 -0.0907
46.0600 -30.6754 -0.0876
46.0800 -30.6888 -0.0871
46.1000 -30.7022 -0.0859
46.1200 -30.7155 -0.0869
46.1400 -30.7288 -0.0832
46.1600 -30.7422 -0.0865
46.1800 -30.7555 -0.0820
46.2000 -30.7688 -0.0808
46.2200 -30.7821 -0.0814
46.2400 -30.7955 -0.0782
46.2600 -30.8088 -0.0766
46.2800 -30.8221 -0.0778
46.3000 -30.8354 -0.0772
46.3200 -30.8487 -0.0760
46.3400 -30.8621 -0.0760
46.3600 -30.8755 -0.0754
46.3800 -30.8888 -0.0714
46.4000 -30.9021 -0.0715
46.4200 -30.9154 -0.0715
46.4400 -30.9288 -0.0697
46.4600 -30.9422 -0.0679
46.4800 -30.9555 -0.0680
46.5000 -30.9688 -0.0642
46.5200 -30.9822 -0.0660
46.5400 -30.9955 -0.0631
46.5600 -31.0088 -0.0637
46.5800 -31.0222 -0.0619
46.6000 -31.0355 -0.0585
46.6200 -31.0488 -0.0566
46.6400 -31.0622 -0.0577
46.6600 -31.0754 -0.0565
46.6800 -31.0887 -0.0542
46.7000 -31.1021 -0.0546
46.7200 -31.1154 -0.0526
46.7400 -31.1288 -0.0510
46.7600 -31.1421 -0.0515
46.7800 -31.1555 -0.0525
46.8000 -31.1689 -0.0490
46.8200 -31.1822 -0.0500
46.8400 -31.1955 -0.0485
46.8600 -31.2088 -0.0469
46.8800 -31.2221 -0.0455
46.9000 -31.2355 -0.0448
46.9200 -31.2488 -0.0411
46.9400 -31.2621 -0.0438
46.9600 -31.2754 -0.0407
46.9800 -31.2888 -0.0396
47.0000 -31.3021 -0.0412
47.0200 -31.3154 -0.0389
47.0400 -31.3287 -0.0370
47.0600 -31.3421 -0.0382
47.0800 -31.3555 -0.0353
47.1000 -31.3688 -0.0344
47.1200 -31.3821 -0.0355
47.1400 -31.3955 -0.0367
47.1600 -31.4088 -0.0337
47.1800 -31.4222 -0.0323
47.2000 -31.4355 -0.0315
47.2200 -31.4488 -0.0314
47.2400 -31.4621 -0.0313
47.2600 -31.4755 -0.0281
47.2800 -31.4888 -0.0264
47.3000 -31.5021 -0.0284
47.3200 -31.5154 -0.0274
47.3400 -31.5288 -0.0257
47.3600 -31.5421 -0.0262
47.3800 -31.5554 -0.0249
47.4000 -31.5687 -0.0233
47.4200 -31.5821 -0.0250
47.4400 -31.5955 -0.0246
47.4600 -31.6088 -0.0230
47.4800 -31.6221 -0.0241
47.5000 -31.6354 -0.0215
47.5200 -31.6488 -0.0196
47.5400 -31.6622 -0.0225
47.5600 -31.6755 -0.0204
47.5800 -31.6888 -0.0177
47.6000 -31.7021 -0.0168
47.6200 -31.7155 -0.0152
47.6400 -31.7288 -0.0154
47.6600 -31.7421 -0.0142
47.6800 -31.7555 -0.0140
47.7000 -31.7688 -0.0113
47.7200 -31.7822 -0.0110
47.7400 -31.7954 -0.0127
47.7600 -31.8087 -0.0089
47.7800 -31.8221 -0.0082
47.8000 -31.8354 -0.0076
47.8200 -31.8487 -0.0050
47.8400 -31.8620 -0.0068
47.8600 -31.8754 -0.0060
47.8800 -31.8888 -0.0038
47.9000 -31.9022 -0.0020
47.9200 -31.9155 -0.0015
47.9400 -31.9288 0.0013
47.9600 -31.9422 0.0007
47.9800 -31.9555 0.0028
48.0000 -31.9689 0.0063
48.0200 -31.9822 0.0030
48.0400 -31.9955 0.0037
48.0600 -32.0088 0.0080
48.0800 -32.0221 0.0084
48.1000 -32.0354 0.0085
48.1200 -32.0487 0.0123
48.1400 -32.0621 0.0104
48.1600 -32.0754 0.0119
48.1800 -32.0888 0.0138
48.2000 -32.1021 0.0166
48.2200 -32.1155 0.0139
48.2400 -32.1288 0.0192
48.2600 -32.1422 0.0178
48.2800 -32.1555 0.0188
48.3000 -32.1688 0.0201
48.3200 -32.1821 0.0213
48.3400 -32.1955 0.0198
48.3600 -32.2088 0.0244
48.3800 -32.2221 0.0218
48.4000 -32.2354 0.0239
48.4200 -32.2488 0.0244
48.4400 -32.2621 0.0269
48.4600 -32.2754 0.0264
48.4800 -32.2887 0.0286
48.5000 -32.3021 0.0297
48.5200 -32.3154 0.0272
48.5400 -32.3288 0.0296
48.5600 -32.3421 0.0323
48.5800 -32.3554 0.0299
48.6000 -32.3688 0.0324
48.6200 -32.3822 0.0309
48.6400 -32.3955 0.0310
48.6600 -32.4088 0.0337
48.6800 -32.4221 0.0347
48.7000 -32.4355 0.0321
48.7200 -32.4488 0.0340
48.7400 -32.4621 0.0338
48.7600 -32.4755 0.0347
48.7800 -32.4888 0.0380
48.8000 -32.5021 0.0380
48.8200 -32.5154 0.0358
48.8400 -32.5287 0.0393
48.8600 -32.5420 0.0377
48.8800 -32.5554 0.0359
48.9000 -32.5688 0.0398
48.9200 -32.5821 0.0395
48.9400 -32.5954 0.0400
48.9600 -32.6088 0.0403
48.9800 -32.6222 0.0416
49.0000 -32.6355 0.0409
49.0200 -32.6488 0.0435
49.0400 -32.6622 0.0440
49.0600 -32.6755 0.0435
49.0800 -32.6889 0.0450
49.1000 -32.7022 0.0475
49.1200 -32.7155 0.0454
49.1400 -32.7288 0.0485
49.1600 -32.7422 0.0484
49.1800 -32.7555 0.0494
49.2000 -32.7688 0.0506
49.2200 -32.7821 0.0537
49.2400 -32.7955 0.0512
49.2600 -32.8088 0.0554
49.2800 -32.8221 0.0560
49.3000 -32.8354 0.0559
49.3200 -32.8488 0.0568
49.3400 -32.8622 0.0578
49.3600 -32.8755 0.0557
49.3800 -32.8888 0.0606
49.4000 -32.9021 0.0593
49.4200 -32.9155 0.0615
49.4400 -32.9289 0.0634
49.4600 -32.9422 0.0634
49.4800 -32.9555 0.0639
49.5000 -32.9688 0.0663
49.5200 -32.9822 0.0677
49.5400 -32.9954 0.0676
49.5600 -33.0087 0.0692
49.5800 -33.0221 0.0705
49.6000 -33.0354 0.0716
49.6200 -33.0488 0.0742
49.6400 -33.0621 0.0730
49.6600 -33.0754 0.0713
49.6800 -33.0888 0.0749
49.7000 -33.1021 0.0734
49.7200 -33.1155 0.0737
49.7400 -33.1288 0.0751
49.7600 -33.1421 0.0778
49.7800 -33.1555 0.0772
49.8000 -33.1688 0.0788
49.8200 -33.1822 0.0792
49.8400 -33.1955 0.0770
49.8600 -33.2088 0.0800
49.8800 -33.2222 0.0814
49.9000 -33.2355 0.0808
49.9200 -33.2487 0.0828
49.9400 -33.2621 0.0821
49.9600 -33.2754 0.0837
49.9800 -33.2888 0.0847
50.0000 -33.3021 0.0861
50.0200 -33.3154 0.0831
50.0400 -33.3288 0.0865
50.0600 -33.3422 0.0867
50.0800 -33.3555 0.0875
50.1000 -33.3688 0.0875
50.1200 -33.3822 0.0905
50.1400 -33.3955 0.0894
50.1600 -33.4089 0.0944
50.1800 -33.4222 0.0953
50.2000 -33.4354 0.0960
50.2200 -33.4487 0.0971
50.2400 -33.4621 0.1007
50.2600 -33.4754 0.0992
50.2800 -33.4887 0.1012
50.3000 -33.5021 0.1029
50.3200 -33.5154 0.1043
50.3400 -33.5288 0.1067
50.3600 -33.5421 0.1072
50.3800 -33.5555 0.1069
50.4000 -33.5688 0.1110
50.4200 -33.5822 0.1127
50.4400 -33.5956 0.1110
50.4600 -33.6088 0.1129
50.4800 -33.6222 0.1121
50.5000 -33.6355 0.1117
50.5200 -33.6489 0.1166
50.5400 -33.6622 0.1151
50.5600 -33.6755 0.1152
50.5800 -33.6888 0.1166
50.6000 -33.7022 0.1204
50.6200 -33.7155 0.1183
50.6400 -33.7288 0.1207
50.6600 -33.7421 0.1226
50.6800 -33.7554 0.1201
50.7000 -33.7688 0.1221
50.7200 -33.7821 0.1240
50.7400 -33.7955 0.1235
50.7600 -33.8088 0.1256
50.7800 -33.8222 0.1276
50.8000 -33.8355 0.1261
50.8200 -33.8488 0.1309
50.8400 -33.8621 0.1279
50.8600 -33.8755 0.1275
50.8800 -33.8888 0.1280
50.9000 -33.9021 0.1325
50.9200 -33.9154 0.1272
50.9400 -33.9288 0.1299
50.9600 -33.9421 0.1285
50.9800 -33.9554 0.1288
51.0000 -33.9687 0.1303
51.0200 -33.9820 0.1307
51.0400 -33.9953 0.1295
51.0600 -34.0087 0.1318
51.0800 -34.0221 0.1328
51.1000 -34.0354 0.1307
51.1200 -34.0488 0.1313
51.1400 -34.0622 0.1315
51.1600 -34.0755 0.1348
51.1800 -34.0888 0.1349
51.2000 -34.1021 0.1368
51.2200 -34.1155 0.1339
51.2400 -34.1288 0.1344
51.2600 -34.1421 0.1352
51.2800 -34.1554 0.1346
51.3000 -34.1688 0.1379
51.3200 -34.1821 0.1387
51.3400 -34.1954 0.1376
51.3600 -34.2087 0.1383
51.3800 -34.2220 0.1417
51.4000 -34.2354 0.1416
51.4200 -34.2488 0.1426
51.4400 -34.2621 0.1453
51.4600 -34.2755 0.1442
51.4800 -34.2888 0.1447
51.5000 -34.3022 0.1465
51.5200 -34.3155 0.1458
51.5400 -34.3288 0.1468
51.5600 -34.3422 0.1499
51.5800 -34.3555 0.1505
51.6000 -34.3689 0.1526
51.6200 -34.3822 0.1538
51.6400 -34.3955 0.1533
51.6600 -34.4088 0.1544
51.6800 -34.4221 0.1583
51.7000 -34.4354 0.1569
51.7200 -34.4487 0.1594
51.7400 -34.4620 0.1619
51.7600 -34.4754 0.1601
51.7800 -34.4888 0.1665
51.8000 -34.5021 0.1658
51.8200 -34.5154 0.1653
51.8400 -34.5288 0.1662
51.8600 -34.5422 0.1683
51.8800 -34.5555 0.1694
51.9000 -34.5689 0.1712
51.9200 -34.5822 0.1748
51.9400 -34.5955 0.1738
51.9600 -34.6089 0.1750
51.9800 -34.6222 0.1774
52.0000 -34.6355 0.1780
52.0200 -34.6488 0.1770
52.0400 -34.6621 0.1827
52.0600 -34.6754 0.1819
52.0800 -34.6887 0.1848
52.1000 -34.7020 0.1856
52.1200 -34.7154 0.1863
52.1400 -34.7287 0.1865
52.1600 -34.7421 0.1891
52.1800 -34.7554 0.1886
52.2000 -34.7688 0.1881
52.2200 -34.7822 0.1919
52.2400 -34.7955 0.1903
52.2600 -34.8089 0.1936
52.2800 -34.8222 0.1951
52.3000 -34.8355 0.1957
52.3200 -34.8488 0.1952
52.3400 -34.8622 0.2009
52.3600 -34.8754 0.1969
52.3800 -34.8888 0.2011
52.4000 -34.9021 0.2032
52.4200 -34.9154 0.2031
52.4400 -34.9287 0.2029
52.4600 -34.9420 0.2060
52.4800 -34.9554 0.2048
52.5000 -34.9688 0.2053
52.5200 -34.9822 0.2098
52.5400 -34.9955 0.2092
52.5600 -35.0088 0.2092
52.5800 -35.0222 0.2133
52.6000 -35.0355 0.2143
52.6200 -35.0488 0.2115
52.6400 -35.0621 0.2142
52.6600 -35.0754 0.2136
52.6800 -35.0888 0.2147
52.7000 -35.1022 0.2184
52.7200 -35.1155 0.2175
52.7400 -35.1288 0.2176
52.7600 -35.1421 0.2213
52.7800 -35.1555 0.2213
52.8000 -35.1688 0.2197
52.8200 -35.1821 0.2221
52.8400 -35.1954 0.2215
52.8600 -35.2088 0.2229
52.8800 -35.2221 0.2257
52.9000 -35.2354 0.2266
52.9200 -35.2488 0.2276
52.9400 -35.2622 0.2287
52.9600 -35.2755 0.2283
52.9800 -35.2888 0.2289
53.0000 -35.3021 0.2323
53.0200 -35.3155 0.2311
53.0400 -35.3289 0.2324
53.0600 -35.3422 0.2313
53.0800 -35.3555 0.2329
53.1000 -35.3688 0.2321
53.1200 -35.3821 0.2351
53.1400 -35.3955 0.2315
53.1600 -35.4088 0.2336
53.1800 -35.4221 0.2326
53.2000 -35.4354 0.2356
53.2200 -35.4488 0.2360
53.2400 -35.4621 0.2384
53.2600 -35.4754 0.2374
53.2800 -35.4888 0.2378
53.3000 -35.5021 0.2404
53.3200 -35.5155 0.2399
53.3400 -35.5288 0.2396
53.3600 -35.5421 0.2420
53.3800 -35.5555 0.2422
53.4000 -35.5688 0.2423
53.4200 -35.5822 0.2446
53.4400 -35.5955 0.2423
53.4600 -35.6088 0.2430
53.4800 -35.6221 0.2454
53.5000 -35.6355 0.2472
53.5200 -35.6488 0.2480
53.5400 -35.6621 0.2493
53.5600 -35.6754 0.2509
53.5800 -35.6888 0.2496
53.6000 -35.7021 0.2528
53.6200 -35.7154 0.2518
53.6400 -35.7287 0.2521
53.6600 -35.7421 0.2547
53.6800 -35.7555 0.2546
53.7000 -35.7688 0.2564
53.7200 -35.7821 0.2565
53.7400 -35.7955 0.2598
53.7600 -35.8088 0.2589
53.7800 -35.8222 0.2626
53.8000 -35.8355 0.2624
53.8200 -35.8488 0.2632
53.8400 -35.8621 0.2666
53.8600 -35.8755 0.2667
53.8800 -35.8888 0.2655
53.9000 -35.9021 0.2695
53.9200 -35.9154 0.2691
53.9400 -35.9288 0.2712
53.9600 -35.9421 0.2741
53.9800 -35.9554 0.2721
54.0000 -35.9688 0.2719
54.0200 -35.9821 0.2752
54.0400 -35.9955 0.2748
54.0600 -36.0088 0.2764
54.0800 -36.0221 0.2778
54.1000 -36.0354 0.2789
54.1200 -36.0488 0.2769
54.1400 -36.0621 0.2804
54.1600 -36.0755 0.2782
54.1800 -36.0888 0.2793
54.2000 -36.1021 0.2811
54.2200 -36.1155 0.2830
54.2400 -36.1288 0.2803
54.2600 -36.1421 0.2850
54.2800 -36.1554 0.2841
54.3000 -36.1688 0.2839
54.3200 -36.1822 0.2859
54.3400 -36.1955 0.2877
54.3600 -36.2088 0.2847
54.3800 -36.2221 0.2910
54.4000 -36.2355 0.2910
54.4200 -36.2488 0.2904
54.4400 -36.2621 0.2933
54.4600 -36.2755 0.2935
54.4800 -36.2888 0.2921
54.5000 -36.3022 0.2971
54.5200 -36.3155 0.2971
54.5400 -36.3288 0.2983
54.5600 -36.3421 0.2997
54.5800 -36.3554 0.3021
54.6000 -36.3688 0.3002
54.6200 -36.3821 0.3047
54.6400 -36.3954 0.3039
54.6600 -36.4088 0.3036
54.6800 -36.4222 0.3096
54.7000 -36.4355 0.3094
54.7200 -36.4488 0.3087
54.7400 -36.4621 0.3095
54.7600 -36.4755 0.3121
54.7800 -36.4888 0.3119
54.8000 -36.5021 0.3174
54.8200 -36.5155 0.3136
54.8400 -36.5288 0.3150
54.8600 -36.5422 0.3161
54.8800 -36.5555 0.3209
54.9000 -36.5688 0.3201
54.9200 -36.5821 0.3242
54.9400 -36.5955 0.3203
54.9600 -36.6088 0.3220
54.9800 -36.6221 0.3252
55.0000 -36.6354 0.3277
55.0200 -36.6487 0.3271
55.0400 -36.6621 0.3294
55.0600 -36.6754 0.3289
55.0800 -36.6887 0.3296
55.1000 -36.7021 0.3332
55.1200 -36.7155 0.3331
55.1400 -36.7288 0.3350
55.1600 -36.7421 0.3362
55.1800 -36.7555 0.3366
55.2000 -36.7688 0.3372
55.2200 -36.7822 0.3417
55.2400 -36.7955 0.3431
55.2600 -36.8088 0.3412
55.2800 -36.8221 0.3437
55.3000 -36.8354 0.3431
55.3200 -36.8488 0.3459
55.3400 -36.8621 0.3469
55.3600 -36.8754 0.3477
55.3800 -36.8888 0.3470
55.4000 -36.9021 0.3497
55.4200 -36.9154 0.3499
55.4400 -36.9288 0.3530
55.4600 -36.9421 0.3548
55.4800 -36.9555 0.3563
55.5000 -36.9688 0.3556
55.5200 -36.9821 0.3580
55.5400 -36.9954 0.3613
55.5600 -37.0088 0.3602
55.5800 -37.0222 0.3637
55.6000 -37.0355 0.3624
55.6200 -37.0488 0.3625
55.6400 -37.0621 0.3644
55.6600 -37.0755 0.3666
55.6800 -37.0888 0.3658
55.7000 -37.1021 0.3687
55.7200 -37.1154 0.3703
55.7400 -37.1287 0.3705
55.7600 -37.1421 0.3728
55.7800 -37.1555 0.3731
55.8000 -37.1688 0.3726
55.8200 -37.1821 0.3749
55.8400 -37.1955 0.3747
55.8600 -37.2088 0.3735
55.8800 -37.2221 0.3741
55.9000 -37.2355 0.3761
55.9200 -37.2488 0.3768
55.9400 -37.2622 0.3794
55.9600 -37.2755 0.3804
55.9800 -37.2888 0.3820
56.0000 -37.3021 0.3825
56.0200 -37.3155 0.3833
56.0400 -37.3288 0.3828
56.0600 -37.3421 0.3856
56.0800 -37.3554 0.3861
56.1000 -37.3687 0.3883
56.1200 -37.3821 0.3889
56.1400 -37.3954 0.3908
56.1600 -37.4088 0.3910
56.1800 -37.4221 0.3934
56.2000 -37.4355 0.3960
56.2200 -37.4489 0.3978
56.2400 -37.4622 0.3990
56.2600 -37.4755 0.4022
56.2800 -37.4888 0.4006
56.3000 -37.5022 0.4019
56.3200 -37.5155 0.4049
56.3400 -37.5288 0.4032
56.3600 -37.5421 0.4058
56.3800 -37.5555 0.4095
56.4000 -37.5688 0.4100
56.4200 -37.5821 0.4106
56.4400 -37.5954 0.4105
56.4600 -37.6088 0.4124
56.4800 -37.6221 0.4125
56.5000 -37.6355 0.4152
56.5200 -37.6488 0.4124
56.5400 -37.6621 0.4139
56.5600 -37.6755 0.4167
56.5800 -37.6888 0.4179
56.6000 -37.7021 0.4185
56.6200 -37.7154 0.4196
56.6400 -37.7288 0.4188
56.6600 -37.7422 0.4196
56.6800 -37.7555 0.4221
56.7000 -37.7688 0.4217
56.7200 -37.7821 0.4255
56.7400 -37.7955 0.4249
56.7600 -37.8088 0.4277
56.7800 -37.8221 0.4265
56.8000 -37.8354 0.4300
56.8200 -37.8487 0.4295
56.8400 -37.8621 0.4334
56.8600 -37.8754 0.4334
56.8800 -37.8888 0.4354
56.9000 -37.9021 0.4360
56.9200 -37.9155 0.4380
56.9400 -37.9288 0.4383
56.9600 -37.9422 0.4390
56.9800 -37.9555 0.4404
57.0000 -37.9688 0.4414
57.0200 -37.9822 0.4425
57.0400 -37.9955 0.4441
57.0600 -38.0088 0.4437
57.0800 -38.0222 0.4465
57.1000 -38.0355 0.4476
57.1200 -38.0488 0.4474
57.1400 -38.0621 0.4478
57.1600 -38.0754 0.4473
57.1800 -38.0887 0.4475
57.2000 -38.1021 0.4507
57.2200 -38.1154 0.4528
57.2400 -38.1287 0.4540
57.2600 -38.1421 0.4539
57.2800 -38.1555 0.4548
57.3000 -38.1689 0.4546
57.3200 -38.1822 0.4552
57.3400 -38.1955 0.4568
57.3600 -38.2088 0.4576
57.3800 -38.2222 0.4576
57.4000 -38.2355 0.4599
57.4200 -38.2488 0.4597
57.4400 -38.2621 0.4623
57.4600 -38.2754 0.4621
57.4800 -38.2887 0.4643
57.5000 -38.3020 0.4657
57.5200 -38.3153 0.4667
57.5400 -38.3287 0.4687
57.5600 -38.3421 0.4698
57.5800 -38.3555 0.4735
57.6000 -38.3688 0.4720
57.6200 -38.3821 0.4743
57.6400 -38.3955 0.4755
57.6600 -38.4089 0.4781
57.6800 -38.4222 0.4763
57.7000 -38.4355 0.4820
57.7200 -38.4488 0.4819
57.7400 -38.4622 0.4846
57.7600 -38.4755 0.4857
57.7800 -38.4888 0.4874
57.8000 -38.5021 0.4872
57.8200 -38.5155 0.4909
57.8400 -38.5288 0.4906
57.8600 -38.5421 0.4914
57.8800 -38.5554 0.4943
57.9000 -38.5687 0.4937
57.9200 -38.5821 0.4946
57.9400 -38.5955 0.4963
57.9600 -38.6088 0.4971
57.9800 -38.6221 0.4972
58.0000 -38.6355 0.5001
58.0200 -38.6488 0.5008
58.0400 -38.6622 0.5050
58.0600 -38.6755 0.5049
58.0800 -38.6888 0.5059
58.1000 -38.7021 0.5050
58.1200 -38.7155 0.5082
58.1400 -38.7288 0.5095
58.1600 -38.7421 0.5133
58.1800 -38.7555 0.5142
58.2000 -38.7688 0.5153
58.2200 -38.7821 0.5147
58.2400 -38.7954 0.5185
58.2600 -38.8087 0.5189
58.2800 -38.8221 0.5198
58.3000 -38.8355 0.5221
58.3200 -38.8488 0.5219
58.3400 -38.8621 0.5220
58.3600 -38.8755 0.5236
58.3800 -38.8889 0.5260
58.4000 -38.9022 0.5264
58.4200 -38.9155 0.5302
58.4400 -38.9288 0.5293
58.4600 -38.9421 0.5294
58.4800 -38.9555 0.5313
58.5000 -38.9688 0.5335
58.5200 -38.9821 0.5346
58.5400 -38.9955 0.5378
58.5600 -39.0088 0.5386
58.5800 -39.0221 0.5381
58.6000 -39.0354 0.5387
58.6200 -39.0487 0.5422
58.6400 -39.0621 0.5442
58.6600 -39.0755 0.5441
58.6800 -39.0888 0.5437
58.7000 -39.1021 0.5435
58.7200 -39.1155 0.5482
58.7400 -39.1288 0.5492
58.7600 -39.1422 0.5483
58.7800 -39.1555 0.5479
58.8000 -39.1688 0.5484
58.8200 -39.1822 0.5480
58.8400 -39.1955 0.5520
58.8600 -39.2088 0.5527
58.8800 -39.2221 0.5546
58.9000 -39.2355 0.5554
58.9200 -39.2488 0.5574
58.9400 -39.2621 0.5579
58.9600 -39.2754 0.5611
58.9800 -39.2887 0.5619
59.0000 -39.3021 0.5634
59.0200 -39.3154 0.5628
59.0400 -39.3288 0.5642
59.0600 -39.3421 0.5653
59.0800 -39.3555 0.5669
59.1000 -39.3689 0.5704
59.1200 -39.3822 0.5705
59.1400 -39.3955 0.5712
59.1600 -39.4088 0.5718
59.1800 -39.4222 0.5749
59.2000 -39.4355 0.5750
59.2200 -39.4488 0.5774
59.2400 -39.4621 0.5769
59.2600 -39.4754 0.5786
59.2800 -39.4888 0.5785
59.3000 -39.5021 0.5806
59.3200 -39.5154 0.5829
59.3400 -39.5287 0.5841
59.3600 -39.5421 0.5838
59.3800 -39.5554 0.5850
59.4000 -39.5688 0.5867
59.4200 -39.5821 0.5905
59.4400 -39.5955 0.5907
59.4600 -39.6089 0.5949
59.4800 -39.6222 0.5945
59.5000 -39.6355 0.5962
59.5200 -39.6488 0.5970
59.5400 -39.6622 0.5995
59.5600 -39.6755 0.6009
59.5800 -39.6888 0.6012
59.6000 -39.7021 0.6033
59.6200 -39.7154 0.6045
59.6400 -39.7288 0.6074
59.6600 -39.7421 0.6078
59.6800 -39.7554 0.6093
59.7000 -39.7687 0.6114
59.7200 -39.7821 0.6116
59.7400 -39.7955 0.6130
59.7600 -39.8088 0.6143
59.7800 -39.8221 0.6177
59.8000 -39.8355 0.6185
59.8200 -39.8489 0.6202
59.8400 -39.8622 0.6226
59.8600 -39.8754 0.6254
59.8800 -39.8887 0.6265
59.9000 -39.9021 0.6269
59.9200 -39.9155 0.6282
59.9400 -39.9288 0.6277
59.9600 -39.9421 0.6309
59.9800 -39.9555 0.6303
60.0000 -39.9688 0.6354
60.0200 -39.9822 0.6349
60.0400 -39.9954 0.6385
60.0480 -40.0006 0.6413
