Raw Data
Time Displacement Force
(s) (mm) (N)
0.0000 0.0000 -0.7138
0.0200 -0.0001 -0.7186
0.0400 -0.0019 -0.7337
0.0600 -0.0093 -0.7324
0.0800 -0.0211 -0.7169
0.1000 -0.0337 -0.7219
0.1200 -0.0464 -0.7187
0.1400 -0.0598 -0.7212
0.1600 -0.0738 -0.7174
0.1800 -0.0879 -0.7198
0.2000 -0.1017 -0.7134
0.2200 -0.1153 -0.7154
0.2400 -0.1287 -0.7161
0.2600 -0.1420 -0.7136
0.2800 -0.1553 -0.7149
0.3000 -0.1686 -0.7126
0.3200 -0.1820 -0.7130
0.3400 -0.1954 -0.7106
0.3600 -0.2087 -0.7138
0.3800 -0.2220 -0.7105
0.4000 -0.2353 -0.7123
0.4200 -0.2487 -0.7092
0.4400 -0.2620 -0.7078
0.4600 -0.2753 -0.7053
0.4800 -0.2887 -0.7068
0.5000 -0.3020 -0.7023
0.5200 -0.3154 -0.7042
0.5400 -0.3287 -0.7021
0.5600 -0.3421 -0.6995
0.5800 -0.3554 -0.7006
0.6000 -0.3687 -0.6979
0.6200 -0.3821 -0.6952
0.6400 -0.3954 -0.6965
0.6600 -0.4087 -0.6968
0.6800 -0.4220 -0.6907
0.7000 -0.4354 -0.6919
0.7200 -0.4487 -0.6880
0.7400 -0.4620 -0.6857
0.7600 -0.4753 -0.6870
0.7800 -0.4887 -0.6854
0.8000 -0.5020 -0.6825
0.8200 -0.5154 -0.6819
0.8400 -0.5287 -0.6797
0.8600 -0.5420 -0.6769
0.8800 -0.5554 -0.6781
0.9000 -0.5687 -0.6746
0.9200 -0.5820 -0.6735
0.9400 -0.5954 -0.6732
0.9600 -0.6087 -0.6724
0.9800 -0.6221 -0.6695
1.0000 -0.6354 -0.6680
1.0200 -0.6487 -0.6644
1.0400 -0.6620 -0.6610
1.0600 -0.6754 -0.6633
1.0800 -0.6887 -0.6609
1.1000 -0.7019 -0.6577
1.1200 -0.7152 -0.6566
1.1400 -0.7286 -0.6561
1.1600 -0.7420 -0.6529
1.1800 -0.7553 -0.6537
1.2000 -0.7687 -0.6510
1.2200 -0.7820 -0.6495
1.2400 -0.7954 -0.6471
1.2600 -0.8088 -0.6474
1.2800 -0.8221 -0.6447
1.3000 -0.8354 -0.6473
1.3200 -0.8488 -0.6432
1.3400 -0.8621 -0.6402
1.3600 -0.8754 -0.6394
1.3800 -0.8887 -0.6387
1.4000 -0.9020 -0.6354
1.4200 -0.9154 -0.6358
1.4400 -0.9287 -0.6338
1.4600 -0.9419 -0.6330
1.4800 -0.9553 -0.6328
1.5000 -0.9686 -0.6322
1.5200 -0.9820 -0.6305
1.5400 -0.9953 -0.6306
1.5600 -1.0087 -0.6291
1.5800 -1.0220 -0.6275
1.6000 -1.0354 -0.6294
1.6200 -1.0488 -0.6254
1.6400 -1.0621 -0.6240
1.6600 -1.0754 -0.6219
1.6800 -1.0887 -0.6216
1.7000 -1.1021 -0.6197
1.7200 -1.1154 -0.6211
1.7400 -1.1287 -0.6205
1.7600 -1.1420 -0.6182
1.7800 -1.1554 -0.6178
1.8000 -1.1687 -0.6153
1.8200 -1.1820 -0.6119
1.8400 -1.1953 -0.6113
1.8600 -1.2087 -0.6122
1.8800 -1.2221 -0.6065
1.9000 -1.2354 -0.6069
1.9200 -1.2487 -0.6051
1.9400 -1.2621 -0.6054
1.9600 -1.2754 -0.6029
1.9800 -1.2887 -0.6019
2.0000 -1.3020 -0.5994
2.0200 -1.3153 -0.5988
2.0400 -1.3287 -0.5973
2.0600 -1.3421 -0.5943
2.0800 -1.3554 -0.5962
2.1000 -1.3687 -0.5945
2.1200 -1.3820 -0.5931
2.1400 -1.3954 -0.5892
2.1600 -1.4087 -0.5924
2.1800 -1.4220 -0.5868
2.2000 -1.4353 -0.5905
2.2200 -1.4487 -0.5864
2.2400 -1.4620 -0.5871
2.2600 -1.4753 -0.5852
2.2800 -1.4887 -0.5874
2.3000 -1.5020 -0.5838
2.3200 -1.5154 -0.5838
2.3400 -1.5288 -0.5818
2.3600 -1.5421 -0.5794
2.3800 -1.5554 -0.5803
2.4000 -1.5688 -0.5780
2.4200 -1.5821 -0.5769
2.4400 -1.5954 -0.5745
2.4600 -1.6087 -0.5746
2.4800 -1.6220 -0.5711
2.5000 -1.6354 -0.5715
2.5200 -1.6487 -0.5702
2.5400 -1.6620 -0.5695
2.5600 -1.6753 -0.5665
2.5800 -1.6886 -0.5669
2.6000 -1.7020 -0.5643
2.6200 -1.7154 -0.5645
2.6400 -1.7287 -0.5650
2.6600 -1.7420 -0.5600
2.6800 -1.7554 -0.5615
2.7000 -1.7688 -0.5580
2.7200 -1.7821 -0.5565
2.7400 -1.7954 -0.5582
2.7600 -1.8087 -0.5587
2.7800 -1.8221 -0.5559
2.8000 -1.8354 -0.5537
2.8200 -1.8487 -0.5537
2.8400 -1.8620 -0.5509
2.8600 -1.8754 -0.5532
2.8800 -1.8887 -0.5508
2.9000 -1.9020 -0.5484
2.9200 -1.9153 -0.5460
2.9400 -1.9287 -0.5479
2.9600 -1.9420 -0.5440
2.9800 -1.9554 -0.5437
3.0000 -1.9687 -0.5419
3.0200 -1.9820 -0.5445
3.0400 -1.9954 -0.5411
3.0600 -2.0087 -0.5421
3.0800 -2.0221 -0.5370
3.1000 -2.0354 -0.5369
3.1200 -2.0487 -0.5366
3.1400 -2.0621 -0.5352
3.1600 -2.0754 -0.5322
3.1800 -2.0887 -0.5353
3.2000 -2.1021 -0.5320
3.2200 -2.1154 -0.5325
3.2400 -2.1287 -0.5316
3.2600 -2.1420 -0.5279
3.2800 -2.1553 -0.5276
3.3000 -2.1687 -0.5273
3.3200 -2.1820 -0.5240
3.3400 -2.1954 -0.5258
3.3600 -2.2087 -0.5241
3.3800 -2.2220 -0.5225
3.4000 -2.2354 -0.5200
3.4200 -2.2488 -0.5195
3.4400 -2.2621 -0.5174
3.4600 -2.2754 -0.5199
3.4800 -2.2887 -0.5182
3.5000 -2.3021 -0.5152
3.5200 -2.3154 -0.5148
3.5400 -2.3287 -0.5143
3.5600 -2.3420 -0.5128
3.5800 -2.3554 -0.5089
3.6000 -2.3687 -0.5077
3.6200 -2.3820 -0.5074
3.6400 -2.3953 -0.5100
3.6600 -2.4087 -0.5073
3.6800 -2.4220 -0.5054
3.7000 -2.4354 -0.5026
3.7200 -2.4487 -0.5063
3.7400 -2.4620 -0.5019
3.7600 -2.4754 -0.5034
3.7800 -2.4888 -0.4995
3.8000 -2.5021 -0.4996
3.8200 -2.5154 -0.5002
3.8400 -2.5287 -0.5005
3.8600 -2.5421 -0.4975
3.8800 -2.5554 -0.4969
3.9000 -2.5687 -0.4946
3.9200 -2.5820 -0.4937
3.9400 -2.5954 -0.4920
3.9600 -2.6087 -0.4929
3.9800 -2.6220 -0.4910
4.0000 -2.6353 -0.4902
4.0200 -2.6487 -0.4892
4.0400 -2.6621 -0.4874
4.0600 -2.6754 -0.4832
4.0800 -2.6887 -0.4861
4.1000 -2.7020 -0.4826
4.1200 -2.7154 -0.4847
4.1400 -2.7287 -0.4815
4.1600 -2.7421 -0.4791
4.1800 -2.7554 -0.4762
4.2000 -2.7687 -0.4790
4.2200 -2.7820 -0.4761
4.2400 -2.7954 -0.4755
4.2600 -2.8087 -0.4746
4.2800 -2.8221 -0.4732
4.3000 -2.8354 -0.4727
4.3200 -2.8488 -0.4707
4.3400 -2.8620 -0.4688
4.3600 -2.8753 -0.4697
4.3800 -2.8886 -0.4686
4.4000 -2.9020 -0.4666
4.4200 -2.9153 -0.4648
4.4400 -2.9286 -0.4650
4.4600 -2.9420 -0.4651
4.4800 -2.9553 -0.4620
4.5000 -2.9687 -0.4611
4.5200 -2.9821 -0.4593
4.5400 -2.9954 -0.4566
4.5600 -3.0087 -0.4602
4.5800 -3.0221 -0.4595
4.6000 -3.0355 -0.4596
4.6200 -3.0487 -0.4587
4.6400 -3.0620 -0.4559
4.6600 -3.0754 -0.4527
4.6800 -3.0887 -0.4533
4.7000 -3.1020 -0.4516
4.7200 -3.1153 -0.4516
4.7400 -3.1287 -0.4525
4.7600 -3.1420 -0.4507
4.7800 -3.1554 -0.4492
4.8000 -3.1687 -0.4490
4.8200 -3.1820 -0.4484
4.8400 -3.1954 -0.4456
4.8600 -3.2088 -0.4450
4.8800 -3.2221 -0.4417
4.9000 -3.2354 -0.4430
4.9200 -3.2487 -0.4412
4.9400 -3.2621 -0.4422
4.9600 -3.2754 -0.4379
4.9800 -3.2887 -0.4397
5.0000 -3.3020 -0.4344
5.0200 -3.3154 -0.4351
5.0400 -3.3287 -0.4336
5.0600 -3.3420 -0.4353
5.0800 -3.3553 -0.4310
5.1000 -3.3686 -0.4339
5.1200 -3.3820 -0.4313
5.1400 -3.3954 -0.4319
5.1600 -3.4087 -0.4293
5.1800 -3.4220 -0.4303
5.2000 -3.4354 -0.4280
5.2200 -3.4488 -0.4282
5.2400 -3.4621 -0.4259
5.2600 -3.4754 -0.4272
5.2800 -3.4887 -0.4266
5.3000 -3.5021 -0.4263
5.3200 -3.5154 -0.4228
5.3400 -3.5287 -0.4215
5.3600 -3.5420 -0.4209
5.3800 -3.5554 -0.4201
5.4000 -3.5687 -0.4210
5.4200 -3.5820 -0.4178
5.4400 -3.5953 -0.4159
5.4600 -3.6086 -0.4166
5.4800 -3.6220 -0.4169
5.5000 -3.6353 -0.4154
5.5200 -3.6487 -0.4151
5.5400 -3.6620 -0.4139
5.5600 -3.6754 -0.4124
5.5800 -3.6888 -0.4111
5.6000 -3.7021 -0.4109
5.6200 -3.7154 -0.4082
5.6400 -3.7287 -0.4085
5.6600 -3.7421 -0.4067
5.6800 -3.7555 -0.4082
5.7000 -3.7688 -0.4074
5.7200 -3.7820 -0.4061
5.7400 -3.7954 -0.4036
5.7600 -3.8087 -0.4038
5.7800 -3.8220 -0.4018
5.8000 -3.8353 -0.4002
5.8200 -3.8487 -0.4012
5.8400 -3.8620 -0.3994
5.8600 -3.8754 -0.3978
5.8800 -3.8887 -0.3991
5.9000 -3.9020 -0.3988
5.9200 -3.9153 -0.3959
5.9400 -3.9287 -0.3949
5.9600 -3.9421 -0.3954
5.9800 -3.9554 -0.3938
6.0000 -3.9687 -0.3934
6.0200 -3.9821 -0.3932
6.0400 -3.9954 -0.3902
6.0600 -4.0088 -0.3897
6.0800 -4.0221 -0.3911
6.1000 -4.0354 -0.3874
6.1200 -4.0488 -0.3879
6.1400 -4.0621 -0.3873
6.1600 -4.0753 -0.3859
6.1800 -4.0887 -0.3846
6.2000 -4.1020 -0.3831
6.2200 -4.1154 -0.3826
6.2400 -4.1287 -0.3830
6.2600 -4.1420 -0.3807
6.2800 -4.1554 -0.3806
6.3000 -4.1687 -0.3806
6.3200 -4.1821 -0.3801
6.3400 -4.1954 -0.3799
6.3600 -4.2087 -0.3798
6.3800 -4.2221 -0.3775
6.4000 -4.2354 -0.3740
6.4200 -4.2488 -0.3765
6.4400 -4.2621 -0.3752
6.4600 -4.2754 -0.3754
6.4800 -4.2887 -0.3737
6.5000 -4.3021 -0.3709
6.5200 -4.3153 -0.3716
6.5400 -4.3286 -0.3696
6.5600 -4.3420 -0.3682
6.5800 -4.3554 -0.3662
6.6000 -4.3687 -0.3653
6.6200 -4.3820 -0.3659
6.6400 -4.3953 -0.3640
6.6600 -4.4087 -0.3629
6.6800 -4.4221 -0.3608
6.7000 -4.4354 -0.3604
6.7200 -4.4487 -0.3611
6.7400 -4.4621 -0.3604
6.7600 -4.4754 -0.3591
6.7800 -4.4888 -0.3582
6.8000 -4.5020 -0.3566
6.8200 -4.5153 -0.3568
6.8400 -4.5287 -0.3556
6.8600 -4.5420 -0.3542
6.8800 -4.5553 -0.3536
6.9000 -4.5686 -0.3536
6.9200 -4.5820 -0.3523
6.9400 -4.5954 -0.3514
6.9600 -4.6087 -0.3514
6.9800 -4.6220 -0.3503
7.0000 -4.6354 -0.3510
7.0200 -4.6488 -0.3502
7.0400 -4.6621 -0.3490
7.0600 -4.6754 -0.3472
7.0800 -4.6887 -0.3465
7.1000 -4.7021 -0.3463
7.1200 -4.7154 -0.3453
7.1400 -4.7288 -0.3457
7.1600 -4.7421 -0.3438
7.1800 -4.7554 -0.3405
7.2000 -4.7687 -0.3421
7.2200 -4.7821 -0.3402
7.2400 -4.7953 -0.3390
7.2600 -4.8087 -0.3396
7.2800 -4.8220 -0.3370
7.3000 -4.8354 -0.3362
7.3200 -4.8487 -0.3370
7.3400 -4.8620 -0.3344
7.3600 -4.8754 -0.3359
7.3800 -4.8887 -0.3337
7.4000 -4.9021 -0.3322
7.4200 -4.9154 -0.3320
7.4400 -4.9287 -0.3326
7.4600 -4.9421 -0.3298
7.4800 -4.9554 -0.3301
7.5000 -4.9688 -0.3283
7.5200 -4.9821 -0.3287
7.5400 -4.9954 -0.3265
7.5600 -5.0087 -0.3265
7.5800 -5.0220 -0.3244
7.6000 -5.0353 -0.3253
7.6200 -5.0486 -0.3231
7.6400 -5.0620 -0.3216
7.6600 -5.0754 -0.3202
7.6800 -5.0887 -0.3195
7.7000 -5.1020 -0.3200
7.7200 -5.1154 -0.3175
7.7400 -5.1287 -0.3186
7.7600 -5.1421 -0.3163
7.7800 -5.1554 -0.3155
7.8000 -5.1687 -0.3147
7.8200 -5.1820 -0.3148
7.8400 -5.1954 -0.3128
7.8600 -5.2087 -0.3125
7.8800 -5.2220 -0.3117
7.9000 -5.2353 -0.3110
7.9200 -5.2487 -0.3089
7.9400 -5.2620 -0.3099
7.9600 -5.2753 -0.3075
7.9800 -5.2886 -0.3082
8.0000 -5.3020 -0.3061
8.0200 -5.3154 -0.3062
8.0400 -5.3287 -0.3040
8.0600 -5.3420 -0.3050
8.0800 -5.3554 -0.3034
8.1000 -5.3687 -0.3041
8.1200 -5.3821 -0.3004
8.1400 -5.3954 -0.3014
8.1600 -5.4087 -0.2983
8.1800 -5.4221 -0.3009
8.2000 -5.4354 -0.3002
8.2200 -5.4488 -0.3004
8.2400 -5.4621 -0.2966
8.2600 -5.4754 -0.2972
8.2800 -5.4887 -0.2958
8.3000 -5.5020 -0.2946
8.3200 -5.5153 -0.2927
8.3400 -5.5286 -0.2923
8.3600 -5.5420 -0.2904
8.3800 -5.5553 -0.2920
8.4000 -5.5687 -0.2899
8.4200 -5.5820 -0.2905
8.4400 -5.5953 -0.2891
8.4600 -5.6087 -0.2865
8.4800 -5.6221 -0.2853
8.5000 -5.6354 -0.2857
8.5200 -5.6488 -0.2846
8.5400 -5.6621 -0.2838
8.5600 -5.6754 -0.2820
8.5800 -5.6888 -0.2816
8.6000 -5.7021 -0.2799
8.6200 -5.7154 -0.2807
8.6400 -5.7287 -0.2782
8.6600 -5.7420 -0.2769
8.6800 -5.7553 -0.2758
8.7000 -5.7686 -0.2745
8.7200 -5.7820 -0.2728
8.7400 -5.7953 -0.2736
8.7600 -5.8087 -0.2713
8.7800 -5.8220 -0.2727
8.8000 -5.8354 -0.2742
8.8200 -5.8487 -0.2716
8.8400 -5.8621 -0.2704
8.8600 -5.8754 -0.2704
8.8800 -5.8887 -0.2696
8.9000 -5.9021 -0.2669
8.9200 -5.9155 -0.2702
8.9400 -5.9288 -0.2657
8.9600 -5.9421 -0.2685
8.9800 -5.9554 -0.2660
9.0000 -5.9687 -0.2660
9.0200 -5.9820 -0.2636
9.0400 -5.9953 -0.2663
9.0600 -6.0086 -0.2639
9.0800 -6.0220 -0.2626
9.1000 -6.0354 -0.2585
9.1200 -6.0487 -0.2585
9.1400 -6.0620 -0.2584
9.1600 -6.0754 -0.2590
9.1800 -6.0887 -0.2562
9.2000 -6.1021 -0.2566
9.2200 -6.1154 -0.2570
9.2400 -6.1287 -0.2541
9.2600 -6.1420 -0.2562
9.2800 -6.1554 -0.2564
9.3000 -6.1687 -0.2523
9.3200 -6.1821 -0.2522
9.3400 -6.1954 -0.2524
9.3600 -6.2087 -0.2514
9.3800 -6.2221 -0.2490
9.4000 -6.2354 -0.2513
9.4200 -6.2487 -0.2489
9.4400 -6.2620 -0.2469
9.4600 -6.2753 -0.2480
9.4800 -6.2887 -0.2480
9.5000 -6.3020 -0.2446
9.5200 -6.3154 -0.2458
9.5400 -6.3287 -0.2411
9.5600 -6.3421 -0.2436
9.5800 -6.3554 -0.2436
9.6000 -6.3687 -0.2424
9.6200 -6.3821 -0.2412
9.6400 -6.3954 -0.2399
9.6600 -6.4088 -0.2391
9.6800 -6.4221 -0.2374
9.7000 -6.4354 -0.2378
9.7200 -6.4487 -0.2348
9.7400 -6.4621 -0.2350
9.7600 -6.4754 -0.2338
9.7800 -6.4887 -0.2335
9.8000 -6.5020 -0.2316
9.8200 -6.5153 -0.2336
9.8400 -6.5287 -0.2285
9.8600 -6.5420 -0.2290
9.8800 -6.5554 -0.2294
9.9000 -6.5687 -0.2272
9.9200 -6.5821 -0.2259
9.9400 -6.5954 -0.2284
9.9600 -6.6087 -0.2258
9.9800 -6.6220 -0.2261
10.0000 -6.6354 -0.2247
10.0200 -6.6488 -0.2234
10.0400 -6.6621 -0.2231
10.0600 -6.6754 -0.2233
10.0800 -6.6887 -0.2190
10.1000 -6.7021 -0.2192
10.1200 -6.7154 -0.2191
10.1400 -6.7287 -0.2197
10.1600 -6.7420 -0.2176
10.1800 -6.7553 -0.2168
10.2000 -6.7687 -0.2144
10.2200 -6.7820 -0.2139
10.2400 -6.7953 -0.2153
10.2600 -6.8087 -0.2148
10.2800 -6.8221 -0.2131
10.3000 -6.8354 -0.2147
10.3200 -6.8487 -0.2127
10.3400 -6.8620 -0.2126
10.3600 -6.8754 -0.2103
10.3800 -6.8888 -0.2072
10.4000 -6.9021 -0.2057
10.4200 -6.9154 -0.2073
10.4400 -6.9287 -0.2056
10.4600 -6.9421 -0.2037
10.4800 -6.9554 -0.2029
10.5000 -6.9687 -0.2052
10.5200 -6.9820 -0.2041
10.5400 -6.9953 -0.2033
10.5600 -7.0087 -0.1999
10.5800 -7.0220 -0.1983
10.6000 -7.0354 -0.2028
10.6200 -7.0487 -0.1986
10.6400 -7.0621 -0.1967
10.6600 -7.0754 -0.1950
10.6800 -7.0887 -0.1953
10.7000 -7.1020 -0.1939
10.7200 -7.1154 -0.1963
10.7400 -7.1287 -0.1944
10.7600 -7.1420 -0.1907
10.7800 -7.1554 -0.1897
10.8000 -7.1687 -0.1907
10.8200 -7.1820 -0.1892
10.8400 -7.1953 -0.1899
10.8600 -7.2086 -0.1889
10.8800 -7.2220 -0.1857
10.9000 -7.2353 -0.1887
10.9200 -7.2487 -0.1855
10.9400 -7.2621 -0.1869
10.9600 -7.2754 -0.1851
10.9800 -7.2887 -0.1854
11.0000 -7.3021 -0.1834
11.0200 -7.3154 -0.1854
11.0400 -7.3287 -0.1833
11.0600 -7.3420 -0.1824
11.0800 -7.3554 -0.1803
11.1000 -7.3688 -0.1800
11.1200 -7.3821 -0.1813
11.1400 -7.3954 -0.1800
11.1600 -7.4087 -0.1775
11.1800 -7.4220 -0.1774
11.2000 -7.4354 -0.1775
11.2200 -7.4487 -0.1746
11.2400 -7.4620 -0.1751
11.2600 -7.4753 -0.1737
11.2800 -7.4887 -0.1735
11.3000 -7.5020 -0.1711
11.3200 -7.5154 -0.1732
11.3400 -7.5287 -0.1715
11.3600 -7.5421 -0.1688
11.3800 -7.5554 -0.1684
11.4000 -7.5687 -0.1653
11.4200 -7.5820 -0.1657
11.4400 -7.5954 -0.1656
11.4600 -7.6087 -0.1638
11.4800 -7.6221 -0.1603
11.5000 -7.6354 -0.1618
11.5200 -7.6487 -0.1598
11.5400 -7.6621 -0.1615
11.5600 -7.6754 -0.1586
11.5800 -7.6887 -0.1607
11.6000 -7.7020 -0.1564
11.6200 -7.7153 -0.1575
11.6400 -7.7286 -0.1576
11.6600 -7.7420 -0.1554
11.6800 -7.7553 -0.1555
11.7000 -7.7687 -0.1543
11.7200 -7.7821 -0.1524
11.7400 -7.7954 -0.1529
11.7600 -7.8087 -0.1525
11.7800 -7.8221 -0.1520
11.8000 -7.8354 -0.1515
11.8200 -7.8488 -0.1515
11.8400 -7.8621 -0.1488
11.8600 -7.8754 -0.1496
11.8800 -7.8887 -0.1478
11.9000 -7.9020 -0.1455
11.9200 -7.9154 -0.1460
11.9400 -7.9287 -0.1450
11.9600 -7.9420 -0.1453
11.9800 -7.9553 -0.1449
12.0000 -7.9687 -0.1454
12.0200 -7.9820 -0.1436
12.0400 -7.9954 -0.1442
12.0600 -8.0087 -0.1414
12.0800 -8.0221 -0.1413
12.1000 -8.0354 -0.1409
12.1200 -8.0487 -0.1410
12.1400 -8.0620 -0.1363
12.1600 -8.0754 -0.1376
12.1800 -8.0887 -0.1359
12.2000 -8.1021 -0.1347
12.2200 -8.1154 -0.1346
12.2400 -8.1287 -0.1355
12.2600 -8.1420 -0.1321
12.2800 -8.1554 -0.1327
12.3000 -8.1687 -0.1295
12.3200 -8.1820 -0.1303
12.3400 -8.1953 -0.1285
12.3600 -8.2087 -0.1291
12.3800 -8.2220 -0.1258
12.4000 -8.2353 -0.1266
12.4200 -8.2487 -0.1248
12.4400 -8.2621 -0.1253
12.4600 -8.2754 -0.1233
12.4800 -8.2887 -0.1238
12.5000 -8.3021 -0.1226
12.5200 -8.3154 -0.1216
12.5400 -8.3288 -0.1200
12.5600 -8.3421 -0.1183
12.5800 -8.3554 -0.1200
12.6000 -8.3687 -0.1196
12.6200 -8.3820 -0.1169
12.6400 -8.3954 -0.1161
12.6600 -8.4087 -0.1152
12.6800 -8.4219 -0.1126
12.7000 -8.4353 -0.1140
12.7200 -8.4487 -0.1133
12.7400 -8.4620 -0.1100
12.7600 -8.4753 -0.1122
12.7800 -8.4887 -0.1114
12.8000 -8.5020 -0.1071
12.8200 -8.5154 -0.1079
12.8400 -8.5287 -0.1069
12.8600 -8.5420 -0.1078
12.8800 -8.5554 -0.1072
12.9000 -8.5687 -0.1080
12.9200 -8.5821 -0.1023
12.9400 -8.5954 -0.1033
12.9600 -8.6087 -0.1030
12.9800 -8.6221 -0.1034
13.0000 -8.6354 -0.1008
13.0200 -8.6487 -0.1001
13.0400 -8.6620 -0.0998
13.0600 -8.6753 -0.1018
13.0800 -8.6887 -0.0983
13.1000 -8.7020 -0.0983
13.1200 -8.7153 -0.0977
13.1400 -8.7287 -0.0998
13.1600 -8.7420 -0.0976
13.1800 -8.7554 -0.0990
13.2000 -8.7687 -0.0970
13.2200 -8.7821 -0.0952
13.2400 -8.7954 -0.0948
13.2600 -8.8088 -0.0944
13.2800 -8.8221 -0.0913
13.3000 -8.8354 -0.0930
13.3200 -8.8488 -0.0897
13.3400 -8.8621 -0.0890
13.3600 -8.8754 -0.0882
13.3800 -8.8887 -0.0900
13.4000 -8.9020 -0.0882
13.4200 -8.9153 -0.0876
13.4400 -8.9287 -0.0875
13.4600 -8.9420 -0.0848
13.4800 -8.9553 -0.0872
13.5000 -8.9686 -0.0850
13.5200 -8.9820 -0.0825
13.5400 -8.9954 -0.0827
13.5600 -9.0087 -0.0843
13.5800 -9.0220 -0.0803
13.6000 -9.0354 -0.0790
13.6200 -9.0487 -0.0800
13.6400 -9.0621 -0.0763
13.6600 -9.0754 -0.0779
13.6800 -9.0887 -0.0789
13.7000 -9.1021 -0.0754
13.7200 -9.1154 -0.0760
13.7400 -9.1287 -0.0760
13.7600 -9.1420 -0.0747
13.7800 -9.1553 -0.0731
13.8000 -9.1687 -0.0739
13.8200 -9.1820 -0.0728
13.8400 -9.1953 -0.0744
13.8600 -9.2086 -0.0733
13.8800 -9.2220 -0.0721
13.9000 -9.2354 -0.0715
13.9200 -9.2488 -0.0720
13.9400 -9.2621 -0.0696
13.9600 -9.2754 -0.0695
13.9800 -9.2888 -0.0673
14.0000 -9.3021 -0.0678
14.0200 -9.3154 -0.0655
14.0400 -9.3287 -0.0701
14.0600 -9.3420 -0.0630
14.0800 -9.3553 -0.0641
14.1000 -9.3686 -0.0626
14.1200 -9.3819 -0.0622
14.1400 -9.3953 -0.0609
14.1600 -9.4087 -0.0606
14.1800 -9.4220 -0.0587
14.2000 -9.4354 -0.0574
14.2200 -9.4487 -0.0564
14.2400 -9.4621 -0.0561
14.2600 -9.4754 -0.0547
14.2800 -9.4888 -0.0563
14.3000 -9.5021 -0.0532
14.3200 -9.5154 -0.0556
14.3400 -9.5288 -0.0520
14.3600 -9.5421 -0.0516
14.3800 -9.5554 -0.0527
14.4000 -9.5687 -0.0545
14.4200 -9.5821 -0.0526
14.4400 -9.5954 -0.0506
14.4600 -9.6087 -0.0516
14.4800 -9.6220 -0.0508
14.5000 -9.6353 -0.0497
14.5200 -9.6487 -0.0506
14.5400 -9.6620 -0.0480
14.5600 -9.6754 -0.0479
14.5800 -9.6887 -0.0488
14.6000 -9.7020 -0.0443
14.6200 -9.7154 -0.0459
14.6400 -9.7288 -0.0435
14.6600 -9.7420 -0.0415
14.6800 -9.7554 -0.0411
14.7000 -9.7687 -0.0416
14.7200 -9.7821 -0.0383
14.7400 -9.7954 -0.0388
14.7600 -9.8087 -0.0377
14.7800 -9.8220 -0.0364
14.8000 -9.8354 -0.0344
14.8200 -9.8487 -0.0360
14.8400 -9.8620 -0.0306
14.8600 -9.8753 -0.0323
14.8800 -9.8887 -0.0317
14.9000 -9.9020 -0.0313
14.9200 -9.9154 -0.0299
14.9400 -9.9287 -0.0313
14.9600 -9.9420 -0.0275
14.9800 -9.9554 -0.0271
15.0000 -9.9688 -0.0271
15.0200 -9.9821 -0.0251
15.0400 -9.9954 -0.0241
15.0600 -10.0087 -0.0251
15.0800 -10.0221 -0.0231
15.1000 -10.0354 -0.0233
15.1200 -10.0487 -0.0252
15.1400 -10.0620 -0.0229
15.1600 -10.0754 -0.0197
15.1800 -10.0887 -0.0215
15.2000 -10.1020 -0.0191
15.2200 -10.1153 -0.0178
15.2400 -10.1287 -0.0166
15.2600 -10.1421 -0.0159
15.2800 -10.1554 -0.0161
15.3000 -10.1687 -0.0160
15.3200 -10.1820 -0.0148
15.3400 -10.1954 -0.0120
15.3600 -10.2088 -0.0144
15.3800 -10.2221 -0.0140
15.4000 -10.2354 -0.0114
15.4200 -10.2488 -0.0117
15.4400 -10.2621 -0.0083
15.4600 -10.2754 -0.0091
15.4800 -10.2887 -0.0090
15.5000 -10.3020 -0.0084
15.5200 -10.3154 -0.0061
15.5400 -10.3287 -0.0082
15.5600 -10.3420 -0.0072
15.5800 -10.3553 -0.0039
15.6000 -10.3686 -0.0050
15.6200 -10.3820 -0.0036
15.6400 -10.3953 -0.0043
15.6600 -10.4087 -0.0044
15.6800 -10.4220 -0.0011
15.7000 -10.4354 -0.0007
15.7200 -10.4488 -0.0028
15.7400 -10.4621 0.0029
15.7600 -10.4754 0.0022
15.7800 -10.4888 0.0026
15.8000 -10.5021 0.0047
15.8200 -10.5154 0.0057
15.8400 -10.5287 0.0027
15.8600 -10.5421 0.0062
15.8800 -10.5554 0.0071
15.9000 -10.5687 0.0067
15.9200 -10.5820 0.0060
15.9400 -10.5953 0.0082
15.9600 -10.6086 0.0056
15.9800 -10.6220 0.0097
16.0000 -10.6353 0.0110
16.0200 -10.6487 0.0100
16.0400 -10.6620 0.0108
16.0600 -10.6754 0.0132
16.0800 -10.6888 0.0112
16.1000 -10.7021 0.0148
16.1200 -10.7154 0.0149
16.1400 -10.7287 0.0146
16.1600 -10.7421 0.0163
16.1800 -10.7554 0.0173
16.2000 -10.7687 0.0151
16.2200 -10.7820 0.0190
16.2400 -10.7954 0.0206
16.2600 -10.8087 0.0223
16.2800 -10.8220 0.0215
16.3000 -10.8353 0.0232
16.3200 -10.8486 0.0210
16.3400 -10.8620 0.0235
16.3600 -10.8754 0.0248
16.3800 -10.8887 0.0232
16.4000 -10.9020 0.0249
16.4200 -10.9154 0.0271
16.4400 -10.9288 0.0264
16.4600 -10.9420 0.0284
16.4800 -10.9553 0.0295
16.5000 -10.9686 0.0293
16.5200 -10.9820 0.0304
16.5400 -10.9954 0.0316
16.5600 -11.0087 0.0301
16.5800 -11.0221 0.0300
16.6000 -11.0354 0.0358
16.6200 -11.0488 0.0342
16.6400 -11.0621 0.0357
16.6600 -11.0753 0.0346
16.6800 -11.0887 0.0372
16.7000 -11.1020 0.0368
16.7200 -11.1154 0.0416
16.7400 -11.1287 0.0373
16.7600 -11.1420 0.0408
16.7800 -11.1554 0.0407
16.8000 -11.1688 0.0415
16.8200 -11.1821 0.0417
16.8400 -11.1954 0.0449
16.8600 -11.2087 0.0431
16.8800 -11.2221 0.0422
16.9000 -11.2355 0.0458
16.9200 -11.2488 0.0436
16.9400 -11.2621 0.0452
16.9600 -11.2754 0.0477
16.9800 -11.2887 0.0496
17.0000 -11.3020 0.0481
17.0200 -11.3153 0.0507
17.0400 -11.3287 0.0494
17.0600 -11.3420 0.0526
17.0800 -11.3554 0.0541
17.1000 -11.3687 0.0537
17.1200 -11.3820 0.0543
17.1400 -11.3954 0.0555
17.1600 -11.4088 0.0588
17.1800 -11.4221 0.0576
17.2000 -11.4354 0.0611
17.2200 -11.4487 0.0572
17.2400 -11.4621 0.0595
17.2600 -11.4754 0.0623
17.2800 -11.4887 0.0591
17.3000 -11.5020 0.0625
17.3200 -11.5154 0.0647
17.3400 -11.5287 0.0635
17.3600 -11.5420 0.0639
17.3800 -11.5553 0.0667
17.4000 -11.5687 0.0662
17.4200 -11.5820 0.0667
17.4400 -11.5954 0.0688
17.4600 -11.6087 0.0705
17.4800 -11.6220 0.0703
17.5000 -11.6354 0.0740
17.5200 -11.6487 0.0715
17.5400 -11.6621 0.0719
17.5600 -11.6754 0.0723
17.5800 -11.6887 0.0711
17.6000 -11.7021 0.0737
17.6200 -11.7154 0.0780
17.6400 -11.7287 0.0758
17.6600 -11.7420 0.0763
17.6800 -11.7554 0.0777
17.7000 -11.7687 0.0769
17.7200 -11.7820 0.0775
17.7400 -11.7953 0.0800
17.7600 -11.8087 0.0782
17.7800 -11.8220 0.0795
17.8000 -11.8354 0.0845
17.8200 -11.8487 0.0782
17.8400 -11.8620 0.0831
17.8600 -11.8754 0.0828
17.8800 -11.8888 0.0827
17.9000 -11.9021 0.0804
17.9200 -11.9154 0.0846
17.9400 -11.9287 0.0835
17.9600 -11.9421 0.0854
17.9800 -11.9554 0.0864
18.0000 -11.9687 0.0853
18.0200 -11.9820 0.0865
18.0400 -11.9954 0.0904
18.0600 -12.0087 0.0883
18.0800 -12.0220 0.0908
18.1000 -12.0353 0.0937
18.1200 -12.0487 0.0923
18.1400 -12.0620 0.0941
18.1600 -12.0754 0.0948
18.1800 -12.0887 0.0941
18.2000 -12.1020 0.0953
18.2200 -12.1154 0.0974
18.2400 -12.1288 0.0970
18.2600 -12.1421 0.0986
18.2800 -12.1554 0.0999
18.3000 -12.1687 0.0978
18.3200 -12.1821 0.0993
18.3400 -12.1954 0.1008
18.3600 -12.2087 0.1017
18.3800 -12.2220 0.1020
18.4000 -12.2353 0.1049
18.4200 -12.2487 0.1034
18.4400 -12.2620 0.1047
18.4600 -12.2753 0.1028
18.4800 -12.2887 0.1051
18.5000 -12.3020 0.1063
18.5200 -12.3154 0.1118
18.5400 -12.3287 0.1086
18.5600 -12.3420 0.1079
18.5800 -12.3554 0.1115
18.6000 -12.3688 0.1123
18.6200 -12.3821 0.1138
18.6400 -12.3954 0.1155
18.6600 -12.4087 0.1168
18.6800 -12.4221 0.1159
18.7000 -12.4354 0.1191
18.7200 -12.4487 0.1181
18.7400 -12.4621 0.1181
18.7600 -12.4754 0.1204
18.7800 -12.4888 0.1220
18.8000 -12.5021 0.1208
18.8200 -12.5153 0.1258
18.8400 -12.5286 0.1255
18.8600 -12.5420 0.1272
18.8800 -12.5553 0.1289
18.9000 -12.5686 0.1280
18.9200 -12.5819 0.1283
18.9400 -12.5953 0.1298
18.9600 -12.6087 0.1304
18.9800 -12.6221 0.1318
19.0000 -12.6354 0.1334
19.0200 -12.6487 0.1326
19.0400 -12.6621 0.1329
19.0600 -12.6755 0.1373
19.0800 -12.6888 0.1340
19.1000 -12.7021 0.1349
19.1200 -12.7154 0.1375
19.1400 -12.7287 0.1382
19.1600 -12.7420 0.1367
19.1800 -12.7553 0.1391
19.2000 -12.7687 0.1374
19.2200 -12.7820 0.1388
19.2400 -12.7954 0.1400
19.2600 -12.8087 0.1402
19.2800 -12.8220 0.1360
19.3000 -12.8354 0.1416
19.3200 -12.8488 0.1395
19.3400 -12.8621 0.1390
19.3600 -12.8754 0.1403
19.3800 -12.8887 0.1410
19.4000 -12.9021 0.1397
19.4200 -12.9154 0.1449
19.4400 -12.9287 0.1416
19.4600 -12.9420 0.1425
19.4800 -12.9554 0.1429
19.5000 -12.9687 0.1458
19.5200 -12.9820 0.1440
19.5400 -12.9953 0.1472
19.5600 -13.0086 0.1453
19.5800 -13.0220 0.1451
19.6000 -13.0354 0.1492
19.6200 -13.0487 0.1475
19.6400 -13.0620 0.1489
19.6600 -13.0754 0.1512
19.6800 -13.0887 0.1517
19.7000 -13.1021 0.1511
19.7200 -13.1154 0.1555
19.7400 -13.1287 0.1552
19.7600 -13.1421 0.1564
19.7800 -13.1554 0.1550
19.8000 -13.1688 0.1588
19.8200 -13.1821 0.1573
19.8400 -13.1954 0.1627
19.8600 -13.2087 0.1627
19.8800 -13.2220 0.1632
19.9000 -13.2353 0.1635
19.9200 -13.2486 0.1650
19.9400 -13.2620 0.1633
19.9600 -13.2753 0.1683
19.9800 -13.2887 0.1678
20.0000 -13.3020 0.1680
20.0200 -13.3154 0.1695
20.0400 -13.3288 0.1716
20.0600 -13.3421 0.1728
20.0800 -13.3554 0.1744
20.1000 -13.3687 0.1745
20.1200 -13.3821 0.1742
20.1400 -13.3954 0.1768
20.1600 -13.4087 0.1778
20.1800 -13.4221 0.1747
20.2000 -13.4354 0.1786
20.2200 -13.4487 0.1758
20.2400 -13.4621 0.1789
20.2600 -13.4754 0.1805
20.2800 -13.4887 0.1817
20.3000 -13.5020 0.1806
20.3200 -13.5154 0.1844
20.3400 -13.5287 0.1836
20.3600 -13.5420 0.1821
20.3800 -13.5553 0.1845
20.4000 -13.5687 0.1850
20.4200 -13.5821 0.1850
20.4400 -13.5954 0.1868
20.4600 -13.6087 0.1860
20.4800 -13.6220 0.1855
20.5000 -13.6354 0.1891
20.5200 -13.6488 0.1894
20.5400 -13.6621 0.1902
20.5600 -13.6754 0.1909
20.5800 -13.6887 0.1919
20.6000 -13.7021 0.1903
20.6200 -13.7153 0.1925
20.6400 -13.7287 0.1943
20.6600 -13.7420 0.1959
20.6800 -13.7554 0.1977
20.7000 -13.7687 0.1986
20.7200 -13.7820 0.1979
20.7400 -13.7953 0.2030
20.7600 -13.8087 0.2018
20.7800 -13.8221 0.2012
20.8000 -13.8354 0.2053
20.8200 -13.8487 0.2033
20.8400 -13.8620 0.2040
20.8600 -13.8754 0.2058
20.8800 -13.8888 0.2079
20.9000 -13.9021 0.2066
20.9200 -13.9154 0.2084
20.9400 -13.9287 0.2111
20.9600 -13.9421 0.2113
20.9800 -13.9554 0.2132
21.0000 -13.9687 0.2139
21.0200 -13.9820 0.2143
21.0400 -13.9953 0.2160
21.0600 -14.0087 0.2188
21.0800 -14.0220 0.2157
21.1000 -14.0353 0.2186
21.1200 -14.0487 0.2181
21.1400 -14.0621 0.2204
21.1600 -14.0754 0.2191
21.1800 -14.0888 0.2214
21.2000 -14.1021 0.2208
21.2200 -14.1155 0.2233
21.2400 -14.1288 0.2218
21.2600 -14.1421 0.2227
21.2800 -14.1553 0.2243
21.3000 -14.1686 0.2254
21.3200 -14.1820 0.2246
21.3400 -14.1953 0.2247
21.3600 -14.2086 0.2255
21.3800 -14.2220 0.2266
21.4000 -14.2354 0.2287
21.4200 -14.2487 0.2296
21.4400 -14.2620 0.2285
21.4600 -14.2754 0.2276
21.4800 -14.2888 0.2288
21.5000 -14.3021 0.2289
21.5200 -14.3154 0.2291
21.5400 -14.3287 0.2330
21.5600 -14.3420 0.2313
21.5800 -14.3554 0.2357
21.6000 -14.3688 0.2349
21.6200 -14.3821 0.2335
21.6400 -14.3954 0.2366
21.6600 -14.4087 0.2384
21.6800 -14.4221 0.2376
21.7000 -14.4354 0.2380
21.7200 -14.4487 0.2424
21.7400 -14.4620 0.2412
21.7600 -14.4754 0.2428
21.7800 -14.4887 0.2448
21.8000 -14.5020 0.2450
21.8200 -14.5153 0.2464
21.8400 -14.5287 0.2491
21.8600 -14.5421 0.2471
21.8800 -14.5554 0.2509
21.9000 -14.5687 0.2508
21.9200 -14.5821 0.2505
21.9400 -14.5954 0.2525
21.9600 -14.6087 0.2539
21.9800 -14.6220 0.2548
22.0000 -14.6353 0.2557
22.0200 -14.6487 0.2572
22.0400 -14.6620 0.2566
22.0600 -14.6754 0.2608
22.0800 -14.6886 0.2623
22.1000 -14.7020 0.2625
22.1200 -14.7154 0.2639
22.1400 -14.7287 0.2662
22.1600 -14.7420 0.2628
22.1800 -14.7553 0.2654
22.2000 -14.7687 0.2655
22.2200 -14.7821 0.2676
22.2400 -14.7955 0.2662
22.2600 -14.8088 0.2689
22.2800 -14.8221 0.2680
22.3000 -14.8354 0.2716
22.3200 -14.8487 0.2711
22.3400 -14.8620 0.2705
22.3600 -14.8754 0.2706
22.3800 -14.8887 0.2735
22.4000 -14.9020 0.2724
22.4200 -14.9153 0.2757
22.4400 -14.9286 0.2756
22.4600 -14.9420 0.2755
22.4800 -14.9554 0.2768
22.5000 -14.9687 0.2802
22.5200 -14.9821 0.2798
22.5400 -14.9954 0.2805
22.5600 -15.0087 0.2813
22.5800 -15.0221 0.2802
22.6000 -15.0354 0.2830
22.6200 -15.0487 0.2864
22.6400 -15.0621 0.2856
22.6600 -15.0754 0.2848
22.6800 -15.0888 0.2852
22.7000 -15.1021 0.2871
22.7200 -15.1154 0.2887
22.7400 -15.1287 0.2900
22.7600 -15.1420 0.2897
22.7800 -15.1553 0.2909
22.8000 -15.1686 0.2933
22.8200 -15.1819 0.2928
22.8400 -15.1953 0.2928
22.8600 -15.2087 0.2940
22.8800 -15.2220 0.2930
22.9000 -15.2353 0.2924
22.9200 -15.2487 0.2960
22.9400 -15.2621 0.2944
22.9600 -15.2754 0.2979
22.9800 -15.2887 0.2982
23.0000 -15.3021 0.3000
23.0200 -15.3154 0.2986
23.0400 -15.3288 0.3040
23.0600 -15.3421 0.3024
23.0800 -15.3554 0.3048
23.1000 -15.3687 0.3050
23.1200 -15.3820 0.3063
23.1400 -15.3953 0.3065
23.1600 -15.4086 0.3100
23.1800 -15.4220 0.3067
23.2000 -15.4353 0.3104
23.2200 -15.4487 0.3096
23.2400 -15.4620 0.3114
23.2600 -15.4753 0.3107
23.2800 -15.4887 0.3143
23.3000 -15.5021 0.3130
23.3200 -15.5155 0.3137
23.3400 -15.5288 0.3150
23.3600 -15.5421 0.3158
23.3800 -15.5554 0.3157
23.4000 -15.5688 0.3169
23.4200 -15.5821 0.3155
23.4400 -15.5953 0.3157
23.4600 -15.6087 0.3183
23.4800 -15.6220 0.3186
23.5000 -15.6353 0.3207
23.5200 -15.6486 0.3199
23.5400 -15.6620 0.3196
23.5600 -15.6754 0.3217
23.5800 -15.6887 0.3234
23.6000 -15.7021 0.3218
23.6200 -15.7154 0.3229
23.6400 -15.7287 0.3234
23.6600 -15.7421 0.3231
23.6800 -15.7554 0.3269
23.7000 -15.7687 0.3280
23.7200 -15.7820 0.3279
23.7400 -15.7953 0.3306
23.7600 -15.8087 0.3316
23.7800 -15.8221 0.3312
23.8000 -15.8354 0.3334
23.8200 -15.8487 0.3356
23.8400 -15.8621 0.3351
23.8600 -15.8754 0.3365
23.8800 -15.8887 0.3363
23.9000 -15.9020 0.3373
23.9200 -15.9154 0.3374
23.9400 -15.9287 0.3408
23.9600 -15.9420 0.3386
23.9800 -15.9554 0.3411
24.0000 -15.9687 0.3416
24.0200 -15.9821 0.3433
24.0400 -15.9954 0.3435
24.0600 -16.0088 0.3447
24.0800 -16.0221 0.3451
24.1000 -16.0354 0.3460
24.1200 -16.0488 0.3471
24.1400 -16.0621 0.3496
24.1600 -16.0754 0.3480
24.1800 -16.0887 0.3504
24.2000 -16.1021 0.3508
24.2200 -16.1154 0.3529
24.2400 -16.1287 0.3548
24.2600 -16.1420 0.3568
24.2800 -16.1553 0.3557
24.3000 -16.1687 0.3592
24.3200 -16.1820 0.3601
24.3400 -16.1954 0.3621
24.3600 -16.2087 0.3631
24.3800 -16.2221 0.3643
24.4000 -16.2354 0.3627
24.4200 -16.2487 0.3666
24.4400 -16.2621 0.3663
24.4600 -16.2754 0.3673
24.4800 -16.2888 0.3689
24.5000 -16.3021 0.3706
24.5200 -16.3154 0.3710
24.5400 -16.3287 0.3731
24.5600 -16.3421 0.3726
24.5800 -16.3554 0.3750
24.6000 -16.3686 0.3743
24.6200 -16.3819 0.3756
24.6400 -16.3953 0.3774
24.6600 -16.4087 0.3773
24.6800 -16.4220 0.3776
24.7000 -16.4353 0.3773
24.7200 -16.4487 0.3798
24.7400 -16.4620 0.3794
24.7600 -16.4754 0.3801
24.7800 -16.4887 0.3832
24.8000 -16.5020 0.3848
24.8200 -16.5154 0.3829
24.8400 -16.5288 0.3830
24.8600 -16.5421 0.3838
24.8800 -16.5554 0.3876
24.9000 -16.5687 0.3884
24.9200 -16.5821 0.3894
24.9400 -16.5954 0.3881
24.9600 -16.6087 0.3921
24.9800 -16.6220 0.3906
25.0000 -16.6353 0.3937
25.0200 -16.6487 0.3936
25.0400 -16.6621 0.3947
25.0600 -16.6754 0.3950
25.0800 -16.6887 0.3977
25.1000 -16.7021 0.3957
25.1200 -16.7155 0.3986
25.1400 -16.7287 0.3978
25.1600 -16.7420 0.4017
25.1800 -16.7554 0.4012
25.2000 -16.7687 0.4033
25.2200 -16.7821 0.4046
25.2400 -16.7954 0.4058
25.2600 -16.8087 0.4066
25.2800 -16.8220 0.4061
25.3000 -16.8354 0.4068
25.3200 -16.8487 0.4086
25.3400 -16.8620 0.4087
25.3600 -16.8753 0.4092
25.3800 -16.8887 0.4129
25.4000 -16.9021 0.4136
25.4200 -16.9154 0.4144
25.4400 -16.9287 0.4161
25.4600 -16.9421 0.4171
25.4800 -16.9554 0.4175
25.5000 -16.9687 0.4204
25.5200 -16.9820 0.4207
25.5400 -16.9953 0.4231
25.5600 -17.0087 0.4246
25.5800 -17.0220 0.4250
25.6000 -17.0353 0.4256
25.6200 -17.0486 0.4273
25.6400 -17.0620 0.4288
25.6600 -17.0754 0.4318
25.6800 -17.0887 0.4318
25.7000 -17.1020 0.4337
25.7200 -17.1153 0.4338
25.7400 -17.1287 0.4341
25.7600 -17.1420 0.4348
25.7800 -17.1553 0.4360
25.8000 -17.1687 0.4381
25.8200 -17.1821 0.4392
25.8400 -17.1954 0.4384
25.8600 -17.2087 0.4394
25.8800 -17.2220 0.4373
25.9000 -17.2353 0.4402
25.9200 -17.2487 0.4423
25.9400 -17.2621 0.4432
25.9600 -17.2754 0.4430
25.9800 -17.2888 0.4434
26.0000 -17.3021 0.4437
26.0200 -17.3154 0.4448
26.0400 -17.3287 0.4451
26.0600 -17.3420 0.4471
26.0800 -17.3553 0.4460
26.1000 -17.3687 0.4502
26.1200 -17.3820 0.4510
26.1400 -17.3953 0.4533
26.1600 -17.4086 0.4521
26.1800 -17.4220 0.4547
26.2000 -17.4354 0.4537
26.2200 -17.4488 0.4566
26.2400 -17.4621 0.4577
26.2600 -17.4754 0.4594
26.2800 -17.4888 0.4604
26.3000 -17.5021 0.4612
26.3200 -17.5154 0.4622
26.3400 -17.5287 0.4630
26.3600 -17.5420 0.4650
26.3800 -17.5554 0.4658
26.4000 -17.5687 0.4659
26.4200 -17.5820 0.4651
26.4400 -17.5953 0.4681
26.4600 -17.6087 0.4691
26.4800 -17.6221 0.4715
26.5000 -17.6354 0.4705
26.5200 -17.6487 0.4709
26.5400 -17.6621 0.4726
26.5600 -17.6755 0.4742
26.5800 -17.6888 0.4748
26.6000 -17.7021 0.4743
26.6200 -17.7154 0.4741
26.6400 -17.7288 0.4757
26.6600 -17.7421 0.4778
26.6800 -17.7554 0.4778
26.7000 -17.7687 0.4789
26.7200 -17.7821 0.4798
26.7400 -17.7954 0.4818
26.7600 -17.8087 0.4819
26.7800 -17.8220 0.4808
26.8000 -17.8353 0.4829
26.8200 -17.8487 0.4831
26.8400 -17.8620 0.4853
26.8600 -17.8754 0.4851
26.8800 -17.8887 0.4885
26.9000 -17.9020 0.4905
26.9200 -17.9154 0.4925
26.9400 -17.9287 0.4927
26.9600 -17.9420 0.4947
26.9800 -17.9554 0.4951
27.0000 -17.9688 0.4975
27.0200 -17.9821 0.5000
27.0400 -17.9954 0.5017
27.0600 -18.0087 0.5012
27.0800 -18.0220 0.5028
27.1000 -18.0354 0.5027
27.1200 -18.0487 0.5059
27.1400 -18.0619 0.5081
27.1600 -18.0753 0.5086
27.1800 -18.0886 0.5088
27.2000 -18.1020 0.5117
27.2200 -18.1153 0.5104
27.2400 -18.1287 0.5138
27.2600 -18.1420 0.5161
27.2800 -18.1554 0.5157
27.3000 -18.1688 0.5164
27.3200 -18.1821 0.5176
27.3400 -18.1954 0.5171
27.3600 -18.2088 0.5191
27.3800 -18.2221 0.5196
27.4000 -18.2354 0.5190
27.4200 -18.2487 0.5225
27.4400 -18.2620 0.5218
27.4600 -18.2754 0.5239
27.4800 -18.2887 0.5240
27.5000 -18.3020 0.5266
27.5200 -18.3153 0.5272
27.5400 -18.3287 0.5289
27.5600 -18.3420 0.5287
27.5800 -18.3553 0.5305
27.6000 -18.3687 0.5309
27.6200 -18.3820 0.5310
27.6400 -18.3954 0.5336
27.6600 -18.4088 0.5338
27.6800 -18.4221 0.5348
27.7000 -18.4354 0.5358
27.7200 -18.4487 0.5385
27.7400 -18.4621 0.5383
27.7600 -18.4754 0.5400
27.7800 -18.4888 0.5379
27.8000 -18.5021 0.5398
27.8200 -18.5154 0.5400
27.8400 -18.5287 0.5408
27.8600 -18.5420 0.5424
27.8800 -18.5553 0.5430
27.9000 -18.5687 0.5421
27.9200 -18.5820 0.5444
27.9400 -18.5954 0.5450
27.9600 -18.6087 0.5456
27.9800 -18.6220 0.5473
28.0000 -18.6354 0.5484
28.0200 -18.6487 0.5515
28.0400 -18.6620 0.5507
28.0600 -18.6754 0.5517
28.0800 -18.6887 0.5509
28.1000 -18.7021 0.5545
28.1200 -18.7154 0.5556
28.1400 -18.7287 0.5565
28.1600 -18.7421 0.5581
28.1800 -18.7554 0.5590
28.2000 -18.7687 0.5613
28.2200 -18.7820 0.5604
28.2400 -18.7953 0.5639
28.2600 -18.8087 0.5641
28.2800 -18.8220 0.5674
28.3000 -18.8353 0.5670
28.3200 -18.8486 0.5682
28.3400 -18.8620 0.5679
28.3600 -18.8754 0.5709
28.3800 -18.8888 0.5719
28.4000 -18.9021 0.5750
28.4200 -18.9154 0.5735
28.4400 -18.9288 0.5745
28.4600 -18.9421 0.5776
28.4800 -18.9554 0.5790
28.5000 -18.9687 0.5791
28.5200 -18.9820 0.5801
28.5400 -18.9953 0.5841
28.5600 -19.0086 0.5840
28.5800 -19.0219 0.5871
28.6000 -19.0353 0.5880
28.6200 -19.0487 0.5902
28.6400 -19.0620 0.5885
28.6600 -19.0754 0.5936
28.6800 -19.0887 0.5907
28.7000 -19.1021 0.5938
28.7200 -19.1154 0.5940
28.7400 -19.1288 0.5946
28.7600 -19.1421 0.5971
28.7800 -19.1554 0.5968
28.8000 -19.1687 0.5980
28.8200 -19.1821 0.5987
28.8400 -19.1954 0.6013
28.8600 -19.2087 0.6014
28.8800 -19.2221 0.6023
28.9000 -19.2354 0.6043
28.9200 -19.2487 0.6054
28.9400 -19.2620 0.6061
28.9600 -19.2753 0.6045
28.9800 -19.2887 0.6057
29.0000 -19.3020 0.6078
29.0200 -19.3154 0.6103
29.0400 -19.3287 0.6111
29.0600 -19.3420 0.6129
29.0800 -19.3554 0.6144
29.1000 -19.3687 0.6151
29.1200 -19.3820 0.6176
29.1400 -19.3954 0.6216
29.1600 -19.4087 0.6200
29.1800 -19.4221 0.6236
29.2000 -19.4354 0.6237
29.2200 -19.4487 0.6263
29.2400 -19.4620 0.6259
29.2600 -19.4754 0.6282
29.2800 -19.4887 0.6268
29.3000 -19.5020 0.6294
29.3200 -19.5153 0.6297
29.3400 -19.5286 0.6334
29.3600 -19.5420 0.6320
29.3800 -19.5554 0.6351
29.4000 -19.5687 0.6374
29.4200 -19.5820 0.6374
29.4400 -19.5954 0.6393
29.4600 -19.6088 0.6393
29.4800 -19.6221 0.6408
29.5000 -19.6354 0.6406
29.5200 -19.6487 0.6435
29.5400 -19.6621 0.6426
29.5600 -19.6754 0.6459
29.5800 -19.6887 0.6444
29.6000 -19.7020 0.6483
29.6200 -19.7154 0.6473
29.6400 -19.7287 0.6496
29.6600 -19.7420 0.6477
29.6800 -19.7553 0.6524
29.7000 -19.7687 0.6513
29.7200 -19.7821 0.6523
29.7400 -19.7954 0.6557
29.7600 -19.8087 0.6559
29.7800 -19.8220 0.6560
29.8000 -19.8354 0.6590
29.8200 -19.8488 0.6600
29.8400 -19.8621 0.6620
29.8600 -19.8754 0.6636
29.8800 -19.8887 0.6647
29.9000 -19.9021 0.6675
29.9200 -19.9154 0.6695
29.9400 -19.9287 0.6691
29.9600 -19.9420 0.6681
29.9800 -19.9554 0.6344
30.0000 -19.9687 0.5715
30.0200 -19.9820 0.4977
30.0400 -19.9953 0.4287
30.0600 -20.0086 0.3567
30.0800 -20.0220 0.2887
30.1000 -20.0354 0.2173
30.1200 -20.0487 0.1484
30.1400 -20.0620 0.0739
30.1600 -20.0754 0.0033
30.1800 -20.0888 -0.0720
30.2000 -20.1021 -0.1270
30.2200 -20.1154 -0.1718
30.2400 -20.1288 -0.2249
30.2600 -20.1421 -0.2818
30.2800 -20.1554 -0.3345
30.3000 -20.1687 -0.3874
30.3200 -20.1820 -0.4388
30.3400 -20.1954 -0.4901
30.3600 -20.2087 -0.5475
30.3800 -20.2220 -0.6096
30.4000 -20.2353 -0.6747
30.4200 -20.2486 -0.7404
30.4400 -20.2620 -0.8041
30.4600 -20.2753 -0.8581
30.4800 -20.2887 -0.8844
30.5000 -20.3020 -0.8876
30.5200 -20.3154 -0.8835
30.5400 -20.3288 -0.8814
30.5600 -20.3421 -0.8808
30.5800 -20.3554 -0.8789
30.6000 -20.3687 -0.8804
30.6200 -20.3821 -0.8791
30.6400 -20.3954 -0.8784
30.6600 -20.4087 -0.8770
30.6800 -20.4220 -0.8786
30.7000 -20.4354 -0.8769
30.7200 -20.4487 -0.8793
30.7400 -20.4620 -0.8775
30.7600 -20.4753 -0.8782
30.7800 -20.4886 -0.8780
30.8000 -20.5020 -0.8785
30.8200 -20.5154 -0.8737
30.8400 -20.5287 -0.8770
30.8600 -20.5420 -0.8737
30.8800 -20.5554 -0.8742
30.9000 -20.5688 -0.8728
30.9200 -20.5820 -0.8734
30.9400 -20.5953 -0.8707
30.9600 -20.6086 -0.8700
30.9800 -20.6220 -0.8665
31.0000 -20.6354 -0.8645
31.0200 -20.6487 -0.8637
31.0400 -20.6620 -0.8653
31.0600 -20.6754 -0.8617
31.0800 -20.6887 -0.8610
31.1000 -20.7020 -0.8573
31.1200 -20.7153 -0.8568
31.1400 -20.7287 -0.8533
31.1600 -20.7420 -0.8532
31.1800 -20.7554 -0.8491
31.2000 -20.7687 -0.8494
31.2200 -20.7820 -0.8477
31.2400 -20.7954 -0.8448
31.2600 -20.8088 -0.8443
31.2800 -20.8221 -0.8431
31.3000 -20.8354 -0.8382
31.3200 -20.8487 -0.8378
31.3400 -20.8621 -0.8351
31.3600 -20.8755 -0.8344
31.3800 -20.8887 -0.8311
31.4000 -20.9020 -0.8290
31.4200 -20.9154 -0.8257
31.4400 -20.9287 -0.8230
31.4600 -20.9420 -0.8225
31.4800 -20.9553 -0.8199
31.5000 -20.9687 -0.8178
31.5200 -20.9820 -0.8172
31.5400 -20.9954 -0.8135
31.5600 -21.0087 -0.8108
31.5800 -21.0220 -0.8106
31.6000 -21.0354 -0.8063
31.6200 -21.0488 -0.8049
31.6400 -21.0621 -0.8031
31.6600 -21.0754 -0.8026
31.6800 -21.0887 -0.8004
31.7000 -21.1021 -0.8012
31.7200 -21.1154 -0.7974
31.7400 -21.1287 -0.7952
31.7600 -21.1420 -0.7952
31.7800 -21.1554 -0.7945
31.8000 -21.1687 -0.7926
31.8200 -21.1820 -0.7930
31.8400 -21.1953 -0.7911
31.8600 -21.2086 -0.7901
31.8800 -21.2220 -0.7888
31.9000 -21.2354 -0.7850
31.9200 -21.2487 -0.7827
31.9400 -21.2620 -0.7844
31.9600 -21.2754 -0.7801
31.9800 -21.2887 -0.7800
32.0000 -21.3021 -0.7763
32.0200 -21.3154 -0.7761
32.0400 -21.3287 -0.7725
32.0600 -21.3421 -0.7735
32.0800 -21.3554 -0.7697
32.1000 -21.3687 -0.7706
32.1200 -21.3821 -0.7697
32.1400 -21.3954 -0.7666
32.1600 -21.4087 -0.7640
32.1800 -21.4220 -0.7658
32.2000 -21.4353 -0.7604
32.2200 -21.4486 -0.7591
32.2400 -21.4620 -0.7581
32.2600 -21.4754 -0.7576
32.2800 -21.4887 -0.7538
32.3000 -21.5020 -0.7559
32.3200 -21.5154 -0.7534
32.3400 -21.5288 -0.7491
32.3600 -21.5421 -0.7497
32.3800 -21.5554 -0.7469
32.4000 -21.5687 -0.7473
32.4200 -21.5820 -0.7453
32.4400 -21.5954 -0.7424
32.4600 -21.6087 -0.7402
32.4800 -21.6220 -0.7407
32.5000 -21.6354 -0.7361
32.5200 -21.6487 -0.7345
32.5400 -21.6620 -0.7327
32.5600 -21.6753 -0.7315
32.5800 -21.6886 -0.7294
32.6000 -21.7020 -0.7270
32.6200 -21.7154 -0.7245
32.6400 -21.7287 -0.7221
32.6600 -21.7420 -0.7227
32.6800 -21.7554 -0.7204
32.7000 -21.7688 -0.7199
32.7200 -21.7821 -0.7194
32.7400 -21.7954 -0.7180
32.7600 -21.8087 -0.7165
32.7800 -21.8221 -0.7152
32.8000 -21.8354 -0.7143
32.8200 -21.8487 -0.7138
32.8400 -21.8620 -0.7146
32.8600 -21.8753 -0.7151
32.8800 -21.8887 -0.7135
32.9000 -21.9020 -0.7126
32.9200 -21.9153 -0.7085
32.9400 -21.9287 -0.7095
32.9600 -21.9420 -0.7120
32.9800 -21.9554 -0.7094
33.0000 -21.9687 -0.7089
33.0200 -21.9820 -0.7079
33.0400 -21.9954 -0.7069
33.0600 -22.0087 -0.7038
33.0800 -22.0221 -0.7047
33.1000 -22.0354 -0.7037
33.1200 -22.0487 -0.7022
33.1400 -22.0621 -0.7039
33.1600 -22.0754 -0.6997
33.1800 -22.0887 -0.6976
33.2000 -22.1021 -0.6959
33.2200 -22.1154 -0.6941
33.2400 -22.1288 -0.6930
33.2600 -22.1421 -0.6939
33.2800 -22.1553 -0.6909
33.3000 -22.1686 -0.6896
33.3200 -22.1820 -0.6884
33.3400 -22.1953 -0.6873
33.3600 -22.2086 -0.6864
33.3800 -22.2219 -0.6873
33.4000 -22.2353 -0.6863
33.4200 -22.2487 -0.6858
33.4400 -22.2621 -0.6844
33.4600 -22.2754 -0.6832
33.4800 -22.2887 -0.6810
33.5000 -22.3021 -0.6816
33.5200 -22.3155 -0.6783
33.5400 -22.3288 -0.6792
33.5600 -22.3421 -0.6795
33.5800 -22.3554 -0.6787
33.6000 -22.3687 -0.6761
33.6200 -22.3820 -0.6731
33.6400 -22.3953 -0.6746
33.6600 -22.4087 -0.6728
33.6800 -22.4220 -0.6730
33.7000 -22.4354 -0.6711
33.7200 -22.4487 -0.6659
33.7400 -22.4620 -0.6680
33.7600 -22.4754 -0.6673
33.7800 -22.4888 -0.6635
33.8000 -22.5021 -0.6647
33.8200 -22.5154 -0.6625
33.8400 -22.5287 -0.6593
33.8600 -22.5421 -0.6598
33.8800 -22.5554 -0.6566
33.9000 -22.5688 -0.6536
33.9200 -22.5820 -0.6533
33.9400 -22.5954 -0.6518
33.9600 -22.6087 -0.6500
33.9800 -22.6220 -0.6514
34.0000 -22.6353 -0.6490
34.0200 -22.6486 -0.6445
34.0400 -22.6620 -0.6465
34.0600 -22.6754 -0.6431
34.0800 -22.6887 -0.6419
34.1000 -22.7020 -0.6408
34.1200 -22.7154 -0.6421
34.1400 -22.7287 -0.6365
34.1600 -22.7421 -0.6384
34.1800 -22.7554 -0.6381
34.2000 -22.7687 -0.6348
34.2200 -22.7821 -0.6345
34.2400 -22.7955 -0.6303
34.2600 -22.8088 -0.6279
34.2800 -22.8221 -0.6266
34.3000 -22.8354 -0.6238
34.3200 -22.8487 -0.6235
34.3400 -22.8620 -0.6239
34.3600 -22.8753 -0.6217
34.3800 -22.8886 -0.6179
34.4000 -22.9020 -0.6187
34.4200 -22.9154 -0.6168
34.4400 -22.9287 -0.6137
34.4600 -22.9420 -0.6130
34.4800 -22.9554 -0.6124
34.5000 -22.9687 -0.6075
34.5200 -22.9821 -0.6069
34.5400 -22.9954 -0.6055
34.5600 -23.0087 -0.6059
34.5800 -23.0221 -0.6060
34.6000 -23.0355 -0.6039
34.6200 -23.0488 -0.6002
34.6400 -23.0620 -0.6015
34.6600 -23.0753 -0.6006
34.6800 -23.0887 -0.5978
34.7000 -23.1020 -0.5971
34.7200 -23.1154 -0.5964
34.7400 -23.1287 -0.5928
34.7600 -23.1420 -0.5922
34.7800 -23.1554 -0.5924
34.8000 -23.1687 -0.5905
34.8200 -23.1820 -0.5930
34.8400 -23.1953 -0.5901
34.8600 -23.2087 -0.5890
34.8800 -23.2221 -0.5857
34.9000 -23.2354 -0.5878
34.9200 -23.2487 -0.5836
34.9400 -23.2620 -0.5872
34.9600 -23.2754 -0.5840
34.9800 -23.2888 -0.5847
35.0000 -23.3021 -0.5836
35.0200 -23.3154 -0.5853
35.0400 -23.3287 -0.5792
35.0600 -23.3421 -0.5826
35.0800 -23.3554 -0.5806
35.1000 -23.3686 -0.5829
35.1200 -23.3820 -0.5826
35.1400 -23.3953 -0.5848
35.1600 -23.4087 -0.5809
35.1800 -23.4220 -0.5822
35.2000 -23.4353 -0.5818
35.2200 -23.4487 -0.5804
35.2400 -23.4621 -0.5796
35.2600 -23.4754 -0.5815
35.2800 -23.4887 -0.5779
35.3000 -23.5020 -0.5782
35.3200 -23.5154 -0.5776
35.3400 -23.5288 -0.5746
35.3600 -23.5421 -0.5755
35.3800 -23.5554 -0.5772
35.4000 -23.5687 -0.5739
35.4200 -23.5821 -0.5743
35.4400 -23.5954 -0.5743
35.4600 -23.6086 -0.5717
35.4800 -23.6220 -0.5712
35.5000 -23.6353 -0.5699
35.5200 -23.6487 -0.5664
35.5400 -23.6620 -0.5663
35.5600 -23.6753 -0.5669
35.5800 -23.6887 -0.5633
35.6000 -23.7021 -0.5612
35.6200 -23.7154 -0.5621
35.6400 -23.7287 -0.5577
35.6600 -23.7421 -0.5592
35.6800 -23.7554 -0.5573
35.7000 -23.7688 -0.5549
35.7200 -23.7821 -0.5543
35.7400 -23.7954 -0.5542
35.7600 -23.8087 -0.5520
35.7800 -23.8220 -0.5491
35.8000 -23.8353 -0.5511
35.8200 -23.8486 -0.5446
35.8400 -23.8620 -0.5467
35.8600 -23.8753 -0.5452
35.8800 -23.8887 -0.5428
35.9000 -23.9020 -0.5403
35.9200 -23.9154 -0.5409
35.9400 -23.9287 -0.5367
35.9600 -23.9421 -0.5378
35.9800 -23.9554 -0.5339
36.0000 -23.9687 -0.5336
36.0200 -23.9820 -0.5336
36.0400 -23.9954 -0.5329
36.0600 -24.0088 -0.5292
36.0800 -24.0221 -0.5300
36.1000 -24.0354 -0.5307
36.1200 -24.0487 -0.5272
36.1400 -24.0621 -0.5295
36.1600 -24.0754 -0.5268
36.1800 -24.0887 -0.5259
36.2000 -24.1020 -0.5258
36.2200 -24.1154 -0.5250
36.2400 -24.1287 -0.5202
36.2600 -24.1420 -0.5192
36.2800 -24.1553 -0.5211
36.3000 -24.1687 -0.5182
36.3200 -24.1821 -0.5180
36.3400 -24.1954 -0.5168
36.3600 -24.2087 -0.5146
36.3800 -24.2220 -0.5136
36.4000 -24.2354 -0.5120
36.4200 -24.2487 -0.5084
36.4400 -24.2621 -0.5099
36.4600 -24.2754 -0.5074
36.4800 -24.2887 -0.5054
36.5000 -24.3021 -0.5041
36.5200 -24.3154 -0.5042
36.5400 -24.3286 -0.5023
36.5600 -24.3420 -0.5026
36.5800 -24.3553 -0.5021
36.6000 -24.3687 -0.4990
36.6200 -24.3820 -0.5000
36.6400 -24.3954 -0.5009
36.6600 -24.4087 -0.4993
36.6800 -24.4221 -0.4973
36.7000 -24.4354 -0.4948
36.7200 -24.4487 -0.4938
36.7400 -24.4620 -0.4947
36.7600 -24.4754 -0.4947
36.7800 -24.4887 -0.4913
36.8000 -24.5021 -0.4917
36.8200 -24.5154 -0.4905
36.8400 -24.5287 -0.4886
36.8600 -24.5420 -0.4886
36.8800 -24.5553 -0.4891
36.9000 -24.5686 -0.4881
36.9200 -24.5820 -0.4878
36.9400 -24.5954 -0.4889
36.9600 -24.6088 -0.4871
36.9800 -24.6221 -0.4865
37.0000 -24.6354 -0.4830
37.0200 -24.6487 -0.4837
37.0400 -24.6621 -0.4820
37.0600 -24.6754 -0.4814
37.0800 -24.6887 -0.4779
37.1000 -24.7021 -0.4766
37.1200 -24.7154 -0.4810
37.1400 -24.7288 -0.4792
37.1600 -24.7421 -0.4789
37.1800 -24.7554 -0.4776
37.2000 -24.7687 -0.4733
37.2200 -24.7821 -0.4741
37.2400 -24.7954 -0.4741
37.2600 -24.8086 -0.4742
37.2800 -24.8220 -0.4741
37.3000 -24.8353 -0.4749
37.3200 -24.8487 -0.4727
37.3400 -24.8620 -0.4726
37.3600 -24.8753 -0.4719
37.3800 -24.8887 -0.4705
37.4000 -24.9021 -0.4696
37.4200 -24.9154 -0.4699
37.4400 -24.9288 -0.4701
37.4600 -24.9421 -0.4681
37.4800 -24.9554 -0.4684
37.5000 -24.9688 -0.4656
37.5200 -24.9821 -0.4651
37.5400 -24.9954 -0.4651
37.5600 -25.0087 -0.4644
37.5800 -25.0220 -0.4626
37.6000 -25.0353 -0.4616
37.6200 -25.0486 -0.4576
37.6400 -25.0620 -0.4597
37.6600 -25.0753 -0.4576
37.6800 -25.0887 -0.4573
37.7000 -25.1020 -0.4559
37.7200 -25.1153 -0.4582
37.7400 -25.1287 -0.4527
37.7600 -25.1421 -0.4515
37.7800 -25.1555 -0.4503
37.8000 -25.1688 -0.4495
37.8200 -25.1821 -0.4491
37.8400 -25.1954 -0.4478
37.8600 -25.2088 -0.4459
37.8800 -25.2221 -0.4440
37.9000 -25.2354 -0.4450
37.9200 -25.2487 -0.4419
37.9400 -25.2620 -0.4402
37.9600 -25.2754 -0.4412
37.9800 -25.2886 -0.4384
38.0000 -25.3020 -0.4343
38.0200 -25.3153 -0.4365
38.0400 -25.3287 -0.4317
38.0600 -25.3420 -0.4327
38.0800 -25.3554 -0.4310
38.1000 -25.3687 -0.4291
38.1200 -25.3821 -0.4284
38.1400 -25.3954 -0.4279
38.1600 -25.4087 -0.4262
38.1800 -25.4220 -0.4251
38.2000 -25.4353 -0.4239
38.2200 -25.4487 -0.4223
38.2400 -25.4621 -0.4203
38.2600 -25.4754 -0.4221
38.2800 -25.4887 -0.4218
38.3000 -25.5020 -0.4193
38.3200 -25.5154 -0.4229
38.3400 -25.5286 -0.4202
38.3600 -25.5420 -0.4182
38.3800 -25.5553 -0.4191
38.4000 -25.5687 -0.4183
38.4200 -25.5820 -0.4167
38.4400 -25.5954 -0.4163
38.4600 -25.6087 -0.4176
38.4800 -25.6221 -0.4143
38.5000 -25.6354 -0.4163
38.5200 -25.6487 -0.4129
38.5400 -25.6621 -0.4128
38.5600 -25.6754 -0.4139
38.5800 -25.6888 -0.4126
38.6000 -25.7021 -0.4118
38.6200 -25.7154 -0.4120
38.6400 -25.7287 -0.4091
38.6600 -25.7420 -0.4094
38.6800 -25.7554 -0.4083
38.7000 -25.7687 -0.4071
38.7200 -25.7820 -0.4031
38.7400 -25.7953 -0.4051
38.7600 -25.8087 -0.4046
38.7800 -25.8220 -0.4038
38.8000 -25.8354 -0.4065
38.8200 -25.8487 -0.4036
38.8400 -25.8621 -0.4012
38.8600 -25.8754 -0.4036
38.8800 -25.8887 -0.4028
38.9000 -25.9021 -0.4026
38.9200 -25.9154 -0.4022
38.9400 -25.9287 -0.3984
38.9600 -25.9421 -0.3971
38.9800 -25.9554 -0.3983
39.0000 -25.9687 -0.3974
39.0200 -25.9821 -0.3928
39.0400 -25.9954 -0.3957
39.0600 -26.0087 -0.3900
39.0800 -26.0220 -0.3911
39.1000 -26.0353 -0.3900
39.1200 -26.0487 -0.3905
39.1400 -26.0620 -0.3867
39.1600 -26.0753 -0.3891
39.1800 -26.0887 -0.3848
39.2000 -26.1020 -0.3845
39.2200 -26.1154 -0.3846
39.2400 -26.1287 -0.3837
39.2600 -26.1420 -0.3816
39.2800 -26.1554 -0.3831
39.3000 -26.1687 -0.3808
39.3200 -26.1821 -0.3775
39.3400 -26.1954 -0.3798
39.3600 -26.2087 -0.3785
39.3800 -26.2221 -0.3755
39.4000 -26.2354 -0.3769
39.4200 -26.2487 -0.3739
39.4400 -26.2620 -0.3735
39.4600 -26.2753 -0.3722
39.4800 -26.2887 -0.3687
39.5000 -26.3020 -0.3666
39.5200 -26.3154 -0.3687
39.5400 -26.3287 -0.3698
39.5600 -26.3421 -0.3654
39.5800 -26.3555 -0.3670
39.6000 -26.3688 -0.3658
39.6200 -26.3820 -0.3635
39.6400 -26.3954 -0.3656
39.6600 -26.4087 -0.3625
39.6800 -26.4221 -0.3618
39.7000 -26.4354 -0.3615
39.7200 -26.4487 -0.3602
39.7400 -26.4620 -0.3579
39.7600 -26.4754 -0.3580
39.7800 -26.4887 -0.3565
39.8000 -26.5020 -0.3540
39.8200 -26.5153 -0.3555
39.8400 -26.5287 -0.3523
39.8600 -26.5421 -0.3494
39.8800 -26.5554 -0.3508
39.9000 -26.5687 -0.3514
39.9200 -26.5821 -0.3464
39.9400 -26.5954 -0.3492
39.9600 -26.6088 -0.3444
39.9800 -26.6221 -0.3433
40.0000 -26.6354 -0.3432
40.0200 -26.6487 -0.3450
40.0400 -26.6621 -0.3411
40.0600 -26.6754 -0.3428
40.0800 -26.6887 -0.3414
40.1000 -26.7020 -0.3386
40.1200 -26.7154 -0.3404
40.1400 -26.7287 -0.3397
40.1600 -26.7420 -0.3381
40.1800 -26.7553 -0.3382
40.2000 -26.7687 -0.3372
40.2200 -26.7821 -0.3362
40.2400 -26.7954 -0.3367
40.2600 -26.8087 -0.3376
40.2800 -26.8220 -0.3361
40.3000 -26.8354 -0.3338
40.3200 -26.8487 -0.3318
40.3400 -26.8620 -0.3320
40.3600 -26.8754 -0.3317
40.3800 -26.8887 -0.3331
40.4000 -26.9021 -0.3292
40.4200 -26.9154 -0.3311
40.4400 -26.9287 -0.3281
40.4600 -26.9421 -0.3278
40.4800 -26.9554 -0.3262
40.5000 -26.9687 -0.3249
40.5200 -26.9820 -0.3242
40.5400 -26.9953 -0.3251
40.5600 -27.0086 -0.3234
40.5800 -27.0220 -0.3203
40.6000 -27.0353 -0.3205
40.6200 -27.0486 -0.3211
40.6400 -27.0620 -0.3188
40.6600 -27.0754 -0.3169
40.6800 -27.0888 -0.3173
40.7000 -27.1021 -0.3150
40.7200 -27.1154 -0.3150
40.7400 -27.1288 -0.3151
40.7600 -27.1421 -0.3133
40.7800 -27.1554 -0.3117
40.8000 -27.1687 -0.3120
40.8200 -27.1820 -0.3092
40.8400 -27.1954 -0.3076
40.8600 -27.2087 -0.3071
40.8800 -27.2220 -0.3047
40.9000 -27.2353 -0.3057
40.9200 -27.2487 -0.3058
40.9400 -27.2621 -0.3007
40.9600 -27.2754 -0.3022
40.9800 -27.2887 -0.2998
41.0000 -27.3021 -0.2994
41.0200 -27.3155 -0.2975
41.0400 -27.3288 -0.2969
41.0600 -27.3421 -0.2928
41.0800 -27.3554 -0.2953
41.1000 -27.3687 -0.2939
41.1200 -27.3821 -0.2945
41.1400 -27.3954 -0.2927
41.1600 -27.4087 -0.2958
41.1800 -27.4221 -0.2893
41.2000 -27.4354 -0.2924
41.2200 -27.4487 -0.2902
41.2400 -27.4620 -0.2901
41.2600 -27.4753 -0.2898
41.2800 -27.4887 -0.2894
41.3000 -27.5020 -0.2875
41.3200 -27.5154 -0.2876
41.3400 -27.5287 -0.2877
41.3600 -27.5421 -0.2868
41.3800 -27.5554 -0.2863
41.4000 -27.5688 -0.2880
41.4200 -27.5821 -0.2855
41.4400 -27.5954 -0.2871
41.4600 -27.6088 -0.2881
41.4800 -27.6221 -0.2847
41.5000 -27.6354 -0.2866
41.5200 -27.6487 -0.2860
41.5400 -27.6620 -0.2827
41.5600 -27.6754 -0.2839
41.5800 -27.6887 -0.2833
41.6000 -27.7020 -0.2844
41.6200 -27.7153 -0.2825
41.6400 -27.7286 -0.2812
41.6600 -27.7420 -0.2790
41.6800 -27.7553 -0.2800
41.7000 -27.7686 -0.2779
41.7200 -27.7820 -0.2766
41.7400 -27.7954 -0.2783
41.7600 -27.8088 -0.2767
41.7800 -27.8221 -0.2745
41.8000 -27.8354 -0.2741
41.8200 -27.8488 -0.2741
41.8400 -27.8621 -0.2703
41.8600 -27.8754 -0.2713
41.8800 -27.8887 -0.2699
41.9000 -27.9021 -0.2691
41.9200 -27.9154 -0.2665
41.9400 -27.9287 -0.2680
41.9600 -27.9420 -0.2635
41.9800 -27.9553 -0.2662
42.0000 -27.9687 -0.2649
42.0200 -27.9820 -0.2639
42.0400 -27.9954 -0.2614
42.0600 -28.0087 -0.2632
42.0800 -28.0220 -0.2602
42.1000 -28.0354 -0.2596
42.1200 -28.0487 -0.2578
42.1400 -28.0620 -0.2570
42.1600 -28.0754 -0.2566
42.1800 -28.0887 -0.2559
42.2000 -28.1021 -0.2515
42.2200 -28.1154 -0.2511
42.2400 -28.1288 -0.2533
42.2600 -28.1421 -0.2514
42.2800 -28.1554 -0.2473
42.3000 -28.1687 -0.2476
42.3200 -28.1820 -0.2431
42.3400 -28.1953 -0.2448
42.3600 -28.2087 -0.2440
42.3800 -28.2220 -0.2437
42.4000 -28.2353 -0.2404
42.4200 -28.2487 -0.2430
42.4400 -28.2620 -0.2399
42.4600 -28.2754 -0.2395
42.4800 -28.2887 -0.2377
42.5000 -28.3020 -0.2373
42.5200 -28.3153 -0.2340
42.5400 -28.3287 -0.2352
42.5600 -28.3421 -0.2309
42.5800 -28.3554 -0.2311
42.6000 -28.3687 -0.2324
42.6200 -28.3821 -0.2297
42.6400 -28.3954 -0.2306
42.6600 -28.4087 -0.2301
42.6800 -28.4220 -0.2295
42.7000 -28.4353 -0.2268
42.7200 -28.4487 -0.2267
42.7400 -28.4620 -0.2227
42.7600 -28.4753 -0.2231
42.7800 -28.4886 -0.2243
42.8000 -28.5020 -0.2203
42.8200 -28.5154 -0.2221
42.8400 -28.5288 -0.2220
42.8600 -28.5421 -0.2193
42.8800 -28.5554 -0.2190
42.9000 -28.5688 -0.2184
42.9200 -28.5821 -0.2179
42.9400 -28.5954 -0.2175
42.9600 -28.6087 -0.2159
42.9800 -28.6220 -0.2143
43.0000 -28.6353 -0.2126
43.0200 -28.6486 -0.2110
43.0400 -28.6619 -0.2127
43.0600 -28.6753 -0.2112
43.0800 -28.6886 -0.2119
43.1000 -28.7020 -0.2069
43.1200 -28.7154 -0.2078
43.1400 -28.7287 -0.2079
43.1600 -28.7420 -0.2050
43.1800 -28.7554 -0.2025
43.2000 -28.7688 -0.2048
43.2200 -28.7821 -0.2035
43.2400 -28.7954 -0.2049
43.2600 -28.8087 -0.2010
43.2800 -28.8221 -0.2029
43.3000 -28.8354 -0.2002
43.3200 -28.8487 -0.2029
43.3400 -28.8621 -0.1982
43.3600 -28.8754 -0.1999
43.3800 -28.8888 -0.1977
43.4000 -28.9020 -0.1968
43.4200 -28.9153 -0.1941
43.4400 -28.9287 -0.1951
43.4600 -28.9420 -0.1941
43.4800 -28.9554 -0.1925
43.5000 -28.9687 -0.1903
43.5200 -28.9820 -0.1899
43.5400 -28.9954 -0.1886
43.5600 -29.0088 -0.1906
43.5800 -29.0221 -0.1867
43.6000 -29.0354 -0.1874
43.6200 -29.0487 -0.1878
43.6400 -29.0621 -0.1860
43.6600 -29.0754 -0.1844
43.6800 -29.0887 -0.1841
43.7000 -29.1020 -0.1827
43.7200 -29.1154 -0.1819
43.7400 -29.1287 -0.1836
43.7600 -29.1420 -0.1806
43.7800 -29.1553 -0.1794
43.8000 -29.1686 -0.1768
43.8200 -29.1820 -0.1778
43.8400 -29.1954 -0.1769
43.8600 -29.2087 -0.1808
43.8800 -29.2220 -0.1767
43.9000 -29.2354 -0.1771
43.9200 -29.2488 -0.1754
43.9400 -29.2621 -0.1759
43.9600 -29.2754 -0.1739
43.9800 -29.2887 -0.1739
44.0000 -29.3021 -0.1713
44.0200 -29.3154 -0.1707
44.0400 -29.3287 -0.1719
44.0600 -29.3420 -0.1717
44.0800 -29.3554 -0.1726
44.1000 -29.3687 -0.1731
44.1200 -29.3820 -0.1682
44.1400 -29.3953 -0.1691
44.1600 -29.4087 -0.1699
44.1800 -29.4220 -0.1698
44.2000 -29.4354 -0.1668
44.2200 -29.4487 -0.1699
44.2400 -29.4620 -0.1652
44.2600 -29.4754 -0.1667
44.2800 -29.4888 -0.1660
44.3000 -29.5021 -0.1675
44.3200 -29.5154 -0.1645
44.3400 -29.5287 -0.1645
44.3600 -29.5421 -0.1629
44.3800 -29.5554 -0.1622
44.4000 -29.5687 -0.1627
44.4200 -29.5820 -0.1592
44.4400 -29.5954 -0.1598
44.4600 -29.6087 -0.1606
44.4800 -29.6220 -0.1580
44.5000 -29.6353 -0.1589
44.5200 -29.6486 -0.1559
44.5400 -29.6620 -0.1562
44.5600 -29.6754 -0.1537
44.5800 -29.6887 -0.1532
44.6000 -29.7020 -0.1506
44.6200 -29.7154 -0.1505
44.6400 -29.7288 -0.1502
44.6600 -29.7421 -0.1484
44.6800 -29.7554 -0.1467
44.7000 -29.7687 -0.1477
44.7200 -29.7821 -0.1436
44.7400 -29.7954 -0.1421
44.7600 -29.8087 -0.1413
44.7800 -29.8220 -0.1414
44.8000 -29.8354 -0.1372
44.8200 -29.8487 -0.1364
44.8400 -29.8620 -0.1353
44.8600 -29.8753 -0.1341
44.8800 -29.8886 -0.1336
44.9000 -29.9020 -0.1328
44.9200 -29.9153 -0.1308
44.9400 -29.9287 -0.1321
44.9600 -29.9420 -0.1283
44.9800 -29.9554 -0.1268
45.0000 -29.9688 -0.1260
45.0200 -29.9821 -0.1252
45.0400 -29.9954 -0.1239
45.0600 -30.0087 -0.1234
45.0800 -30.0221 -0.1218
45.1000 -30.0354 -0.1200
45.1200 -30.0487 -0.1203
45.1400 -30.0620 -0.1188
45.1600 -30.0754 -0.1185
45.1800 -30.0887 -0.1171
45.2000 -30.1020 -0.1176
45.2200 -30.1153 -0.1134
45.2400 -30.1286 -0.1175
45.2600 -30.1420 -0.1162
45.2800 -30.1554 -0.1139
45.3000 -30.1687 -0.1139
45.3200 -30.1820 -0.1141
45.3400 -30.1954 -0.1136
45.3600 -30.2087 -0.1149
45.3800 -30.2220 -0.1109
45.4000 -30.2353 -0.1108
45.4200 -30.2486 -0.1091
45.4400 -30.2620 -0.1102
45.4600 -30.2754 -0.1070
45.4800 -30.2887 -0.1099
45.5000 -30.3021 -0.1078
45.5200 -30.3154 -0.1102
45.5400 -30.3287 -0.1088
45.5600 -30.3421 -0.1102
45.5800 -30.3553 -0.1072
45.6000 -30.3686 -0.1082
45.6200 -30.3820 -0.1059
45.6400 -30.3954 -0.1051
45.6600 -30.4087 -0.1046
45.6800 -30.4220 -0.1066
45.7000 -30.4354 -0.1048
45.7200 -30.4488 -0.1057
45.7400 -30.4621 -0.1042
45.7600 -30.4754 -0.1037
45.7800 -30.4887 -0.1040
45.8000 -30.5021 -0.1003
45.8200 -30.5155 -0.0991
45.8400 -30.5288 -0.0990
45.8600 -30.5420 -0.0994
45.8800 -30.5554 -0.0988
45.9000 -30.5687 -0.0944
45.9200 -30.5820 -0.0954
45.9400 -30.5953 -0.0950
45.9600 -30.6086 -0.0953
45.9800 -30.6220 -0.0929
46.0000 -30.6353 -0.0920
46.0200 -30.6487 -0.0924
46.0400 -30.6620 -0.0917
46.0600 -30.6753 -0.0883
46.0800 -30.6887 -0.0878
46.1000 -30.7021 -0.0863
46.1200 -30.7154 -0.0860
46.1400 -30.7287 -0.0853
46.1600 -30.7421 -0.0858
46.1800 -30.7554 -0.0828
46.2000 -30.7687 -0.0823
46.2200 -30.7820 -0.0826
46.2400 -30.7954 -0.0807
46.2600 -30.8087 -0.0790
46.2800 -30.8221 -0.0778
46.3000 -30.8353 -0.0767
46.3200 -30.8486 -0.0764
46.3400 -30.8620 -0.0745
46.3600 -30.8754 -0.0726
46.3800 -30.8887 -0.0720
46.4000 -30.9020 -0.0711
46.4200 -30.9154 -0.0691
46.4400 -30.9287 -0.0680
46.4600 -30.9421 -0.0678
46.4800 -30.9554 -0.0677
46.5000 -30.9687 -0.0690
46.5200 -30.9821 -0.0681
46.5400 -30.9954 -0.0670
46.5600 -31.0088 -0.0653
46.5800 -31.0221 -0.0642
46.6000 -31.0354 -0.0616
46.6200 -31.0487 -0.0620
46.6400 -31.0621 -0.0601
46.6600 -31.0753 -0.0588
46.6800 -31.0886 -0.0566
46.7000 -31.1020 -0.0593
46.7200 -31.1154 -0.0576
46.7400 -31.1287 -0.0572
46.7600 -31.1421 -0.0542
46.7800 -31.1554 -0.0540
46.8000 -31.1688 -0.0533
46.8200 -31.1821 -0.0536
46.8400 -31.1954 -0.0513
46.8600 -31.2087 -0.0511
46.8800 -31.2221 -0.0503
46.9000 -31.2354 -0.0486
46.9200 -31.2487 -0.0452
46.9400 -31.2620 -0.0464
46.9600 -31.2754 -0.0452
46.9800 -31.2887 -0.0461
47.0000 -31.3020 -0.0456
47.0200 -31.3153 -0.0449
47.0400 -31.3286 -0.0403
47.0600 -31.3420 -0.0413
47.0800 -31.3554 -0.0382
47.1000 -31.3687 -0.0388
47.1200 -31.3820 -0.0368
47.1400 -31.3954 -0.0371
47.1600 -31.4088 -0.0362
47.1800 -31.4221 -0.0345
47.2000 -31.4354 -0.0338
47.2200 -31.4487 -0.0350
47.2400 -31.4620 -0.0340
47.2600 -31.4754 -0.0336
47.2800 -31.4887 -0.0319
47.3000 -31.5020 -0.0316
47.3200 -31.5154 -0.0325
47.3400 -31.5287 -0.0319
47.3600 -31.5420 -0.0305
47.3800 -31.5553 -0.0304
47.4000 -31.5686 -0.0298
47.4200 -31.5820 -0.0278
47.4400 -31.5954 -0.0258
47.4600 -31.6087 -0.0260
47.4800 -31.6220 -0.0263
47.5000 -31.6354 -0.0244
47.5200 -31.6487 -0.0251
47.5400 -31.6621 -0.0226
47.5600 -31.6754 -0.0225
47.5800 -31.6887 -0.0211
47.6000 -31.7020 -0.0225
47.6200 -31.7154 -0.0205
47.6400 -31.7287 -0.0193
47.6600 -31.7421 -0.0186
47.6800 -31.7554 -0.0163
47.7000 -31.7688 -0.0145
47.7200 -31.7821 -0.0144
47.7400 -31.7954 -0.0118
47.7600 -31.8087 -0.0124
47.7800 -31.8220 -0.0121
47.8000 -31.8353 -0.0114
47.8200 -31.8486 -0.0104
47.8400 -31.8620 -0.0108
47.8600 -31.8753 -0.0075
47.8800 -31.8887 -0.0079
47.9000 -31.9021 -0.0040
47.9200 -31.9154 -0.0046
47.9400 -31.9287 -0.0044
47.9600 -31.9421 -0.0047
47.9800 -31.9555 -0.0032
48.0000 -31.9688 -0.0021
48.0200 -31.9821 0.0015
48.0400 -31.9954 0.0005
48.0600 -32.0087 0.0040
48.0800 -32.0221 0.0045
48.1000 -32.0354 0.0046
48.1200 -32.0487 0.0066
48.1400 -32.0620 0.0092
48.1600 -32.0754 0.0092
48.1800 -32.0887 0.0108
48.2000 -32.1020 0.0109
48.2200 -32.1154 0.0127
48.2400 -32.1287 0.0112
48.2600 -32.1421 0.0152
48.2800 -32.1554 0.0141
48.3000 -32.1687 0.0161
48.3200 -32.1820 0.0155
48.3400 -32.1954 0.0199
48.3600 -32.2088 0.0205
48.3800 -32.2220 0.0229
48.4000 -32.2354 0.0208
48.4200 -32.2487 0.0235
48.4400 -32.2620 0.0242
48.4600 -32.2753 0.0240
48.4800 -32.2886 0.0241
48.5000 -32.3020 0.0266
48.5200 -32.3153 0.0256
48.5400 -32.3287 0.0278
48.5600 -32.3420 0.0287
48.5800 -32.3554 0.0260
48.6000 -32.3687 0.0283
48.6200 -32.3821 0.0290
48.6400 -32.3954 0.0270
48.6600 -32.4087 0.0272
48.6800 -32.4221 0.0289
48.7000 -32.4354 0.0292
48.7200 -32.4487 0.0315
48.7400 -32.4621 0.0299
48.7600 -32.4754 0.0313
48.7800 -32.4887 0.0317
48.8000 -32.5021 0.0332
48.8200 -32.5153 0.0321
48.8400 -32.5286 0.0337
48.8600 -32.5420 0.0333
48.8800 -32.5553 0.0351
48.9000 -32.5687 0.0369
48.9200 -32.5820 0.0373
48.9400 -32.5954 0.0361
48.9600 -32.6087 0.0383
48.9800 -32.6221 0.0392
49.0000 -32.6354 0.0383
49.0200 -32.6488 0.0400
49.0400 -32.6621 0.0408
49.0600 -32.6754 0.0411
49.0800 -32.6888 0.0439
49.1000 -32.7021 0.0443
49.1200 -32.7154 0.0439
49.1400 -32.7287 0.0451
49.1600 -32.7421 0.0471
49.1800 -32.7554 0.0489
49.2000 -32.7687 0.0513
49.2200 -32.7820 0.0511
49.2400 -32.7954 0.0528
49.2600 -32.8087 0.0512
49.2800 -32.8220 0.0528
49.3000 -32.8353 0.0527
49.3200 -32.8487 0.0540
49.3400 -32.8621 0.0558
49.3600 -32.8754 0.0575
49.3800 -32.8887 0.0590
49.4000 -32.9021 0.0613
49.4200 -32.9154 0.0588
49.4400 -32.9288 0.0616
49.4600 -32.9421 0.0655
49.4800 -32.9554 0.0645
49.5000 -32.9688 0.0663
49.5200 -32.9821 0.0649
49.5400 -32.9954 0.0645
49.5600 -33.0087 0.0661
49.5800 -33.0220 0.0689
49.6000 -33.0354 0.0705
49.6200 -33.0487 0.0718
49.6400 -33.0620 0.0721
49.6600 -33.0753 0.0707
49.6800 -33.0887 0.0745
49.7000 -33.1021 0.0747
49.7200 -33.1154 0.0738
49.7400 -33.1287 0.0742
49.7600 -33.1420 0.0746
49.7800 -33.1554 0.0753
49.8000 -33.1688 0.0782
49.8200 -33.1821 0.0780
49.8400 -33.1954 0.0785
49.8600 -33.2087 0.0793
49.8800 -33.2221 0.0806
49.9000 -33.2354 0.0783
49.9200 -33.2486 0.0804
49.9400 -33.2620 0.0823
49.9600 -33.2753 0.0839
49.9800 -33.2887 0.0852
50.0000 -33.3020 0.0855
50.0200 -33.3153 0.0838
50.0400 -33.3287 0.0865
50.0600 -33.3421 0.0862
50.0800 -33.3554 0.0897
50.1000 -33.3687 0.0908
50.1200 -33.3821 0.0941
50.1400 -33.3954 0.0941
50.1600 -33.4088 0.0949
50.1800 -33.4221 0.0977
50.2000 -33.4354 0.0962
50.2200 -33.4487 0.1001
50.2400 -33.4620 0.1014
50.2600 -33.4753 0.1006
50.2800 -33.4886 0.1027
50.3000 -33.5020 0.1042
50.3200 -33.5153 0.1056
50.3400 -33.5287 0.1073
50.3600 -33.5420 0.1071
50.3800 -33.5554 0.1083
50.4000 -33.5687 0.1092
50.4200 -33.5821 0.1122
50.4400 -33.5955 0.1119
50.4600 -33.6088 0.1147
50.4800 -33.6221 0.1151
50.5000 -33.6354 0.1171
50.5200 -33.6488 0.1182
50.5400 -33.6621 0.1201
50.5600 -33.6754 0.1184
50.5800 -33.6887 0.1209
50.6000 -33.7021 0.1220
50.6200 -33.7154 0.1235
50.6400 -33.7287 0.1209
50.6600 -33.7420 0.1242
50.6800 -33.7554 0.1239
50.7000 -33.7687 0.1261
50.7200 -33.7820 0.1275
50.7400 -33.7953 0.1256
50.7600 -33.8087 0.1265
50.7800 -33.8221 0.1289
50.8000 -33.8354 0.1279
50.8200 -33.8487 0.1275
50.8400 -33.8621 0.1288
50.8600 -33.8754 0.1288
50.8800 -33.8887 0.1292
50.9000 -33.9021 0.1312
50.9200 -33.9154 0.1271
50.9400 -33.9287 0.1281
50.9600 -33.9420 0.1284
50.9800 -33.9553 0.1273
51.0000 -33.9686 0.1260
51.0200 -33.9819 0.1300
51.0400 -33.9953 0.1257
51.0600 -34.0087 0.1288
51.0800 -34.0220 0.1275
51.1000 -34.0353 0.1283
51.1200 -34.0487 0.1276
51.1400 -34.0621 0.1299
51.1600 -34.0754 0.1275
51.1800 -34.0887 0.1275
51.2000 -34.1020 0.1284
51.2200 -34.1154 0.1313
51.2400 -34.1287 0.1307
51.2600 -34.1420 0.1322
51.2800 -34.1554 0.1310
51.3000 -34.1687 0.1330
51.3200 -34.1820 0.1341
51.3400 -34.1953 0.1341
51.3600 -34.2086 0.1357
51.3800 -34.2220 0.1379
51.4000 -34.2353 0.1373
51.4200 -34.2487 0.1382
51.4400 -34.2621 0.1408
51.4600 -34.2754 0.1404
51.4800 -34.2887 0.1416
51.5000 -34.3021 0.1458
51.5200 -34.3154 0.1445
51.5400 -34.3287 0.1458
51.5600 -34.3420 0.1487
51.5800 -34.3554 0.1481
51.6000 -34.3688 0.1509
51.6200 -34.3821 0.1515
51.6400 -34.3954 0.1528
51.6600 -34.4087 0.1539
51.6800 -34.4221 0.1572
51.7000 -34.4354 0.1577
51.7200 -34.4486 0.1582
51.7400 -34.4619 0.1595
51.7600 -34.4753 0.1592
51.7800 -34.4887 0.1621
51.8000 -34.5020 0.1660
51.8200 -34.5154 0.1655
51.8400 -34.5287 0.1682
51.8600 -34.5421 0.1701
51.8800 -34.5555 0.1684
51.9000 -34.5688 0.1698
51.9200 -34.5821 0.1726
51.9400 -34.5954 0.1739
51.9600 -34.6088 0.1757
51.9800 -34.6221 0.1764
52.0000 -34.6354 0.1787
52.0200 -34.6487 0.1774
52.0400 -34.6620 0.1815
52.0600 -34.6754 0.1792
52.0800 -34.6886 0.1815
52.1000 -34.7020 0.1827
52.1200 -34.7153 0.1839
52.1400 -34.7287 0.1836
52.1600 -34.7420 0.1865
52.1800 -34.7553 0.1856
52.2000 -34.7687 0.1884
52.2200 -34.7821 0.1895
52.2400 -34.7955 0.1906
52.2600 -34.8088 0.1926
52.2800 -34.8221 0.1946
52.3000 -34.8354 0.1939
52.3200 -34.8488 0.1961
52.3400 -34.8621 0.1992
52.3600 -34.8754 0.1977
52.3800 -34.8887 0.1979
52.4000 -34.9020 0.2012
52.4200 -34.9154 0.2017
52.4400 -34.9286 0.2017
52.4600 -34.9420 0.2036
52.4800 -34.9553 0.2057
52.5000 -34.9687 0.2056
52.5200 -34.9821 0.2094
52.5400 -34.9954 0.2079
52.5600 -35.0087 0.2094
52.5800 -35.0221 0.2109
52.6000 -35.0354 0.2127
52.6200 -35.0487 0.2129
52.6400 -35.0620 0.2160
52.6600 -35.0753 0.2162
52.6800 -35.0887 0.2148
52.7000 -35.1021 0.2174
52.7200 -35.1154 0.2177
52.7400 -35.1287 0.2178
52.7600 -35.1420 0.2216
52.7800 -35.1554 0.2222
52.8000 -35.1687 0.2220
52.8200 -35.1820 0.2229
52.8400 -35.1953 0.2230
52.8600 -35.2087 0.2239
52.8800 -35.2220 0.2274
52.9000 -35.2353 0.2276
52.9200 -35.2487 0.2285
52.9400 -35.2621 0.2296
52.9600 -35.2755 0.2295
52.9800 -35.2888 0.2321
53.0000 -35.3021 0.2334
53.0200 -35.3154 0.2347
53.0400 -35.3288 0.2335
53.0600 -35.3421 0.2352
53.0800 -35.3554 0.2333
53.1000 -35.3687 0.2348
53.1200 -35.3821 0.2341
53.1400 -35.3954 0.2358
53.1600 -35.4087 0.2347
53.1800 -35.4220 0.2392
53.2000 -35.4353 0.2378
53.2200 -35.4487 0.2403
53.2400 -35.4620 0.2389
53.2600 -35.4754 0.2385
53.2800 -35.4887 0.2361
53.3000 -35.5021 0.2395
53.3200 -35.5154 0.2390
53.3400 -35.5287 0.2393
53.3600 -35.5420 0.2392
53.3800 -35.5554 0.2413
53.4000 -35.5688 0.2397
53.4200 -35.5821 0.2431
53.4400 -35.5954 0.2421
53.4600 -35.6087 0.2429
53.4800 -35.6220 0.2441
53.5000 -35.6354 0.2452
53.5200 -35.6487 0.2437
53.5400 -35.6620 0.2480
53.5600 -35.6753 0.2471
53.5800 -35.6887 0.2482
53.6000 -35.7020 0.2496
53.6200 -35.7153 0.2527
53.6400 -35.7287 0.2494
53.6600 -35.7420 0.2543
53.6800 -35.7554 0.2524
53.7000 -35.7687 0.2542
53.7200 -35.7820 0.2551
53.7400 -35.7954 0.2567
53.7600 -35.8087 0.2565
53.7800 -35.8221 0.2604
53.8000 -35.8354 0.2578
53.8200 -35.8487 0.2593
53.8400 -35.8621 0.2608
53.8600 -35.8754 0.2633
53.8800 -35.8887 0.2622
53.9000 -35.9020 0.2673
53.9200 -35.9153 0.2680
53.9400 -35.9287 0.2663
53.9600 -35.9420 0.2694
53.9800 -35.9553 0.2687
54.0000 -35.9687 0.2700
54.0200 -35.9821 0.2729
54.0400 -35.9954 0.2725
54.0600 -36.0088 0.2736
54.0800 -36.0221 0.2746
54.1000 -36.0354 0.2764
54.1200 -36.0487 0.2758
54.1400 -36.0620 0.2778
54.1600 -36.0754 0.2779
54.1800 -36.0887 0.2778
54.2000 -36.1020 0.2800
54.2200 -36.1154 0.2818
54.2400 -36.1287 0.2813
54.2600 -36.1420 0.2825
54.2800 -36.1553 0.2836
54.3000 -36.1687 0.2845
54.3200 -36.1821 0.2879
54.3400 -36.1954 0.2881
54.3600 -36.2087 0.2877
54.3800 -36.2221 0.2883
54.4000 -36.2354 0.2907
54.4200 -36.2488 0.2879
54.4400 -36.2621 0.2937
54.4600 -36.2754 0.2939
54.4800 -36.2887 0.2939
54.5000 -36.3021 0.2973
54.5200 -36.3154 0.2994
54.5400 -36.3287 0.2982
54.5600 -36.3420 0.3014
54.5800 -36.3554 0.3028
54.6000 -36.3687 0.3033
54.6200 -36.3820 0.3047
54.6400 -36.3953 0.3084
54.6600 -36.4087 0.3062
54.6800 -36.4221 0.3089
54.7000 -36.4354 0.3100
54.7200 -36.4487 0.3114
54.7400 -36.4620 0.3131
54.7600 -36.4754 0.3151
54.7800 -36.4888 0.3139
54.8000 -36.5021 0.3166
54.8200 -36.5154 0.3159
54.8400 -36.5287 0.3171
54.8600 -36.5421 0.3193
54.8800 -36.5554 0.3226
54.9000 -36.5687 0.3212
54.9200 -36.5821 0.3236
54.9400 -36.5954 0.3221
54.9600 -36.6087 0.3220
54.9800 -36.6220 0.3220
55.0000 -36.6353 0.3231
55.0200 -36.6487 0.3228
55.0400 -36.6620 0.3280
55.0600 -36.6753 0.3276
55.0800 -36.6886 0.3278
55.1000 -36.7020 0.3296
55.1200 -36.7154 0.3315
55.1400 -36.7288 0.3314
55.1600 -36.7421 0.3337
55.1800 -36.7554 0.3350
55.2000 -36.7688 0.3325
55.2200 -36.7821 0.3329
55.2400 -36.7954 0.3365
55.2600 -36.8087 0.3347
55.2800 -36.8220 0.3401
55.3000 -36.8354 0.3409
55.3200 -36.8487 0.3414
55.3400 -36.8620 0.3425
55.3600 -36.8753 0.3456
55.3800 -36.8887 0.3458
55.4000 -36.9020 0.3482
55.4200 -36.9154 0.3486
55.4400 -36.9287 0.3482
55.4600 -36.9421 0.3509
55.4800 -36.9554 0.3551
55.5000 -36.9688 0.3554
55.5200 -36.9821 0.3569
55.5400 -36.9954 0.3582
55.5600 -37.0087 0.3552
55.5800 -37.0221 0.3595
55.6000 -37.0354 0.3595
55.6200 -37.0487 0.3616
55.6400 -37.0620 0.3622
55.6600 -37.0754 0.3662
55.6800 -37.0887 0.3647
55.7000 -37.1020 0.3697
55.7200 -37.1153 0.3694
55.7400 -37.1287 0.3674
55.7600 -37.1420 0.3707
55.7800 -37.1554 0.3722
55.8000 -37.1687 0.3720
55.8200 -37.1820 0.3767
55.8400 -37.1954 0.3766
55.8600 -37.2088 0.3746
55.8800 -37.2221 0.3763
55.9000 -37.2354 0.3768
55.9200 -37.2488 0.3777
55.9400 -37.2621 0.3826
55.9600 -37.2754 0.3827
55.9800 -37.2887 0.3807
56.0000 -37.3021 0.3827
56.0200 -37.3154 0.3867
56.0400 -37.3287 0.3868
56.0600 -37.3420 0.3871
56.0800 -37.3553 0.3876
56.1000 -37.3686 0.3880
56.1200 -37.3820 0.3878
56.1400 -37.3954 0.3899
56.1600 -37.4087 0.3899
56.1800 -37.4220 0.3926
56.2000 -37.4354 0.3936
56.2200 -37.4488 0.3949
56.2400 -37.4621 0.3934
56.2600 -37.4754 0.3987
56.2800 -37.4888 0.3964
56.3000 -37.5021 0.3995
56.3200 -37.5154 0.4018
56.3400 -37.5287 0.4014
56.3600 -37.5420 0.4040
56.3800 -37.5554 0.4073
56.4000 -37.5687 0.4057
56.4200 -37.5820 0.4074
56.4400 -37.5953 0.4068
56.4600 -37.6087 0.4059
56.4800 -37.6220 0.4085
56.5000 -37.6354 0.4133
56.5200 -37.6487 0.4125
56.5400 -37.6620 0.4125
56.5600 -37.6754 0.4163
56.5800 -37.6887 0.4159
56.6000 -37.7020 0.4175
56.6200 -37.7154 0.4211
56.6400 -37.7287 0.4194
56.6600 -37.7421 0.4216
56.6800 -37.7554 0.4239
56.7000 -37.7688 0.4244
56.7200 -37.7821 0.4256
56.7400 -37.7954 0.4288
56.7600 -37.8088 0.4290
56.7800 -37.8220 0.4305
56.8000 -37.8353 0.4318
56.8200 -37.8487 0.4316
56.8400 -37.8620 0.4329
56.8600 -37.8754 0.4355
56.8800 -37.8887 0.4351
56.9000 -37.9020 0.4380
56.9200 -37.9154 0.4378
56.9400 -37.9288 0.4379
56.9600 -37.9421 0.4380
56.9800 -37.9554 0.4407
57.0000 -37.9687 0.4408
57.0200 -37.9821 0.4422
57.0400 -37.9954 0.4454
57.0600 -38.0088 0.4451
57.0800 -38.0221 0.4458
57.1000 -38.0354 0.4474
57.1200 -38.0487 0.4491
57.1400 -38.0620 0.4479
57.1600 -38.0753 0.4512
57.1800 -38.0886 0.4494
57.2000 -38.1020 0.4519
57.2200 -38.1154 0.4547
57.2400 -38.1287 0.4529
57.2600 -38.1420 0.4546
57.2800 -38.1554 0.4560
57.3000 -38.1688 0.4559
57.3200 -38.1821 0.4553
57.3400 -38.1954 0.4583
57.3600 -38.2088 0.4575
57.3800 -38.2221 0.4589
57.4000 -38.2354 0.4607
57.4200 -38.2487 0.4595
57.4400 -38.2620 0.4614
57.4600 -38.2753 0.4617
57.4800 -38.2886 0.4621
57.5000 -38.3019 0.4627
57.5200 -38.3153 0.4674
57.5400 -38.3286 0.4686
57.5600 -38.3420 0.4692
57.5800 -38.3554 0.4714
57.6000 -38.3687 0.4691
57.6200 -38.3820 0.4708
57.6400 -38.3954 0.4745
57.6600 -38.4088 0.4751
57.6800 -38.4221 0.4751
57.7000 -38.4354 0.4791
57.7200 -38.4487 0.4786
57.7400 -38.4621 0.4797
57.7600 -38.4754 0.4827
57.7800 -38.4887 0.4817
57.8000 -38.5020 0.4843
57.8200 -38.5154 0.4873
57.8400 -38.5287 0.4866
57.8600 -38.5420 0.4853
57.8800 -38.5553 0.4905
57.9000 -38.5687 0.4905
57.9200 -38.5820 0.4925
57.9400 -38.5954 0.4947
57.9600 -38.6087 0.4940
57.9800 -38.6220 0.4971
58.0000 -38.6354 0.4983
58.0200 -38.6488 0.4985
58.0400 -38.6621 0.5003
58.0600 -38.6754 0.5040
58.0800 -38.6887 0.5013
58.1000 -38.7021 0.5040
58.1200 -38.7154 0.5075
58.1400 -38.7287 0.5088
58.1600 -38.7420 0.5083
58.1800 -38.7554 0.5107
58.2000 -38.7687 0.5122
58.2200 -38.7820 0.5133
58.2400 -38.7953 0.5157
58.2600 -38.8086 0.5160
58.2800 -38.8220 0.5165
58.3000 -38.8354 0.5200
58.3200 -38.8487 0.5203
58.3400 -38.8620 0.5206
58.3600 -38.8754 0.5248
58.3800 -38.8888 0.5242
58.4000 -38.9021 0.5232
58.4200 -38.9154 0.5256
58.4400 -38.9287 0.5253
58.4600 -38.9421 0.5272
58.4800 -38.9554 0.5310
58.5000 -38.9687 0.5299
58.5200 -38.9820 0.5325
58.5400 -38.9954 0.5331
58.5600 -39.0087 0.5354
58.5800 -39.0220 0.5363
58.6000 -39.0353 0.5385
58.6200 -39.0487 0.5381
58.6400 -39.0620 0.5382
58.6600 -39.0754 0.5405
58.6800 -39.0887 0.5422
58.7000 -39.1020 0.5410
58.7200 -39.1154 0.5457
58.7400 -39.1288 0.5459
58.7600 -39.1421 0.5466
58.7800 -39.1554 0.5487
58.8000 -39.1687 0.5497
58.8200 -39.1821 0.5484
58.8400 -39.1954 0.5530
58.8600 -39.2087 0.5509
58.8800 -39.2220 0.5522
58.9000 -39.2354 0.5557
58.9200 -39.2487 0.5559
58.9400 -39.2620 0.5556
58.9600 -39.2753 0.5593
58.9800 -39.2886 0.5602
59.0000 -39.3020 0.5614
59.0200 -39.3154 0.5632
59.0400 -39.3287 0.5636
59.0600 -39.3420 0.5626
59.0800 -39.3554 0.5660
59.1000 -39.3688 0.5651
59.1200 -39.3821 0.5667
59.1400 -39.3954 0.5677
59.1600 -39.4088 0.5717
59.1800 -39.4221 0.5710
59.2000 -39.4354 0.5747
59.2200 -39.4487 0.5733
59.2400 -39.4620 0.5737
59.2600 -39.4754 0.5763
59.2800 -39.4887 0.5786
59.3000 -39.5020 0.5767
59.3200 -39.5153 0.5827
59.3400 -39.5286 0.5803
59.3600 -39.5420 0.5831
59.3800 -39.5553 0.5846
59.4000 -39.5687 0.5845
59.4200 -39.5820 0.5860
59.4400 -39.5954 0.5897
59.4600 -39.6088 0.5900
59.4800 -39.6221 0.5923
59.5000 -39.6354 0.5934
59.5200 -39.6487 0.5957
59.5400 -39.6621 0.5961
59.5600 -39.6754 0.6016
59.5800 -39.6887 0.6017
59.6000 -39.7020 0.6020
59.6200 -39.7154 0.6060
59.6400 -39.7287 0.6075
59.6600 -39.7420 0.6065
59.6800 -39.7553 0.6097
59.7000 -39.7686 0.6110
59.7200 -39.7820 0.6121
59.7400 -39.7954 0.6129
59.7600 -39.8087 0.6164
59.7800 -39.8220 0.6161
59.8000 -39.8354 0.6202
59.8200 -39.8488 0.6188
59.8400 -39.8621 0.6186
59.8600 -39.8754 0.6208
59.8800 -39.8887 0.6238
59.9000 -39.9020 0.6263
59.9200 -39.9154 0.6294
59.9400 -39.9287 0.6306
59.9600 -39.9420 0.6302
59.9800 -39.9554 0.6327
60.0000 -39.9687 0.6336
60.0200 -39.9821 0.6356
60.0400 -39.9954 0.6386
60.0480 -40.0006 0.6432
