Raw Data
Time Displacement Force
(s) (mm) (N)
0.0000 -0.0001 -0.3580
0.0200 -0.0001 -0.3602
0.0400 -0.0020 -0.3776
0.0600 -0.0095 -0.3751
0.0800 -0.0212 -0.3651
0.1000 -0.0338 -0.3663
0.1200 -0.0466 -0.3648
0.1400 -0.0600 -0.3668
0.1600 -0.0741 -0.3645
0.1800 -0.0882 -0.3665
0.2000 -0.1020 -0.3643
0.2200 -0.1155 -0.3660
0.2400 -0.1289 -0.3630
0.2600 -0.1422 -0.3634
0.2800 -0.1555 -0.3638
0.3000 -0.1688 -0.3642
0.3200 -0.1822 -0.3651
0.3400 -0.1956 -0.3622
0.3600 -0.2089 -0.3631
0.3800 -0.2222 -0.3641
0.4000 -0.2355 -0.3631
0.4200 -0.2489 -0.3618
0.4400 -0.2622 -0.3622
0.4600 -0.2756 -0.3619
0.4800 -0.2889 -0.3627
0.5000 -0.3023 -0.3605
0.5200 -0.3157 -0.3603
0.5400 -0.3290 -0.3596
0.5600 -0.3423 -0.3595
0.5800 -0.3556 -0.3600
0.6000 -0.3690 -0.3558
0.6200 -0.3824 -0.3571
0.6400 -0.3956 -0.3564
0.6600 -0.4090 -0.3564
0.6800 -0.4223 -0.3546
0.7000 -0.4356 -0.3552
0.7200 -0.4489 -0.3536
0.7400 -0.4622 -0.3522
0.7600 -0.4755 -0.3507
0.7800 -0.4889 -0.3511
0.8000 -0.5023 -0.3488
0.8200 -0.5156 -0.3494
0.8400 -0.5289 -0.3484
0.8600 -0.5423 -0.3474
0.8800 -0.5557 -0.3470
0.9000 -0.5690 -0.3464
0.9200 -0.5823 -0.3452
0.9400 -0.5956 -0.3435
0.9600 -0.6090 -0.3449
0.9800 -0.6223 -0.3428
1.0000 -0.6357 -0.3424
1.0200 -0.6490 -0.3416
1.0400 -0.6623 -0.3402
1.0600 -0.6756 -0.3390
1.0800 -0.6889 -0.3385
1.1000 -0.7022 -0.3382
1.1200 -0.7155 -0.3380
1.1400 -0.7289 -0.3353
1.1600 -0.7423 -0.3362
1.1800 -0.7556 -0.3351
1.2000 -0.7689 -0.3358
1.2200 -0.7823 -0.3338
1.2400 -0.7957 -0.3348
1.2600 -0.8090 -0.3316
1.2800 -0.8223 -0.3310
1.3000 -0.8357 -0.3300
1.3200 -0.8490 -0.3311
1.3400 -0.8624 -0.3277
1.3600 -0.8757 -0.3283
1.3800 -0.8890 -0.3237
1.4000 -0.9023 -0.3290
1.4200 -0.9156 -0.3256
1.4400 -0.9289 -0.3270
1.4600 -0.9422 -0.3224
1.4800 -0.9555 -0.3245
1.5000 -0.9689 -0.3244
1.5200 -0.9822 -0.3239
1.5400 -0.9956 -0.3213
1.5600 -1.0089 -0.3222
1.5800 -1.0223 -0.3200
1.6000 -1.0357 -0.3194
1.6200 -1.0490 -0.3202
1.6400 -1.0623 -0.3195
1.6600 -1.0756 -0.3193
1.6800 -1.0890 -0.3184
1.7000 -1.1023 -0.3171
1.7200 -1.1157 -0.3181
1.7400 -1.1290 -0.3165
1.7600 -1.1423 -0.3167
1.7800 -1.1556 -0.3140
1.8000 -1.1689 -0.3149
1.8200 -1.1822 -0.3148
1.8400 -1.1955 -0.3133
1.8600 -1.2089 -0.3110
1.8800 -1.2223 -0.3101
1.9000 -1.2356 -0.3109
1.9200 -1.2490 -0.3086
1.9400 -1.2623 -0.3080
1.9600 -1.2757 -0.3058
1.9800 -1.2890 -0.3083
2.0000 -1.3023 -0.3068
2.0200 -1.3156 -0.3056
2.0400 -1.3289 -0.3052
2.0600 -1.3423 -0.3069
2.0800 -1.3557 -0.3057
2.1000 -1.3690 -0.3057
2.1200 -1.3823 -0.3036
2.1400 -1.3957 -0.3029
2.1600 -1.4090 -0.3027
2.1800 -1.4223 -0.3045
2.2000 -1.4356 -0.3020
2.2200 -1.4489 -0.3035
2.2400 -1.4623 -0.3020
2.2600 -1.4756 -0.3019
2.2800 -1.4889 -0.3005
2.3000 -1.5023 -0.3021
2.3200 -1.5157 -0.2972
2.3400 -1.5291 -0.2992
2.3600 -1.5424 -0.2997
2.3800 -1.5557 -0.3006
2.4000 -1.5690 -0.2979
2.4200 -1.5824 -0.2983
2.4400 -1.5957 -0.2924
2.4600 -1.6090 -0.2954
2.4800 -1.6223 -0.2933
2.5000 -1.6356 -0.2957
2.5200 -1.6489 -0.2949
2.5400 -1.6622 -0.2940
2.5600 -1.6756 -0.2918
2.5800 -1.6889 -0.2910
2.6000 -1.7023 -0.2917
2.6200 -1.7156 -0.2910
2.6400 -1.7289 -0.2926
2.6600 -1.7423 -0.2908
2.6800 -1.7557 -0.2905
2.7000 -1.7690 -0.2867
2.7200 -1.7823 -0.2879
2.7400 -1.7956 -0.2859
2.7600 -1.8090 -0.2862
2.7800 -1.8223 -0.2861
2.8000 -1.8357 -0.2839
2.8200 -1.8490 -0.2849
2.8400 -1.8623 -0.2840
2.8600 -1.8756 -0.2840
2.8800 -1.8890 -0.2830
2.9000 -1.9022 -0.2840
2.9200 -1.9155 -0.2812
2.9400 -1.9289 -0.2803
2.9600 -1.9423 -0.2809
2.9800 -1.9556 -0.2803
3.0000 -1.9689 -0.2806
3.0200 -1.9822 -0.2806
3.0400 -1.9956 -0.2787
3.0600 -2.0090 -0.2780
3.0800 -2.0223 -0.2800
3.1000 -2.0356 -0.2763
3.1200 -2.0490 -0.2770
3.1400 -2.0623 -0.2756
3.1600 -2.0757 -0.2751
3.1800 -2.0890 -0.2750
3.2000 -2.1023 -0.2739
3.2200 -2.1157 -0.2721
3.2400 -2.1290 -0.2720
3.2600 -2.1423 -0.2731
3.2800 -2.1556 -0.2714
3.3000 -2.1689 -0.2711
3.3200 -2.1823 -0.2710
3.3400 -2.1956 -0.2702
3.3600 -2.2090 -0.2701
3.3800 -2.2223 -0.2706
3.4000 -2.2357 -0.2673
3.4200 -2.2490 -0.2660
3.4400 -2.2623 -0.2647
3.4600 -2.2756 -0.2653
3.4800 -2.2890 -0.2651
3.5000 -2.3023 -0.2659
3.5200 -2.3156 -0.2642
3.5400 -2.3289 -0.2638
3.5600 -2.3423 -0.2639
3.5800 -2.3556 -0.2619
3.6000 -2.3689 -0.2618
3.6200 -2.3822 -0.2609
3.6400 -2.3956 -0.2609
3.6600 -2.4089 -0.2604
3.6800 -2.4223 -0.2605
3.7000 -2.4356 -0.2587
3.7200 -2.4490 -0.2572
3.7400 -2.4623 -0.2582
3.7600 -2.4757 -0.2601
3.7800 -2.4890 -0.2585
3.8000 -2.5023 -0.2583
3.8200 -2.5156 -0.2567
3.8400 -2.5290 -0.2577
3.8600 -2.5423 -0.2580
3.8800 -2.5557 -0.2541
3.9000 -2.5690 -0.2531
3.9200 -2.5823 -0.2541
3.9400 -2.5956 -0.2516
3.9600 -2.6090 -0.2539
3.9800 -2.6223 -0.2524
4.0000 -2.6356 -0.2526
4.0200 -2.6489 -0.2505
4.0400 -2.6623 -0.2511
4.0600 -2.6757 -0.2465
4.0800 -2.6890 -0.2489
4.1000 -2.7023 -0.2474
4.1200 -2.7156 -0.2463
4.1400 -2.7290 -0.2439
4.1600 -2.7423 -0.2467
4.1800 -2.7556 -0.2438
4.2000 -2.7689 -0.2457
4.2200 -2.7823 -0.2437
4.2400 -2.7957 -0.2430
4.2600 -2.8090 -0.2410
4.2800 -2.8223 -0.2429
4.3000 -2.8357 -0.2402
4.3200 -2.8490 -0.2409
4.3400 -2.8623 -0.2405
4.3600 -2.8756 -0.2416
4.3800 -2.8889 -0.2406
4.4000 -2.9022 -0.2412
4.4200 -2.9156 -0.2392
4.4400 -2.9289 -0.2390
4.4600 -2.9422 -0.2407
4.4800 -2.9556 -0.2361
4.5000 -2.9690 -0.2360
4.5200 -2.9823 -0.2356
4.5400 -2.9956 -0.2376
4.5600 -3.0090 -0.2357
4.5800 -3.0224 -0.2370
4.6000 -3.0357 -0.2340
4.6200 -3.0490 -0.2360
4.6400 -3.0623 -0.2356
4.6600 -3.0756 -0.2345
4.6800 -3.0890 -0.2335
4.7000 -3.1023 -0.2348
4.7200 -3.1156 -0.2321
4.7400 -3.1289 -0.2325
4.7600 -3.1423 -0.2325
4.7800 -3.1556 -0.2318
4.8000 -3.1690 -0.2318
4.8200 -3.1823 -0.2329
4.8400 -3.1957 -0.2300
4.8600 -3.2090 -0.2306
4.8800 -3.2224 -0.2298
4.9000 -3.2357 -0.2301
4.9200 -3.2490 -0.2276
4.9400 -3.2623 -0.2312
4.9600 -3.2757 -0.2279
4.9800 -3.2890 -0.2290
5.0000 -3.3023 -0.2269
5.0200 -3.3156 -0.2276
5.0400 -3.3290 -0.2242
5.0600 -3.3423 -0.2256
5.0800 -3.3556 -0.2237
5.1000 -3.3689 -0.2233
5.1200 -3.3823 -0.2226
5.1400 -3.3956 -0.2230
5.1600 -3.4089 -0.2217
5.1800 -3.4223 -0.2223
5.2000 -3.4356 -0.2208
5.2200 -3.4490 -0.2184
5.2400 -3.4623 -0.2203
5.2600 -3.4756 -0.2191
5.2800 -3.4890 -0.2174
5.3000 -3.5023 -0.2195
5.3200 -3.5157 -0.2146
5.3400 -3.5290 -0.2141
5.3600 -3.5423 -0.2153
5.3800 -3.5556 -0.2135
5.4000 -3.5690 -0.2137
5.4200 -3.5823 -0.2143
5.4400 -3.5955 -0.2126
5.4600 -3.6089 -0.2132
5.4800 -3.6222 -0.2144
5.5000 -3.6356 -0.2108
5.5200 -3.6489 -0.2114
5.5400 -3.6622 -0.2120
5.5600 -3.6756 -0.2107
5.5800 -3.6890 -0.2087
5.6000 -3.7024 -0.2113
5.6200 -3.7157 -0.2123
5.6400 -3.7290 -0.2094
5.6600 -3.7424 -0.2118
5.6800 -3.7557 -0.2109
5.7000 -3.7690 -0.2069
5.7200 -3.7823 -0.2087
5.7400 -3.7956 -0.2087
5.7600 -3.8090 -0.2073
5.7800 -3.8223 -0.2076
5.8000 -3.8356 -0.2077
5.8200 -3.8489 -0.2071
5.8400 -3.8623 -0.2082
5.8600 -3.8756 -0.2047
5.8800 -3.8889 -0.2047
5.9000 -3.9022 -0.2046
5.9200 -3.9156 -0.2041
5.9400 -3.9290 -0.2026
5.9600 -3.9423 -0.2035
5.9800 -3.9556 -0.2018
6.0000 -3.9690 -0.2019
6.0200 -3.9823 -0.2013
6.0400 -3.9957 -0.2007
6.0600 -4.0090 -0.2004
6.0800 -4.0223 -0.2014
6.1000 -4.0357 -0.1988
6.1200 -4.0490 -0.1984
6.1400 -4.0623 -0.1998
6.1600 -4.0756 -0.1987
6.1800 -4.0889 -0.1987
6.2000 -4.1022 -0.1977
6.2200 -4.1156 -0.1985
6.2400 -4.1289 -0.1959
6.2600 -4.1422 -0.1960
6.2800 -4.1556 -0.1950
6.3000 -4.1690 -0.1961
6.3200 -4.1823 -0.1960
6.3400 -4.1956 -0.1964
6.3600 -4.2089 -0.1936
6.3800 -4.2223 -0.1955
6.4000 -4.2357 -0.1923
6.4200 -4.2490 -0.1916
6.4400 -4.2623 -0.1931
6.4600 -4.2756 -0.1915
6.4800 -4.2890 -0.1906
6.5000 -4.3023 -0.1903
6.5200 -4.3156 -0.1912
6.5400 -4.3289 -0.1883
6.5600 -4.3422 -0.1899
6.5800 -4.3556 -0.1875
6.6000 -4.3689 -0.1874
6.6200 -4.3822 -0.1873
6.6400 -4.3956 -0.1868
6.6600 -4.4090 -0.1865
6.6800 -4.4224 -0.1868
6.7000 -4.4357 -0.1866
6.7200 -4.4490 -0.1842
6.7400 -4.4623 -0.1838
6.7600 -4.4757 -0.1849
6.7800 -4.4890 -0.1795
6.8000 -4.5023 -0.1840
6.8200 -4.5156 -0.1815
6.8400 -4.5289 -0.1825
6.8600 -4.5422 -0.1821
6.8800 -4.5555 -0.1829
6.9000 -4.5688 -0.1804
6.9200 -4.5822 -0.1818
6.9400 -4.5956 -0.1795
6.9600 -4.6090 -0.1787
6.9800 -4.6223 -0.1792
7.0000 -4.6356 -0.1789
7.0200 -4.6490 -0.1756
7.0400 -4.6624 -0.1755
7.0600 -4.6757 -0.1762
7.0800 -4.6890 -0.1745
7.1000 -4.7023 -0.1766
7.1200 -4.7157 -0.1759
7.1400 -4.7290 -0.1738
7.1600 -4.7423 -0.1738
7.1800 -4.7556 -0.1742
7.2000 -4.7690 -0.1732
7.2200 -4.7823 -0.1731
7.2400 -4.7956 -0.1725
7.2600 -4.8089 -0.1718
7.2800 -4.8223 -0.1708
7.3000 -4.8356 -0.1701
7.3200 -4.8490 -0.1700
7.3400 -4.8623 -0.1702
7.3600 -4.8756 -0.1710
7.3800 -4.8890 -0.1701
7.4000 -4.9023 -0.1706
7.4200 -4.9156 -0.1700
7.4400 -4.9290 -0.1672
7.4600 -4.9423 -0.1688
7.4800 -4.9557 -0.1666
7.5000 -4.9690 -0.1671
7.5200 -4.9823 -0.1661
7.5400 -4.9956 -0.1692
7.5600 -5.0090 -0.1650
7.5800 -5.0223 -0.1669
7.6000 -5.0356 -0.1668
7.6200 -5.0489 -0.1670
7.6400 -5.0622 -0.1669
7.6600 -5.0756 -0.1677
7.6800 -5.0890 -0.1634
7.7000 -5.1023 -0.1650
7.7200 -5.1156 -0.1630
7.7400 -5.1290 -0.1643
7.7600 -5.1423 -0.1632
7.7800 -5.1557 -0.1647
7.8000 -5.1690 -0.1601
7.8200 -5.1823 -0.1603
7.8400 -5.1956 -0.1595
7.8600 -5.2090 -0.1580
7.8800 -5.2222 -0.1609
7.9000 -5.2356 -0.1593
7.9200 -5.2489 -0.1570
7.9400 -5.2623 -0.1592
7.9600 -5.2756 -0.1587
7.9800 -5.2889 -0.1562
8.0000 -5.3023 -0.1564
8.0200 -5.3156 -0.1559
8.0400 -5.3290 -0.1545
8.0600 -5.3423 -0.1547
8.0800 -5.3556 -0.1551
8.1000 -5.3690 -0.1522
8.1200 -5.3824 -0.1527
8.1400 -5.3957 -0.1532
8.1600 -5.4090 -0.1520
8.1800 -5.4223 -0.1508
8.2000 -5.4357 -0.1516
8.2200 -5.4490 -0.1480
8.2400 -5.4623 -0.1528
8.2600 -5.4756 -0.1511
8.2800 -5.4890 -0.1501
8.3000 -5.5023 -0.1505
8.3200 -5.5156 -0.1514
8.3400 -5.5289 -0.1508
8.3600 -5.5422 -0.1488
8.3800 -5.5556 -0.1481
8.4000 -5.5690 -0.1465
8.4200 -5.5823 -0.1472
8.4400 -5.5956 -0.1483
8.4600 -5.6090 -0.1459
8.4800 -5.6224 -0.1480
8.5000 -5.6357 -0.1469
8.5200 -5.6490 -0.1469
8.5400 -5.6623 -0.1459
8.5600 -5.6757 -0.1472
8.5800 -5.6890 -0.1437
8.6000 -5.7023 -0.1447
8.6200 -5.7156 -0.1444
8.6400 -5.7289 -0.1424
8.6600 -5.7423 -0.1420
8.6800 -5.7556 -0.1432
8.7000 -5.7689 -0.1417
8.7200 -5.7822 -0.1423
8.7400 -5.7956 -0.1414
8.7600 -5.8089 -0.1379
8.7800 -5.8222 -0.1396
8.8000 -5.8356 -0.1400
8.8200 -5.8490 -0.1402
8.8400 -5.8624 -0.1380
8.8600 -5.8757 -0.1392
8.8800 -5.8890 -0.1358
8.9000 -5.9023 -0.1374
8.9200 -5.9157 -0.1371
8.9400 -5.9290 -0.1345
8.9600 -5.9423 -0.1339
8.9800 -5.9556 -0.1355
9.0000 -5.9690 -0.1336
9.0200 -5.9823 -0.1339
9.0400 -5.9956 -0.1344
9.0600 -6.0089 -0.1320
9.0800 -6.0222 -0.1334
9.1000 -6.0356 -0.1338
9.1200 -6.0490 -0.1302
9.1400 -6.0623 -0.1301
9.1600 -6.0756 -0.1314
9.1800 -6.0890 -0.1288
9.2000 -6.1023 -0.1306
9.2200 -6.1156 -0.1305
9.2400 -6.1289 -0.1287
9.2600 -6.1422 -0.1291
9.2800 -6.1556 -0.1310
9.3000 -6.1690 -0.1280
9.3200 -6.1823 -0.1304
9.3400 -6.1956 -0.1282
9.3600 -6.2090 -0.1266
9.3800 -6.2223 -0.1254
9.4000 -6.2356 -0.1275
9.4200 -6.2489 -0.1256
9.4400 -6.2623 -0.1271
9.4600 -6.2756 -0.1276
9.4800 -6.2890 -0.1239
9.5000 -6.3023 -0.1250
9.5200 -6.3156 -0.1263
9.5400 -6.3290 -0.1238
9.5600 -6.3424 -0.1232
9.5800 -6.3557 -0.1234
9.6000 -6.3690 -0.1240
9.6200 -6.3823 -0.1224
9.6400 -6.3957 -0.1226
9.6600 -6.4090 -0.1188
9.6800 -6.4223 -0.1188
9.7000 -6.4356 -0.1198
9.7200 -6.4490 -0.1194
9.7400 -6.4623 -0.1189
9.7600 -6.4756 -0.1197
9.7800 -6.4889 -0.1173
9.8000 -6.5022 -0.1185
9.8200 -6.5156 -0.1178
9.8400 -6.5290 -0.1153
9.8600 -6.5423 -0.1153
9.8800 -6.5556 -0.1170
9.9000 -6.5690 -0.1161
9.9200 -6.5823 -0.1174
9.9400 -6.5957 -0.1177
9.9600 -6.6090 -0.1155
9.9800 -6.6223 -0.1125
10.0000 -6.6357 -0.1140
10.0200 -6.6490 -0.1126
10.0400 -6.6623 -0.1116
10.0600 -6.6756 -0.1128
10.0800 -6.6890 -0.1097
10.1000 -6.7023 -0.1112
10.1200 -6.7156 -0.1103
10.1400 -6.7289 -0.1094
10.1600 -6.7422 -0.1080
10.1800 -6.7556 -0.1104
10.2000 -6.7690 -0.1086
10.2200 -6.7823 -0.1095
10.2400 -6.7956 -0.1098
10.2600 -6.8089 -0.1075
10.2800 -6.8223 -0.1065
10.3000 -6.8357 -0.1083
10.3200 -6.8490 -0.1050
10.3400 -6.8623 -0.1070
10.3600 -6.8756 -0.1065
10.3800 -6.8890 -0.1058
10.4000 -6.9023 -0.1046
10.4200 -6.9156 -0.1071
10.4400 -6.9290 -0.1034
10.4600 -6.9423 -0.1016
10.4800 -6.9557 -0.1027
10.5000 -6.9689 -0.1022
10.5200 -6.9822 -0.1025
10.5400 -6.9956 -0.1047
10.5600 -7.0090 -0.1012
10.5800 -7.0223 -0.1005
10.6000 -7.0356 -0.1038
10.6200 -7.0490 -0.0995
10.6400 -7.0624 -0.1006
10.6600 -7.0757 -0.0992
10.6800 -7.0890 -0.0984
10.7000 -7.1023 -0.0961
10.7200 -7.1156 -0.0973
10.7400 -7.1290 -0.0973
10.7600 -7.1423 -0.0967
10.7800 -7.1556 -0.0977
10.8000 -7.1689 -0.0958
10.8200 -7.1823 -0.0937
10.8400 -7.1956 -0.0959
10.8600 -7.2089 -0.0922
10.8800 -7.2222 -0.0938
10.9000 -7.2356 -0.0947
10.9200 -7.2490 -0.0923
10.9400 -7.2623 -0.0920
10.9600 -7.2756 -0.0954
10.9800 -7.2890 -0.0928
11.0000 -7.3023 -0.0926
11.0200 -7.3157 -0.0918
11.0400 -7.3290 -0.0912
11.0600 -7.3423 -0.0902
11.0800 -7.3556 -0.0938
11.1000 -7.3690 -0.0892
11.1200 -7.3823 -0.0895
11.1400 -7.3956 -0.0903
11.1600 -7.4089 -0.0870
11.1800 -7.4223 -0.0860
11.2000 -7.4356 -0.0877
11.2200 -7.4489 -0.0859
11.2400 -7.4622 -0.0878
11.2600 -7.4756 -0.0900
11.2800 -7.4890 -0.0887
11.3000 -7.5023 -0.0864
11.3200 -7.5156 -0.0871
11.3400 -7.5290 -0.0874
11.3600 -7.5423 -0.0867
11.3800 -7.5557 -0.0865
11.4000 -7.5690 -0.0863
11.4200 -7.5823 -0.0873
11.4400 -7.5956 -0.0851
11.4600 -7.6090 -0.0844
11.4800 -7.6223 -0.0827
11.5000 -7.6357 -0.0867
11.5200 -7.6490 -0.0836
11.5400 -7.6623 -0.0834
11.5600 -7.6757 -0.0822
11.5800 -7.6889 -0.0843
11.6000 -7.7022 -0.0809
11.6200 -7.7156 -0.0823
11.6400 -7.7289 -0.0803
11.6600 -7.7422 -0.0809
11.6800 -7.7555 -0.0788
11.7000 -7.7689 -0.0779
11.7200 -7.7823 -0.0764
11.7400 -7.7957 -0.0795
11.7600 -7.8090 -0.0752
11.7800 -7.8223 -0.0777
11.8000 -7.8357 -0.0774
11.8200 -7.8491 -0.0754
11.8400 -7.8624 -0.0735
11.8600 -7.8757 -0.0760
11.8800 -7.8890 -0.0742
11.9000 -7.9023 -0.0726
11.9200 -7.9156 -0.0749
11.9400 -7.9289 -0.0735
11.9600 -7.9422 -0.0707
11.9800 -7.9556 -0.0709
12.0000 -7.9689 -0.0710
12.0200 -7.9823 -0.0712
12.0400 -7.9956 -0.0741
12.0600 -8.0089 -0.0703
12.0800 -8.0223 -0.0693
12.1000 -8.0357 -0.0707
12.1200 -8.0490 -0.0728
12.1400 -8.0623 -0.0701
12.1600 -8.0756 -0.0729
12.1800 -8.0890 -0.0686
12.2000 -8.1023 -0.0669
12.2200 -8.1156 -0.0678
12.2400 -8.1289 -0.0676
12.2600 -8.1423 -0.0673
12.2800 -8.1556 -0.0680
12.3000 -8.1689 -0.0677
12.3200 -8.1822 -0.0681
12.3400 -8.1956 -0.0675
12.3600 -8.2089 -0.0677
12.3800 -8.2223 -0.0663
12.4000 -8.2356 -0.0678
12.4200 -8.2489 -0.0680
12.4400 -8.2623 -0.0649
12.4600 -8.2757 -0.0647
12.4800 -8.2890 -0.0647
12.5000 -8.3023 -0.0665
12.5200 -8.3157 -0.0682
12.5400 -8.3290 -0.0645
12.5600 -8.3424 -0.0605
12.5800 -8.3556 -0.0641
12.6000 -8.3689 -0.0633
12.6200 -8.3823 -0.0620
12.6400 -8.3956 -0.0625
12.6600 -8.4089 -0.0619
12.6800 -8.4222 -0.0581
12.7000 -8.4355 -0.0600
12.7200 -8.4489 -0.0570
12.7400 -8.4623 -0.0574
12.7600 -8.4756 -0.0596
12.7800 -8.4889 -0.0591
12.8000 -8.5023 -0.0580
12.8200 -8.5157 -0.0564
12.8400 -8.5290 -0.0561
12.8600 -8.5423 -0.0543
12.8800 -8.5556 -0.0538
12.9000 -8.5690 -0.0554
12.9200 -8.5823 -0.0521
12.9400 -8.5956 -0.0547
12.9600 -8.6090 -0.0544
12.9800 -8.6223 -0.0524
13.0000 -8.6357 -0.0523
13.0200 -8.6490 -0.0541
13.0400 -8.6622 -0.0508
13.0600 -8.6756 -0.0546
13.0800 -8.6889 -0.0531
13.1000 -8.7023 -0.0503
13.1200 -8.7156 -0.0493
13.1400 -8.7289 -0.0501
13.1600 -8.7423 -0.0483
13.1800 -8.7557 -0.0490
13.2000 -8.7690 -0.0492
13.2200 -8.7823 -0.0467
13.2400 -8.7956 -0.0509
13.2600 -8.8090 -0.0497
13.2800 -8.8224 -0.0490
13.3000 -8.8357 -0.0496
13.3200 -8.8490 -0.0488
13.3400 -8.8623 -0.0468
13.3600 -8.8757 -0.0491
13.3800 -8.8890 -0.0469
13.4000 -8.9022 -0.0455
13.4200 -8.9156 -0.0434
13.4400 -8.9289 -0.0444
13.4600 -8.9423 -0.0402
13.4800 -8.9556 -0.0452
13.5000 -8.9689 -0.0430
13.5200 -8.9823 -0.0422
13.5400 -8.9957 -0.0422
13.5600 -9.0090 -0.0433
13.5800 -9.0223 -0.0405
13.6000 -9.0356 -0.0423
13.6200 -9.0490 -0.0424
13.6400 -9.0624 -0.0428
13.6600 -9.0757 -0.0431
13.6800 -9.0890 -0.0419
13.7000 -9.1023 -0.0395
13.7200 -9.1156 -0.0406
13.7400 -9.1289 -0.0400
13.7600 -9.1422 -0.0377
13.7800 -9.1556 -0.0397
13.8000 -9.1689 -0.0391
13.8200 -9.1823 -0.0372
13.8400 -9.1956 -0.0379
13.8600 -9.2089 -0.0379
13.8800 -9.2223 -0.0356
13.9000 -9.2357 -0.0364
13.9200 -9.2490 -0.0351
13.9400 -9.2623 -0.0340
13.9600 -9.2757 -0.0340
13.9800 -9.2890 -0.0352
14.0000 -9.3024 -0.0317
14.0200 -9.3157 -0.0341
14.0400 -9.3289 -0.0329
14.0600 -9.3422 -0.0321
14.0800 -9.3556 -0.0317
14.1000 -9.3689 -0.0317
14.1200 -9.3822 -0.0281
14.1400 -9.3955 -0.0316
14.1600 -9.4089 -0.0313
14.1800 -9.4223 -0.0315
14.2000 -9.4356 -0.0301
14.2200 -9.4489 -0.0299
14.2400 -9.4623 -0.0284
14.2600 -9.4757 -0.0303
14.2800 -9.4890 -0.0305
14.3000 -9.5023 -0.0274
14.3200 -9.5156 -0.0293
14.3400 -9.5290 -0.0284
14.3600 -9.5424 -0.0263
14.3800 -9.5557 -0.0279
14.4000 -9.5690 -0.0268
14.4200 -9.5823 -0.0268
14.4400 -9.5957 -0.0259
14.4600 -9.6090 -0.0269
14.4800 -9.6223 -0.0248
14.5000 -9.6356 -0.0237
14.5200 -9.6489 -0.0238
14.5400 -9.6623 -0.0232
14.5600 -9.6756 -0.0219
14.5800 -9.6889 -0.0237
14.6000 -9.7023 -0.0200
14.6200 -9.7157 -0.0207
14.6400 -9.7290 -0.0205
14.6600 -9.7423 -0.0215
14.6800 -9.7556 -0.0206
14.7000 -9.7690 -0.0223
14.7200 -9.7823 -0.0212
14.7400 -9.7956 -0.0214
14.7600 -9.8089 -0.0216
14.7800 -9.8223 -0.0188
14.8000 -9.8356 -0.0182
14.8200 -9.8490 -0.0177
14.8400 -9.8622 -0.0190
14.8600 -9.8755 -0.0177
14.8800 -9.8889 -0.0179
14.9000 -9.9023 -0.0157
14.9200 -9.9156 -0.0183
14.9400 -9.9290 -0.0176
14.9600 -9.9423 -0.0168
14.9800 -9.9557 -0.0152
15.0000 -9.9690 -0.0158
15.0200 -9.9823 -0.0135
15.0400 -9.9956 -0.0133
15.0600 -10.0090 -0.0152
15.0800 -10.0223 -0.0131
15.1000 -10.0356 -0.0136
15.1200 -10.0489 -0.0125
15.1400 -10.0623 -0.0114
15.1600 -10.0756 -0.0096
15.1800 -10.0889 -0.0107
15.2000 -10.1022 -0.0096
15.2200 -10.1156 -0.0116
15.2400 -10.1289 -0.0109
15.2600 -10.1423 -0.0076
15.2800 -10.1556 -0.0094
15.3000 -10.1689 -0.0085
15.3200 -10.1823 -0.0063
15.3400 -10.1957 -0.0076
15.3600 -10.2090 -0.0064
15.3800 -10.2223 -0.0058
15.4000 -10.2356 -0.0057
15.4200 -10.2490 -0.0085
15.4400 -10.2624 -0.0051
15.4600 -10.2757 -0.0074
15.4800 -10.2890 -0.0053
15.5000 -10.3023 -0.0051
15.5200 -10.3156 -0.0029
15.5400 -10.3289 -0.0054
15.5600 -10.3422 -0.0030
15.5800 -10.3555 -0.0031
15.6000 -10.3689 -0.0031
15.6200 -10.3823 -0.0016
15.6400 -10.3956 -0.0018
15.6600 -10.4089 -0.0037
15.6800 -10.4223 -0.0009
15.7000 -10.4357 -0.0008
15.7200 -10.4491 -0.0017
15.7400 -10.4624 0.0006
15.7600 -10.4757 0.0001
15.7800 -10.4890 -0.0015
15.8000 -10.5024 0.0011
15.8200 -10.5157 0.0011
15.8400 -10.5290 0.0003
15.8600 -10.5423 0.0013
15.8800 -10.5556 0.0006
15.9000 -10.5689 -0.0016
15.9200 -10.5822 0.0014
15.9400 -10.5955 0.0006
15.9600 -10.6089 -0.0009
15.9800 -10.6222 0.0020
16.0000 -10.6356 0.0014
16.0200 -10.6489 0.0007
16.0400 -10.6623 0.0009
16.0600 -10.6757 0.0016
16.0800 -10.6890 0.0019
16.1000 -10.7023 0.0054
16.1200 -10.7156 0.0031
16.1400 -10.7290 0.0057
16.1600 -10.7423 0.0052
16.1800 -10.7557 0.0075
16.2000 -10.7689 0.0043
16.2200 -10.7823 0.0080
16.2400 -10.7956 0.0056
16.2600 -10.8089 0.0071
16.2800 -10.8222 0.0062
16.3000 -10.8355 0.0099
16.3200 -10.8489 0.0085
16.3400 -10.8623 0.0106
16.3600 -10.8756 0.0102
16.3800 -10.8889 0.0093
16.4000 -10.9023 0.0114
16.4200 -10.9157 0.0117
16.4400 -10.9290 0.0118
16.4600 -10.9423 0.0121
16.4800 -10.9556 0.0137
16.5000 -10.9689 0.0142
16.5200 -10.9823 0.0152
16.5400 -10.9956 0.0153
16.5600 -11.0090 0.0147
16.5800 -11.0223 0.0157
16.6000 -11.0356 0.0153
16.6200 -11.0490 0.0145
16.6400 -11.0623 0.0144
16.6600 -11.0756 0.0150
16.6800 -11.0889 0.0148
16.7000 -11.1023 0.0170
16.7200 -11.1156 0.0174
16.7400 -11.1289 0.0177
16.7600 -11.1423 0.0182
16.7800 -11.1557 0.0169
16.8000 -11.1691 0.0185
16.8200 -11.1824 0.0178
16.8400 -11.1957 0.0202
16.8600 -11.2090 0.0195
16.8800 -11.2224 0.0220
16.9000 -11.2357 0.0188
16.9200 -11.2490 0.0198
16.9400 -11.2623 0.0202
16.9600 -11.2757 0.0225
16.9800 -11.2890 0.0195
17.0000 -11.3023 0.0225
17.0200 -11.3156 0.0217
17.0400 -11.3289 0.0223
17.0600 -11.3423 0.0223
17.0800 -11.3556 0.0229
17.1000 -11.3689 0.0226
17.1200 -11.3823 0.0246
17.1400 -11.3956 0.0249
17.1600 -11.4090 0.0250
17.1800 -11.4223 0.0248
17.2000 -11.4356 0.0261
17.2200 -11.4490 0.0270
17.2400 -11.4623 0.0289
17.2600 -11.4757 0.0286
17.2800 -11.4890 0.0281
17.3000 -11.5023 0.0293
17.3200 -11.5156 0.0274
17.3400 -11.5290 0.0293
17.3600 -11.5423 0.0303
17.3800 -11.5556 0.0312
17.4000 -11.5689 0.0308
17.4200 -11.5823 0.0309
17.4400 -11.5956 0.0314
17.4600 -11.6089 0.0308
17.4800 -11.6223 0.0328
17.5000 -11.6356 0.0334
17.5200 -11.6490 0.0308
17.5400 -11.6623 0.0334
17.5600 -11.6756 0.0336
17.5800 -11.6889 0.0349
17.6000 -11.7023 0.0350
17.6200 -11.7157 0.0358
17.6400 -11.7290 0.0355
17.6600 -11.7423 0.0354
17.6800 -11.7557 0.0354
17.7000 -11.7690 0.0345
17.7200 -11.7823 0.0347
17.7400 -11.7956 0.0368
17.7600 -11.8089 0.0374
17.7800 -11.8223 0.0379
17.8000 -11.8356 0.0402
17.8200 -11.8490 0.0386
17.8400 -11.8623 0.0407
17.8600 -11.8756 0.0392
17.8800 -11.8890 0.0411
17.9000 -11.9023 0.0400
17.9200 -11.9156 0.0426
17.9400 -11.9290 0.0396
17.9600 -11.9423 0.0425
17.9800 -11.9556 0.0416
18.0000 -11.9689 0.0436
18.0200 -11.9823 0.0422
18.0400 -11.9956 0.0447
18.0600 -12.0090 0.0435
18.0800 -12.0223 0.0447
18.1000 -12.0356 0.0443
18.1200 -12.0489 0.0453
18.1400 -12.0623 0.0468
18.1600 -12.0757 0.0474
18.1800 -12.0890 0.0471
18.2000 -12.1023 0.0469
18.2200 -12.1156 0.0492
18.2400 -12.1290 0.0474
18.2600 -12.1423 0.0472
18.2800 -12.1556 0.0486
18.3000 -12.1690 0.0479
18.3200 -12.1823 0.0489
18.3400 -12.1957 0.0485
18.3600 -12.2090 0.0500
18.3800 -12.2223 0.0485
18.4000 -12.2356 0.0511
18.4200 -12.2489 0.0500
18.4400 -12.2623 0.0519
18.4600 -12.2756 0.0508
18.4800 -12.2889 0.0516
18.5000 -12.3023 0.0507
18.5200 -12.3156 0.0509
18.5400 -12.3289 0.0501
18.5600 -12.3423 0.0509
18.5800 -12.3556 0.0521
18.6000 -12.3690 0.0501
18.6200 -12.3824 0.0525
18.6400 -12.3956 0.0520
18.6600 -12.4089 0.0540
18.6800 -12.4223 0.0544
18.7000 -12.4357 0.0564
18.7200 -12.4490 0.0555
18.7400 -12.4623 0.0559
18.7600 -12.4757 0.0561
18.7800 -12.4890 0.0562
18.8000 -12.5023 0.0564
18.8200 -12.5156 0.0546
18.8400 -12.5289 0.0560
18.8600 -12.5422 0.0578
18.8800 -12.5556 0.0593
18.9000 -12.5689 0.0582
18.9200 -12.5822 0.0585
18.9400 -12.5956 0.0599
18.9600 -12.6090 0.0585
18.9800 -12.6223 0.0596
19.0000 -12.6356 0.0591
19.0200 -12.6490 0.0615
19.0400 -12.6624 0.0592
19.0600 -12.6757 0.0633
19.0800 -12.6890 0.0607
19.1000 -12.7023 0.0650
19.1200 -12.7156 0.0630
19.1400 -12.7290 0.0629
19.1600 -12.7423 0.0644
19.1800 -12.7556 0.0652
19.2000 -12.7689 0.0649
19.2200 -12.7823 0.0658
19.2400 -12.7956 0.0659
19.2600 -12.8090 0.0656
19.2800 -12.8223 0.0674
19.3000 -12.8356 0.0677
19.3200 -12.8490 0.0690
19.3400 -12.8624 0.0681
19.3600 -12.8757 0.0697
19.3800 -12.8890 0.0684
19.4000 -12.9023 0.0685
19.4200 -12.9157 0.0710
19.4400 -12.9290 0.0697
19.4600 -12.9423 0.0709
19.4800 -12.9556 0.0698
19.5000 -12.9690 0.0709
19.5200 -12.9823 0.0706
19.5400 -12.9956 0.0702
19.5600 -13.0089 0.0709
19.5800 -13.0222 0.0708
19.6000 -13.0356 0.0729
19.6200 -13.0489 0.0717
19.6400 -13.0623 0.0705
19.6600 -13.0756 0.0708
19.6800 -13.0890 0.0728
19.7000 -13.1023 0.0728
19.7200 -13.1157 0.0729
19.7400 -13.1290 0.0715
19.7600 -13.1423 0.0720
19.7800 -13.1557 0.0710
19.8000 -13.1690 0.0744
19.8200 -13.1823 0.0733
19.8400 -13.1956 0.0737
19.8600 -13.2090 0.0725
19.8800 -13.2223 0.0742
19.9000 -13.2356 0.0748
19.9200 -13.2489 0.0773
19.9400 -13.2622 0.0772
19.9600 -13.2756 0.0785
19.9800 -13.2889 0.0776
20.0000 -13.3022 0.0768
20.0200 -13.3156 0.0772
20.0400 -13.3290 0.0789
20.0600 -13.3424 0.0794
20.0800 -13.3557 0.0769
20.1000 -13.3690 0.0800
20.1200 -13.3823 0.0774
20.1400 -13.3957 0.0827
20.1600 -13.4090 0.0833
20.1800 -13.4223 0.0844
20.2000 -13.4356 0.0835
20.2200 -13.4490 0.0849
20.2400 -13.4623 0.0830
20.2600 -13.4756 0.0869
20.2800 -13.4889 0.0857
20.3000 -13.5023 0.0868
20.3200 -13.5156 0.0873
20.3400 -13.5289 0.0895
20.3600 -13.5422 0.0879
20.3800 -13.5556 0.0882
20.4000 -13.5690 0.0891
20.4200 -13.5823 0.0914
20.4400 -13.5956 0.0931
20.4600 -13.6090 0.0915
20.4800 -13.6223 0.0923
20.5000 -13.6357 0.0912
20.5200 -13.6490 0.0920
20.5400 -13.6623 0.0923
20.5600 -13.6756 0.0934
20.5800 -13.6890 0.0936
20.6000 -13.7023 0.0941
20.6200 -13.7156 0.0961
20.6400 -13.7289 0.0951
20.6600 -13.7422 0.0974
20.6800 -13.7556 0.0957
20.7000 -13.7689 0.0971
20.7200 -13.7822 0.0966
20.7400 -13.7956 0.0970
20.7600 -13.8090 0.0974
20.7800 -13.8223 0.0971
20.8000 -13.8356 0.1008
20.8200 -13.8489 0.0998
20.8400 -13.8623 0.1009
20.8600 -13.8757 0.0983
20.8800 -13.8890 0.1018
20.9000 -13.9023 0.0986
20.9200 -13.9157 0.0990
20.9400 -13.9290 0.0984
20.9600 -13.9423 0.1003
20.9800 -13.9556 0.1021
21.0000 -13.9689 0.1036
21.0200 -13.9822 0.1019
21.0400 -13.9956 0.1053
21.0600 -14.0089 0.1025
21.0800 -14.0222 0.1046
21.1000 -14.0356 0.1019
21.1200 -14.0490 0.1019
21.1400 -14.0624 0.1046
21.1600 -14.0757 0.1040
21.1800 -14.0890 0.1054
21.2000 -14.1024 0.1054
21.2200 -14.1157 0.1083
21.2400 -14.1290 0.1075
21.2600 -14.1423 0.1076
21.2800 -14.1556 0.1054
21.3000 -14.1689 0.1085
21.3200 -14.1822 0.1071
21.3400 -14.1955 0.1100
21.3600 -14.2089 0.1071
21.3800 -14.2222 0.1101
21.4000 -14.2356 0.1061
21.4200 -14.2489 0.1110
21.4400 -14.2623 0.1065
21.4600 -14.2756 0.1107
21.4800 -14.2890 0.1084
21.5000 -14.3024 0.1124
21.5200 -14.3157 0.1084
21.5400 -14.3290 0.1123
21.5600 -14.3423 0.1108
21.5800 -14.3556 0.1126
21.6000 -14.3690 0.1135
21.6200 -14.3823 0.1133
21.6400 -14.3956 0.1120
21.6600 -14.4090 0.1144
21.6800 -14.4223 0.1153
21.7000 -14.4356 0.1156
21.7200 -14.4489 0.1154
21.7400 -14.4623 0.1153
21.7600 -14.4756 0.1166
21.7800 -14.4889 0.1181
21.8000 -14.5022 0.1187
21.8200 -14.5156 0.1202
21.8400 -14.5290 0.1204
21.8600 -14.5423 0.1213
21.8800 -14.5557 0.1193
21.9000 -14.5690 0.1212
21.9200 -14.5823 0.1235
21.9400 -14.5956 0.1235
21.9600 -14.6090 0.1241
21.9800 -14.6223 0.1228
22.0000 -14.6356 0.1227
22.0200 -14.6490 0.1241
22.0400 -14.6623 0.1270
22.0600 -14.6756 0.1259
22.0800 -14.6889 0.1271
22.1000 -14.7022 0.1257
22.1200 -14.7156 0.1306
22.1400 -14.7290 0.1301
22.1600 -14.7423 0.1328
22.1800 -14.7556 0.1291
22.2000 -14.7690 0.1314
22.2200 -14.7824 0.1299
22.2400 -14.7957 0.1335
22.2600 -14.8090 0.1307
22.2800 -14.8223 0.1349
22.3000 -14.8357 0.1303
22.3200 -14.8490 0.1348
22.3400 -14.8623 0.1301
22.3600 -14.8756 0.1327
22.3800 -14.8889 0.1318
22.4000 -14.9023 0.1351
22.4200 -14.9156 0.1336
22.4400 -14.9289 0.1368
22.4600 -14.9422 0.1367
22.4800 -14.9556 0.1355
22.5000 -14.9690 0.1371
22.5200 -14.9823 0.1369
22.5400 -14.9956 0.1357
22.5600 -15.0090 0.1366
22.5800 -15.0224 0.1374
22.6000 -15.0357 0.1361
22.6200 -15.0490 0.1352
22.6400 -15.0623 0.1349
22.6600 -15.0757 0.1333
22.6800 -15.0890 0.1343
22.7000 -15.1023 0.1350
22.7200 -15.1156 0.1357
22.7400 -15.1289 0.1366
22.7600 -15.1423 0.1380
22.7800 -15.1556 0.1346
22.8000 -15.1689 0.1392
22.8200 -15.1822 0.1386
22.8400 -15.1956 0.1397
22.8600 -15.2089 0.1392
22.8800 -15.2222 0.1391
22.9000 -15.2356 0.1390
22.9200 -15.2490 0.1398
22.9400 -15.2624 0.1414
22.9600 -15.2757 0.1388
22.9800 -15.2890 0.1417
23.0000 -15.3023 0.1414
23.0200 -15.3157 0.1430
23.0400 -15.3290 0.1422
23.0600 -15.3423 0.1436
23.0800 -15.3556 0.1432
23.1000 -15.3689 0.1448
23.1200 -15.3823 0.1447
23.1400 -15.3956 0.1454
23.1600 -15.4089 0.1450
23.1800 -15.4222 0.1475
23.2000 -15.4356 0.1448
23.2200 -15.4489 0.1473
23.2400 -15.4622 0.1469
23.2600 -15.4756 0.1454
23.2800 -15.4890 0.1486
23.3000 -15.5024 0.1483
23.3200 -15.5157 0.1486
23.3400 -15.5290 0.1489
23.3600 -15.5423 0.1511
23.3800 -15.5557 0.1479
23.4000 -15.5690 0.1513
23.4200 -15.5823 0.1481
23.4400 -15.5956 0.1519
23.4600 -15.6089 0.1496
23.4800 -15.6223 0.1520
23.5000 -15.6356 0.1498
23.5200 -15.6489 0.1500
23.5400 -15.6622 0.1507
23.5600 -15.6756 0.1514
23.5800 -15.6890 0.1525
23.6000 -15.7023 0.1524
23.6200 -15.7156 0.1500
23.6400 -15.7290 0.1525
23.6600 -15.7424 0.1546
23.6800 -15.7557 0.1559
23.7000 -15.7689 0.1543
23.7200 -15.7822 0.1554
23.7400 -15.7956 0.1546
23.7600 -15.8090 0.1559
23.7800 -15.8223 0.1555
23.8000 -15.8356 0.1559
23.8200 -15.8490 0.1574
23.8400 -15.8623 0.1592
23.8600 -15.8757 0.1579
23.8800 -15.8889 0.1564
23.9000 -15.9023 0.1569
23.9200 -15.9156 0.1572
23.9400 -15.9290 0.1583
23.9600 -15.9423 0.1567
23.9800 -15.9556 0.1578
24.0000 -15.9690 0.1580
24.0200 -15.9823 0.1609
24.0400 -15.9957 0.1609
24.0600 -16.0090 0.1614
24.0800 -16.0223 0.1610
24.1000 -16.0357 0.1604
24.1200 -16.0490 0.1586
24.1400 -16.0624 0.1618
24.1600 -16.0756 0.1601
24.1800 -16.0890 0.1612
24.2000 -16.1023 0.1621
24.2200 -16.1156 0.1633
24.2400 -16.1289 0.1629
24.2600 -16.1422 0.1650
24.2800 -16.1556 0.1647
24.3000 -16.1690 0.1652
24.3200 -16.1823 0.1647
24.3400 -16.1956 0.1635
24.3600 -16.2089 0.1667
24.3800 -16.2223 0.1699
24.4000 -16.2357 0.1696
24.4200 -16.2490 0.1685
24.4400 -16.2623 0.1670
24.4600 -16.2757 0.1673
24.4800 -16.2890 0.1688
24.5000 -16.3023 0.1707
24.5200 -16.3156 0.1705
24.5400 -16.3290 0.1708
24.5600 -16.3423 0.1713
24.5800 -16.3556 0.1714
24.6000 -16.3689 0.1729
24.6200 -16.3822 0.1756
24.6400 -16.3956 0.1745
24.6600 -16.4089 0.1731
24.6800 -16.4223 0.1762
24.7000 -16.4356 0.1728
24.7200 -16.4489 0.1758
24.7400 -16.4623 0.1754
24.7600 -16.4757 0.1777
24.7800 -16.4890 0.1756
24.8000 -16.5023 0.1787
24.8200 -16.5156 0.1777
24.8400 -16.5290 0.1783
24.8600 -16.5423 0.1794
24.8800 -16.5557 0.1790
24.9000 -16.5690 0.1784
24.9200 -16.5823 0.1801
24.9400 -16.5957 0.1789
24.9600 -16.6089 0.1789
24.9800 -16.6223 0.1798
25.0000 -16.6356 0.1808
25.0200 -16.6490 0.1802
25.0400 -16.6623 0.1819
25.0600 -16.6756 0.1810
25.0800 -16.6890 0.1825
25.1000 -16.7024 0.1834
25.1200 -16.7157 0.1859
25.1400 -16.7290 0.1826
25.1600 -16.7423 0.1855
25.1800 -16.7556 0.1835
25.2000 -16.7690 0.1858
25.2200 -16.7823 0.1868
25.2400 -16.7956 0.1870
25.2600 -16.8089 0.1858
25.2800 -16.8223 0.1876
25.3000 -16.8356 0.1883
25.3200 -16.8489 0.1891
25.3400 -16.8622 0.1913
25.3600 -16.8756 0.1885
25.3800 -16.8890 0.1891
25.4000 -16.9023 0.1892
25.4200 -16.9156 0.1907
25.4400 -16.9289 0.1873
25.4600 -16.9423 0.1908
25.4800 -16.9557 0.1899
25.5000 -16.9690 0.1912
25.5200 -16.9823 0.1918
25.5400 -16.9956 0.1931
25.5600 -17.0089 0.1906
25.5800 -17.0222 0.1947
25.6000 -17.0355 0.1957
25.6200 -17.0489 0.1947
25.6400 -17.0622 0.1978
25.6600 -17.0756 0.1974
25.6800 -17.0889 0.1953
25.7000 -17.1022 0.2007
25.7200 -17.1156 0.2005
25.7400 -17.1290 0.2014
25.7600 -17.1423 0.2012
25.7800 -17.1556 0.2008
25.8000 -17.1689 0.2011
25.8200 -17.1823 0.2034
25.8400 -17.1957 0.2033
25.8600 -17.2090 0.2034
25.8800 -17.2223 0.2046
25.9000 -17.2356 0.2036
25.9200 -17.2490 0.2017
25.9400 -17.2623 0.2049
25.9600 -17.2756 0.2053
25.9800 -17.2890 0.2037
26.0000 -17.3023 0.2052
26.0200 -17.3157 0.2044
26.0400 -17.3289 0.2061
26.0600 -17.3422 0.2058
26.0800 -17.3556 0.2057
26.1000 -17.3689 0.2044
26.1200 -17.3822 0.2078
26.1400 -17.3955 0.2080
26.1600 -17.4089 0.2067
26.1800 -17.4223 0.2080
26.2000 -17.4357 0.2088
26.2200 -17.4490 0.2059
26.2400 -17.4623 0.2097
26.2600 -17.4757 0.2074
26.2800 -17.4891 0.2077
26.3000 -17.5024 0.2106
26.3200 -17.5157 0.2103
26.3400 -17.5290 0.2116
26.3600 -17.5423 0.2122
26.3800 -17.5556 0.2131
26.4000 -17.5689 0.2118
26.4200 -17.5822 0.2133
26.4400 -17.5956 0.2145
26.4600 -17.6090 0.2155
26.4800 -17.6223 0.2174
26.5000 -17.6356 0.2173
26.5200 -17.6490 0.2167
26.5400 -17.6623 0.2175
26.5600 -17.6757 0.2195
26.5800 -17.6890 0.2170
26.6000 -17.7023 0.2198
26.6200 -17.7156 0.2172
26.6400 -17.7290 0.2187
26.6600 -17.7424 0.2193
26.6800 -17.7557 0.2190
26.7000 -17.7690 0.2154
26.7200 -17.7823 0.2191
26.7400 -17.7956 0.2210
26.7600 -17.8089 0.2198
26.7800 -17.8222 0.2211
26.8000 -17.8356 0.2203
26.8200 -17.8489 0.2188
26.8400 -17.8623 0.2198
26.8600 -17.8756 0.2235
26.8800 -17.8889 0.2215
26.9000 -17.9023 0.2237
26.9200 -17.9157 0.2235
26.9400 -17.9290 0.2242
26.9600 -17.9423 0.2245
26.9800 -17.9556 0.2263
27.0000 -17.9690 0.2237
27.0200 -17.9823 0.2266
27.0400 -17.9956 0.2276
27.0600 -18.0090 0.2258
27.0800 -18.0223 0.2288
27.1000 -18.0356 0.2287
27.1200 -18.0489 0.2286
27.1400 -18.0622 0.2282
27.1600 -18.0755 0.2323
27.1800 -18.0889 0.2312
27.2000 -18.1023 0.2315
27.2200 -18.1156 0.2312
27.2400 -18.1289 0.2296
27.2600 -18.1423 0.2295
27.2800 -18.1557 0.2313
27.3000 -18.1690 0.2307
27.3200 -18.1823 0.2336
27.3400 -18.1957 0.2337
27.3600 -18.2090 0.2339
27.3800 -18.2224 0.2343
27.4000 -18.2357 0.2360
27.4200 -18.2490 0.2357
27.4400 -18.2623 0.2373
27.4600 -18.2756 0.2393
27.4800 -18.2890 0.2383
27.5000 -18.3022 0.2377
27.5200 -18.3156 0.2394
27.5400 -18.3289 0.2383
27.5600 -18.3423 0.2419
27.5800 -18.3556 0.2430
27.6000 -18.3689 0.2410
27.6200 -18.3823 0.2410
27.6400 -18.3956 0.2442
27.6600 -18.4090 0.2416
27.6800 -18.4223 0.2429
27.7000 -18.4356 0.2448
27.7200 -18.4490 0.2443
27.7400 -18.4624 0.2452
27.7600 -18.4757 0.2460
27.7800 -18.4890 0.2433
27.8000 -18.5023 0.2456
27.8200 -18.5157 0.2462
27.8400 -18.5290 0.2436
27.8600 -18.5422 0.2475
27.8800 -18.5556 0.2479
27.9000 -18.5689 0.2468
27.9200 -18.5823 0.2497
27.9400 -18.5956 0.2487
27.9600 -18.6089 0.2464
27.9800 -18.6223 0.2487
28.0000 -18.6356 0.2518
28.0200 -18.6490 0.2509
28.0400 -18.6623 0.2511
28.0600 -18.6756 0.2529
28.0800 -18.6890 0.2505
28.1000 -18.7024 0.2538
28.1200 -18.7157 0.2534
28.1400 -18.7290 0.2523
28.1600 -18.7423 0.2520
28.1800 -18.7556 0.2558
28.2000 -18.7690 0.2531
28.2200 -18.7822 0.2568
28.2400 -18.7955 0.2557
28.2600 -18.8089 0.2565
28.2800 -18.8223 0.2551
28.3000 -18.8356 0.2574
28.3200 -18.8489 0.2546
28.3400 -18.8623 0.2579
28.3600 -18.8757 0.2580
28.3800 -18.8890 0.2568
28.4000 -18.9023 0.2579
28.4200 -18.9157 0.2593
28.4400 -18.9290 0.2570
28.4600 -18.9424 0.2583
28.4800 -18.9557 0.2588
28.5000 -18.9690 0.2614
28.5200 -18.9822 0.2597
28.5400 -18.9956 0.2618
28.5600 -19.0089 0.2616
28.5800 -19.0222 0.2616
28.6000 -19.0355 0.2621
28.6200 -19.0489 0.2622
28.6400 -19.0623 0.2643
28.6600 -19.0756 0.2663
28.6800 -19.0889 0.2650
28.7000 -19.1023 0.2690
28.7200 -19.1157 0.2707
28.7400 -19.1290 0.2699
28.7600 -19.1423 0.2709
28.7800 -19.1556 0.2726
28.8000 -19.1690 0.2701
28.8200 -19.1824 0.2720
28.8400 -19.1957 0.2722
28.8600 -19.2090 0.2708
28.8800 -19.2223 0.2718
28.9000 -19.2357 0.2709
28.9200 -19.2490 0.2707
28.9400 -19.2623 0.2700
28.9600 -19.2756 0.2725
28.9800 -19.2889 0.2693
29.0000 -19.3023 0.2705
29.0200 -19.3156 0.2706
29.0400 -19.3289 0.2710
29.0600 -19.3423 0.2708
29.0800 -19.3556 0.2742
29.1000 -19.3690 0.2739
29.1200 -19.3823 0.2741
29.1400 -19.3956 0.2747
29.1600 -19.4090 0.2751
29.1800 -19.4223 0.2752
29.2000 -19.4357 0.2801
29.2200 -19.4490 0.2789
29.2400 -19.4623 0.2807
29.2600 -19.4756 0.2795
29.2800 -19.4890 0.2810
29.3000 -19.5022 0.2820
29.3200 -19.5156 0.2833
29.3400 -19.5289 0.2839
29.3600 -19.5423 0.2824
29.3800 -19.5556 0.2848
29.4000 -19.5689 0.2850
29.4200 -19.5823 0.2865
29.4400 -19.5956 0.2868
29.4600 -19.6090 0.2850
29.4800 -19.6223 0.2851
29.5000 -19.6356 0.2898
29.5200 -19.6490 0.2888
29.5400 -19.6623 0.2898
29.5600 -19.6756 0.2903
29.5800 -19.6889 0.2881
29.6000 -19.7023 0.2897
29.6200 -19.7156 0.2918
29.6400 -19.7289 0.2916
29.6600 -19.7422 0.2924
29.6800 -19.7556 0.2957
29.7000 -19.7689 0.2930
29.7200 -19.7823 0.2950
29.7400 -19.7956 0.2971
29.7600 -19.8090 0.2949
29.7800 -19.8223 0.2958
29.8000 -19.8357 0.2981
29.8200 -19.8490 0.2965
29.8400 -19.8623 0.2967
29.8600 -19.8756 0.3009
29.8800 -19.8890 0.2995
29.9000 -19.9023 0.2999
29.9200 -19.9157 0.3033
29.9400 -19.9290 0.3004
29.9600 -19.9423 0.3008
29.9800 -19.9556 0.3034
30.0000 -19.9690 0.3014
30.0200 -19.9822 0.3036
30.0400 -19.9955 0.3054
30.0600 -20.0089 0.3046
30.0800 -20.0223 0.3000
30.1000 -20.0356 0.2676
30.1200 -20.0489 0.2007
30.1400 -20.0623 0.1240
30.1600 -20.0757 0.0535
30.1800 -20.0890 -0.0204
30.2000 -20.1024 -0.0857
30.2200 -20.1157 -0.1473
30.2400 -20.1290 -0.1848
30.2600 -20.1424 -0.2142
30.2800 -20.1557 -0.2491
30.3000 -20.1690 -0.2965
30.3200 -20.1823 -0.3351
30.3400 -20.1956 -0.3707
30.3600 -20.2090 -0.4075
30.3800 -20.2222 -0.4459
30.4000 -20.2355 -0.4635
30.4200 -20.2489 -0.4693
30.4400 -20.2622 -0.4670
30.4600 -20.2756 -0.4615
30.4800 -20.2889 -0.4622
30.5000 -20.3023 -0.4633
30.5200 -20.3157 -0.4605
30.5400 -20.3291 -0.4596
30.5600 -20.3424 -0.4619
30.5800 -20.3556 -0.4603
30.6000 -20.3690 -0.4635
30.6200 -20.3823 -0.4618
30.6400 -20.3957 -0.4607
30.6600 -20.4090 -0.4588
30.6800 -20.4223 -0.4612
30.7000 -20.4356 -0.4579
30.7200 -20.4489 -0.4594
30.7400 -20.4622 -0.4608
30.7600 -20.4756 -0.4594
30.7800 -20.4889 -0.4587
30.8000 -20.5023 -0.4611
30.8200 -20.5157 -0.4571
30.8400 -20.5290 -0.4611
30.8600 -20.5423 -0.4601
30.8800 -20.5557 -0.4567
30.9000 -20.5690 -0.4564
30.9200 -20.5823 -0.4592
30.9400 -20.5956 -0.4558
30.9600 -20.6089 -0.4561
30.9800 -20.6223 -0.4555
31.0000 -20.6356 -0.4537
31.0200 -20.6490 -0.4539
31.0400 -20.6623 -0.4549
31.0600 -20.6756 -0.4500
31.0800 -20.6890 -0.4507
31.1000 -20.7023 -0.4471
31.1200 -20.7156 -0.4466
31.1400 -20.7289 -0.4475
31.1600 -20.7423 -0.4489
31.1800 -20.7556 -0.4448
31.2000 -20.7689 -0.4462
31.2200 -20.7823 -0.4446
31.2400 -20.7956 -0.4421
31.2600 -20.8090 -0.4426
31.2800 -20.8223 -0.4430
31.3000 -20.8356 -0.4389
31.3200 -20.8490 -0.4376
31.3400 -20.8624 -0.4373
31.3600 -20.8757 -0.4366
31.3800 -20.8890 -0.4389
31.4000 -20.9023 -0.4353
31.4200 -20.9156 -0.4337
31.4400 -20.9290 -0.4327
31.4600 -20.9423 -0.4336
31.4800 -20.9556 -0.4313
31.5000 -20.9689 -0.4313
31.5200 -20.9823 -0.4309
31.5400 -20.9956 -0.4274
31.5600 -21.0090 -0.4261
31.5800 -21.0223 -0.4285
31.6000 -21.0356 -0.4243
31.6200 -21.0490 -0.4252
31.6400 -21.0623 -0.4228
31.6600 -21.0756 -0.4234
31.6800 -21.0890 -0.4218
31.7000 -21.1023 -0.4235
31.7200 -21.1157 -0.4217
31.7400 -21.1290 -0.4216
31.7600 -21.1423 -0.4212
31.7800 -21.1556 -0.4205
31.8000 -21.1690 -0.4185
31.8200 -21.1823 -0.4222
31.8400 -21.1956 -0.4162
31.8600 -21.2089 -0.4174
31.8800 -21.2223 -0.4183
31.9000 -21.2356 -0.4138
31.9200 -21.2489 -0.4135
31.9400 -21.2623 -0.4135
31.9600 -21.2756 -0.4115
31.9800 -21.2890 -0.4115
32.0000 -21.3023 -0.4111
32.0200 -21.3156 -0.4091
32.0400 -21.3290 -0.4111
32.0600 -21.3423 -0.4124
32.0800 -21.3557 -0.4094
32.1000 -21.3690 -0.4088
32.1200 -21.3823 -0.4083
32.1400 -21.3956 -0.4046
32.1600 -21.4090 -0.4051
32.1800 -21.4223 -0.4058
32.2000 -21.4356 -0.4022
32.2200 -21.4489 -0.4012
32.2400 -21.4623 -0.4025
32.2600 -21.4756 -0.4000
32.2800 -21.4890 -0.3993
32.3000 -21.5023 -0.4019
32.3200 -21.5156 -0.3971
32.3400 -21.5290 -0.3966
32.3600 -21.5423 -0.3958
32.3800 -21.5556 -0.3958
32.4000 -21.5689 -0.3951
32.4200 -21.5823 -0.3930
32.4400 -21.5956 -0.3910
32.4600 -21.6089 -0.3915
32.4800 -21.6223 -0.3914
32.5000 -21.6356 -0.3883
32.5200 -21.6490 -0.3856
32.5400 -21.6623 -0.3871
32.5600 -21.6756 -0.3843
32.5800 -21.6889 -0.3834
32.6000 -21.7023 -0.3841
32.6200 -21.7156 -0.3819
32.6400 -21.7290 -0.3825
32.6600 -21.7423 -0.3840
32.6800 -21.7556 -0.3813
32.7000 -21.7690 -0.3795
32.7200 -21.7823 -0.3808
32.7400 -21.7956 -0.3789
32.7600 -21.8090 -0.3798
32.7800 -21.8223 -0.3818
32.8000 -21.8357 -0.3787
32.8200 -21.8490 -0.3794
32.8400 -21.8623 -0.3797
32.8600 -21.8756 -0.3792
32.8800 -21.8889 -0.3775
32.9000 -21.9023 -0.3814
32.9200 -21.9156 -0.3791
32.9400 -21.9289 -0.3806
32.9600 -21.9423 -0.3808
32.9800 -21.9556 -0.3785
33.0000 -21.9690 -0.3782
33.0200 -21.9823 -0.3800
33.0400 -21.9956 -0.3774
33.0600 -22.0090 -0.3782
33.0800 -22.0223 -0.3774
33.1000 -22.0356 -0.3763
33.1200 -22.0490 -0.3761
33.1400 -22.0623 -0.3746
33.1600 -22.0757 -0.3749
33.1800 -22.0890 -0.3712
33.2000 -22.1023 -0.3729
33.2200 -22.1157 -0.3704
33.2400 -22.1290 -0.3701
33.2600 -22.1423 -0.3705
33.2800 -22.1556 -0.3712
33.3000 -22.1689 -0.3698
33.3200 -22.1822 -0.3697
33.3400 -22.1955 -0.3665
33.3600 -22.2089 -0.3675
33.3800 -22.2222 -0.3692
33.4000 -22.2356 -0.3667
33.4200 -22.2490 -0.3663
33.4400 -22.2623 -0.3682
33.4600 -22.2757 -0.3652
33.4800 -22.2890 -0.3658
33.5000 -22.3024 -0.3658
33.5200 -22.3157 -0.3640
33.5400 -22.3290 -0.3643
33.5600 -22.3423 -0.3644
33.5800 -22.3556 -0.3634
33.6000 -22.3689 -0.3634
33.6200 -22.3823 -0.3626
33.6400 -22.3956 -0.3628
33.6600 -22.4089 -0.3608
33.6800 -22.4223 -0.3626
33.7000 -22.4356 -0.3601
33.7200 -22.4490 -0.3599
33.7400 -22.4623 -0.3601
33.7600 -22.4756 -0.3589
33.7800 -22.4890 -0.3580
33.8000 -22.5024 -0.3601
33.8200 -22.5157 -0.3566
33.8400 -22.5290 -0.3566
33.8600 -22.5423 -0.3567
33.8800 -22.5557 -0.3549
33.9000 -22.5690 -0.3537
33.9200 -22.5823 -0.3549
33.9400 -22.5956 -0.3521
33.9600 -22.6090 -0.3516
33.9800 -22.6223 -0.3505
34.0000 -22.6356 -0.3476
34.0200 -22.6489 -0.3459
34.0400 -22.6622 -0.3487
34.0600 -22.6756 -0.3467
34.0800 -22.6890 -0.3483
34.1000 -22.7023 -0.3489
34.1200 -22.7156 -0.3472
34.1400 -22.7290 -0.3444
34.1600 -22.7423 -0.3449
34.1800 -22.7557 -0.3454
34.2000 -22.7690 -0.3429
34.2200 -22.7823 -0.3438
34.2400 -22.7957 -0.3412
34.2600 -22.8090 -0.3395
34.2800 -22.8223 -0.3395
34.3000 -22.8356 -0.3391
34.3200 -22.8490 -0.3352
34.3400 -22.8623 -0.3376
34.3600 -22.8756 -0.3365
34.3800 -22.8889 -0.3368
34.4000 -22.9022 -0.3326
34.4200 -22.9156 -0.3330
34.4400 -22.9289 -0.3290
34.4600 -22.9423 -0.3309
34.4800 -22.9556 -0.3283
34.5000 -22.9690 -0.3283
34.5200 -22.9824 -0.3278
34.5400 -22.9957 -0.3282
34.5600 -23.0090 -0.3278
34.5800 -23.0223 -0.3280
34.6000 -23.0357 -0.3241
34.6200 -23.0490 -0.3214
34.6400 -23.0623 -0.3226
34.6600 -23.0756 -0.3226
34.6800 -23.0890 -0.3228
34.7000 -23.1023 -0.3212
34.7200 -23.1156 -0.3214
34.7400 -23.1289 -0.3182
34.7600 -23.1423 -0.3177
34.7800 -23.1556 -0.3178
34.8000 -23.1689 -0.3181
34.8200 -23.1822 -0.3197
34.8400 -23.1956 -0.3176
34.8600 -23.2089 -0.3168
34.8800 -23.2223 -0.3176
34.9000 -23.2356 -0.3146
34.9200 -23.2489 -0.3179
34.9400 -23.2623 -0.3201
34.9600 -23.2757 -0.3216
34.9800 -23.2890 -0.3175
35.0000 -23.3023 -0.3204
35.0200 -23.3157 -0.3182
35.0400 -23.3290 -0.3201
35.0600 -23.3423 -0.3215
35.0800 -23.3556 -0.3177
35.1000 -23.3689 -0.3166
35.1200 -23.3822 -0.3191
35.1400 -23.3956 -0.3188
35.1600 -23.4089 -0.3204
35.1800 -23.4222 -0.3180
35.2000 -23.4356 -0.3189
35.2200 -23.4490 -0.3153
35.2400 -23.4623 -0.3165
35.2600 -23.4756 -0.3181
35.2800 -23.4889 -0.3197
35.3000 -23.5023 -0.3196
35.3200 -23.5157 -0.3197
35.3400 -23.5290 -0.3173
35.3600 -23.5423 -0.3178
35.3800 -23.5556 -0.3135
35.4000 -23.5690 -0.3125
35.4200 -23.5823 -0.3144
35.4400 -23.5956 -0.3125
35.4600 -23.6089 -0.3125
35.4800 -23.6222 -0.3125
35.5000 -23.6356 -0.3119
35.5200 -23.6490 -0.3091
35.5400 -23.6623 -0.3115
35.5600 -23.6756 -0.3082
35.5800 -23.6890 -0.3074
35.6000 -23.7023 -0.3085
35.6200 -23.7157 -0.3098
35.6400 -23.7290 -0.3044
35.6600 -23.7423 -0.3069
35.6800 -23.7557 -0.3041
35.7000 -23.7690 -0.3054
35.7200 -23.7823 -0.3035
35.7400 -23.7956 -0.3025
35.7600 -23.8089 -0.3002
35.7800 -23.8222 -0.3010
35.8000 -23.8355 -0.2989
35.8200 -23.8489 -0.2981
35.8400 -23.8622 -0.2988
35.8600 -23.8756 -0.2985
35.8800 -23.8890 -0.2953
35.9000 -23.9023 -0.2962
35.9200 -23.9156 -0.2966
35.9400 -23.9290 -0.2954
35.9600 -23.9424 -0.2945
35.9800 -23.9557 -0.2918
36.0000 -23.9690 -0.2924
36.0200 -23.9823 -0.2930
36.0400 -23.9957 -0.2929
36.0600 -24.0090 -0.2893
36.0800 -24.0223 -0.2917
36.1000 -24.0356 -0.2918
36.1200 -24.0490 -0.2894
36.1400 -24.0623 -0.2895
36.1600 -24.0756 -0.2869
36.1800 -24.0889 -0.2851
36.2000 -24.1023 -0.2871
36.2200 -24.1156 -0.2854
36.2400 -24.1290 -0.2861
36.2600 -24.1423 -0.2867
36.2800 -24.1556 -0.2887
36.3000 -24.1690 -0.2831
36.3200 -24.1823 -0.2822
36.3400 -24.1957 -0.2849
36.3600 -24.2090 -0.2854
36.3800 -24.2223 -0.2828
36.4000 -24.2356 -0.2811
36.4200 -24.2490 -0.2828
36.4400 -24.2623 -0.2821
36.4600 -24.2756 -0.2816
36.4800 -24.2889 -0.2792
36.5000 -24.3023 -0.2796
36.5200 -24.3156 -0.2777
36.5400 -24.3289 -0.2774
36.5600 -24.3422 -0.2791
36.5800 -24.3556 -0.2798
36.6000 -24.3690 -0.2760
36.6200 -24.3823 -0.2760
36.6400 -24.3956 -0.2765
36.6600 -24.4090 -0.2772
36.6800 -24.4223 -0.2771
36.7000 -24.4357 -0.2758
36.7200 -24.4490 -0.2718
36.7400 -24.4623 -0.2748
36.7600 -24.4756 -0.2726
36.7800 -24.4890 -0.2747
36.8000 -24.5023 -0.2722
36.8200 -24.5156 -0.2736
36.8400 -24.5290 -0.2713
36.8600 -24.5423 -0.2708
36.8800 -24.5556 -0.2718
36.9000 -24.5689 -0.2702
36.9200 -24.5823 -0.2695
36.9400 -24.5956 -0.2687
36.9600 -24.6090 -0.2684
36.9800 -24.6223 -0.2699
37.0000 -24.6356 -0.2694
37.0200 -24.6490 -0.2690
37.0400 -24.6624 -0.2699
37.0600 -24.6757 -0.2673
37.0800 -24.6890 -0.2665
37.1000 -24.7023 -0.2657
37.1200 -24.7157 -0.2666
37.1400 -24.7290 -0.2651
37.1600 -24.7424 -0.2645
37.1800 -24.7556 -0.2663
37.2000 -24.7690 -0.2639
37.2200 -24.7823 -0.2673
37.2400 -24.7956 -0.2658
37.2600 -24.8089 -0.2666
37.2800 -24.8222 -0.2645
37.3000 -24.8356 -0.2652
37.3200 -24.8489 -0.2649
37.3400 -24.8623 -0.2655
37.3600 -24.8756 -0.2658
37.3800 -24.8889 -0.2638
37.4000 -24.9023 -0.2662
37.4200 -24.9157 -0.2652
37.4400 -24.9290 -0.2647
37.4600 -24.9423 -0.2623
37.4800 -24.9557 -0.2656
37.5000 -24.9690 -0.2637
37.5200 -24.9823 -0.2646
37.5400 -24.9956 -0.2604
37.5600 -25.0090 -0.2615
37.5800 -25.0223 -0.2602
37.6000 -25.0356 -0.2627
37.6200 -25.0489 -0.2612
37.6400 -25.0622 -0.2587
37.6600 -25.0756 -0.2578
37.6800 -25.0889 -0.2577
37.7000 -25.1023 -0.2580
37.7200 -25.1156 -0.2596
37.7400 -25.1290 -0.2582
37.7600 -25.1424 -0.2560
37.7800 -25.1557 -0.2564
37.8000 -25.1690 -0.2551
37.8200 -25.1823 -0.2548
37.8400 -25.1956 -0.2548
37.8600 -25.2090 -0.2525
37.8800 -25.2223 -0.2523
37.9000 -25.2356 -0.2529
37.9200 -25.2489 -0.2512
37.9400 -25.2623 -0.2494
37.9600 -25.2756 -0.2512
37.9800 -25.2889 -0.2480
38.0000 -25.3022 -0.2481
38.0200 -25.3156 -0.2483
38.0400 -25.3290 -0.2468
38.0600 -25.3423 -0.2436
38.0800 -25.3556 -0.2432
38.1000 -25.3690 -0.2430
38.1200 -25.3824 -0.2431
38.1400 -25.3957 -0.2440
38.1600 -25.4089 -0.2433
38.1800 -25.4222 -0.2417
38.2000 -25.4356 -0.2429
38.2200 -25.4490 -0.2427
38.2400 -25.4623 -0.2410
38.2600 -25.4756 -0.2406
38.2800 -25.4889 -0.2380
38.3000 -25.5023 -0.2383
38.3200 -25.5156 -0.2391
38.3400 -25.5289 -0.2394
38.3600 -25.5422 -0.2378
38.3800 -25.5556 -0.2387
38.4000 -25.5690 -0.2371
38.4200 -25.5823 -0.2371
38.4400 -25.5956 -0.2377
38.4600 -25.6089 -0.2360
38.4800 -25.6223 -0.2355
38.5000 -25.6357 -0.2366
38.5200 -25.6490 -0.2354
38.5400 -25.6623 -0.2356
38.5600 -25.6757 -0.2363
38.5800 -25.6890 -0.2349
38.6000 -25.7024 -0.2340
38.6200 -25.7156 -0.2349
38.6400 -25.7290 -0.2342
38.6600 -25.7423 -0.2322
38.6800 -25.7556 -0.2319
38.7000 -25.7689 -0.2320
38.7200 -25.7822 -0.2316
38.7400 -25.7956 -0.2299
38.7600 -25.8090 -0.2292
38.7800 -25.8223 -0.2305
38.8000 -25.8356 -0.2305
38.8200 -25.8490 -0.2291
38.8400 -25.8623 -0.2305
38.8600 -25.8757 -0.2284
38.8800 -25.8890 -0.2286
38.9000 -25.9023 -0.2273
38.9200 -25.9157 -0.2272
38.9400 -25.9290 -0.2261
38.9600 -25.9423 -0.2275
38.9800 -25.9556 -0.2266
39.0000 -25.9689 -0.2242
39.0200 -25.9823 -0.2243
39.0400 -25.9956 -0.2246
39.0600 -26.0089 -0.2229
39.0800 -26.0222 -0.2226
39.1000 -26.0356 -0.2207
39.1200 -26.0490 -0.2214
39.1400 -26.0623 -0.2223
39.1600 -26.0756 -0.2215
39.1800 -26.0889 -0.2219
39.2000 -26.1023 -0.2194
39.2200 -26.1156 -0.2193
39.2400 -26.1290 -0.2207
39.2600 -26.1423 -0.2184
39.2800 -26.1556 -0.2183
39.3000 -26.1690 -0.2166
39.3200 -26.1823 -0.2164
39.3400 -26.1957 -0.2187
39.3600 -26.2090 -0.2146
39.3800 -26.2223 -0.2158
39.4000 -26.2357 -0.2129
39.4200 -26.2489 -0.2136
39.4400 -26.2622 -0.2110
39.4600 -26.2756 -0.2114
39.4800 -26.2889 -0.2105
39.5000 -26.3023 -0.2122
39.5200 -26.3156 -0.2113
39.5400 -26.3290 -0.2120
39.5600 -26.3423 -0.2114
39.5800 -26.3557 -0.2124
39.6000 -26.3690 -0.2089
39.6200 -26.3823 -0.2089
39.6400 -26.3956 -0.2096
39.6600 -26.4090 -0.2088
39.6800 -26.4223 -0.2061
39.7000 -26.4356 -0.2066
39.7200 -26.4489 -0.2052
39.7400 -26.4623 -0.2064
39.7600 -26.4756 -0.2061
39.7800 -26.4889 -0.2051
39.8000 -26.5023 -0.2051
39.8200 -26.5156 -0.2048
39.8400 -26.5290 -0.2038
39.8600 -26.5423 -0.2041
39.8800 -26.5556 -0.2042
39.9000 -26.5690 -0.2028
39.9200 -26.5823 -0.2019
39.9400 -26.5957 -0.2007
39.9600 -26.6090 -0.2012
39.9800 -26.6223 -0.2003
40.0000 -26.6356 -0.2003
40.0200 -26.6490 -0.1992
40.0400 -26.6623 -0.1994
40.0600 -26.6756 -0.1965
40.0800 -26.6889 -0.2001
40.1000 -26.7023 -0.1978
40.1200 -26.7156 -0.1978
40.1400 -26.7289 -0.1967
40.1600 -26.7422 -0.1980
40.1800 -26.7556 -0.1959
40.2000 -26.7689 -0.1997
40.2200 -26.7823 -0.1976
40.2400 -26.7956 -0.1964
40.2600 -26.8089 -0.1960
40.2800 -26.8223 -0.1970
40.3000 -26.8357 -0.1960
40.3200 -26.8490 -0.1973
40.3400 -26.8623 -0.1962
40.3600 -26.8756 -0.1961
40.3800 -26.8890 -0.1955
40.4000 -26.9023 -0.1953
40.4200 -26.9156 -0.1949
40.4400 -26.9290 -0.1955
40.4600 -26.9423 -0.1946
40.4800 -26.9557 -0.1943
40.5000 -26.9690 -0.1956
40.5200 -26.9822 -0.1935
40.5400 -26.9956 -0.1912
40.5600 -27.0089 -0.1929
40.5800 -27.0222 -0.1904
40.6000 -27.0355 -0.1896
40.6200 -27.0489 -0.1917
40.6400 -27.0623 -0.1910
40.6600 -27.0757 -0.1895
40.6800 -27.0890 -0.1879
40.7000 -27.1023 -0.1882
40.7200 -27.1157 -0.1874
40.7400 -27.1290 -0.1868
40.7600 -27.1424 -0.1851
40.7800 -27.1557 -0.1854
40.8000 -27.1690 -0.1835
40.8200 -27.1823 -0.1839
40.8400 -27.1956 -0.1804
40.8600 -27.2090 -0.1815
40.8800 -27.2222 -0.1803
40.9000 -27.2356 -0.1816
40.9200 -27.2490 -0.1791
40.9400 -27.2623 -0.1790
40.9600 -27.2756 -0.1773
40.9800 -27.2890 -0.1771
41.0000 -27.3023 -0.1769
41.0200 -27.3157 -0.1777
41.0400 -27.3290 -0.1772
41.0600 -27.3423 -0.1766
41.0800 -27.3556 -0.1749
41.1000 -27.3690 -0.1747
41.1200 -27.3823 -0.1736
41.1400 -27.3957 -0.1744
41.1600 -27.4090 -0.1730
41.1800 -27.4223 -0.1716
41.2000 -27.4357 -0.1724
41.2200 -27.4489 -0.1736
41.2400 -27.4622 -0.1723
41.2600 -27.4756 -0.1718
41.2800 -27.4889 -0.1736
41.3000 -27.5023 -0.1721
41.3200 -27.5156 -0.1712
41.3400 -27.5290 -0.1719
41.3600 -27.5423 -0.1737
41.3800 -27.5557 -0.1712
41.4000 -27.5690 -0.1742
41.4200 -27.5823 -0.1726
41.4400 -27.5957 -0.1754
41.4600 -27.6090 -0.1734
41.4800 -27.6224 -0.1755
41.5000 -27.6357 -0.1734
41.5200 -27.6490 -0.1742
41.5400 -27.6623 -0.1731
41.5600 -27.6756 -0.1745
41.5800 -27.6889 -0.1731
41.6000 -27.7022 -0.1725
41.6200 -27.7155 -0.1710
41.6400 -27.7289 -0.1714
41.6600 -27.7423 -0.1718
41.6800 -27.7556 -0.1703
41.7000 -27.7689 -0.1729
41.7200 -27.7823 -0.1717
41.7400 -27.7957 -0.1709
41.7600 -27.8090 -0.1689
41.7800 -27.8223 -0.1709
41.8000 -27.8357 -0.1671
41.8200 -27.8490 -0.1684
41.8400 -27.8624 -0.1658
41.8600 -27.8757 -0.1676
41.8800 -27.8890 -0.1659
41.9000 -27.9023 -0.1665
41.9200 -27.9156 -0.1649
41.9400 -27.9290 -0.1649
41.9600 -27.9422 -0.1641
41.9800 -27.9556 -0.1627
42.0000 -27.9689 -0.1642
42.0200 -27.9823 -0.1637
42.0400 -27.9956 -0.1627
42.0600 -28.0089 -0.1602
42.0800 -28.0223 -0.1614
42.1000 -28.0356 -0.1594
42.1200 -28.0490 -0.1588
42.1400 -28.0623 -0.1595
42.1600 -28.0756 -0.1583
42.1800 -28.0890 -0.1595
42.2000 -28.1024 -0.1569
42.2200 -28.1157 -0.1544
42.2400 -28.1290 -0.1542
42.2600 -28.1423 -0.1569
42.2800 -28.1557 -0.1550
42.3000 -28.1690 -0.1561
42.3200 -28.1822 -0.1547
42.3400 -28.1956 -0.1561
42.3600 -28.2089 -0.1520
42.3800 -28.2223 -0.1524
42.4000 -28.2356 -0.1520
42.4200 -28.2489 -0.1549
42.4400 -28.2623 -0.1541
42.4600 -28.2756 -0.1515
42.4800 -28.2890 -0.1495
42.5000 -28.3023 -0.1502
42.5200 -28.3156 -0.1478
42.5400 -28.3290 -0.1488
42.5600 -28.3424 -0.1492
42.5800 -28.3557 -0.1481
42.6000 -28.3690 -0.1471
42.6200 -28.3823 -0.1486
42.6400 -28.3956 -0.1467
42.6600 -28.4090 -0.1440
42.6800 -28.4223 -0.1446
42.7000 -28.4356 -0.1443
42.7200 -28.4489 -0.1464
42.7400 -28.4623 -0.1429
42.7600 -28.4756 -0.1430
42.7800 -28.4889 -0.1418
42.8000 -28.5022 -0.1429
42.8200 -28.5156 -0.1426
42.8400 -28.5290 -0.1437
42.8600 -28.5424 -0.1436
42.8800 -28.5557 -0.1442
42.9000 -28.5690 -0.1412
42.9200 -28.5824 -0.1415
42.9400 -28.5957 -0.1401
42.9600 -28.6089 -0.1407
42.9800 -28.6222 -0.1417
43.0000 -28.6356 -0.1385
43.0200 -28.6489 -0.1370
43.0400 -28.6622 -0.1380
43.0600 -28.6755 -0.1365
43.0800 -28.6889 -0.1381
43.1000 -28.7023 -0.1352
43.1200 -28.7156 -0.1352
43.1400 -28.7290 -0.1349
43.1600 -28.7423 -0.1366
43.1800 -28.7557 -0.1332
43.2000 -28.7690 -0.1322
43.2200 -28.7823 -0.1333
43.2400 -28.7956 -0.1326
43.2600 -28.8090 -0.1304
43.2800 -28.8224 -0.1343
43.3000 -28.8357 -0.1303
43.3200 -28.8490 -0.1318
43.3400 -28.8623 -0.1305
43.3600 -28.8757 -0.1303
43.3800 -28.8890 -0.1282
43.4000 -28.9023 -0.1300
43.4200 -28.9156 -0.1275
43.4400 -28.9289 -0.1257
43.4600 -28.9423 -0.1297
43.4800 -28.9556 -0.1257
43.5000 -28.9689 -0.1272
43.5200 -28.9823 -0.1268
43.5400 -28.9957 -0.1248
43.5600 -29.0090 -0.1236
43.5800 -29.0223 -0.1272
43.6000 -29.0356 -0.1214
43.6200 -29.0490 -0.1231
43.6400 -29.0623 -0.1226
43.6600 -29.0757 -0.1233
43.6800 -29.0890 -0.1237
43.7000 -29.1023 -0.1214
43.7200 -29.1156 -0.1178
43.7400 -29.1290 -0.1202
43.7600 -29.1423 -0.1227
43.7800 -29.1556 -0.1222
43.8000 -29.1689 -0.1211
43.8200 -29.1823 -0.1222
43.8400 -29.1956 -0.1197
43.8600 -29.2090 -0.1202
43.8800 -29.2223 -0.1214
43.9000 -29.2356 -0.1203
43.9200 -29.2490 -0.1186
43.9400 -29.2623 -0.1213
43.9600 -29.2756 -0.1193
43.9800 -29.2890 -0.1178
44.0000 -29.3023 -0.1213
44.0200 -29.3156 -0.1171
44.0400 -29.3289 -0.1201
44.0600 -29.3423 -0.1203
44.0800 -29.3556 -0.1214
44.1000 -29.3689 -0.1195
44.1200 -29.3822 -0.1214
44.1400 -29.3955 -0.1186
44.1600 -29.4089 -0.1192
44.1800 -29.4223 -0.1165
44.2000 -29.4356 -0.1184
44.2200 -29.4490 -0.1197
44.2400 -29.4623 -0.1193
44.2600 -29.4757 -0.1179
44.2800 -29.4890 -0.1181
44.3000 -29.5023 -0.1190
44.3200 -29.5156 -0.1183
44.3400 -29.5290 -0.1182
44.3600 -29.5423 -0.1178
44.3800 -29.5557 -0.1154
44.4000 -29.5690 -0.1162
44.4200 -29.5823 -0.1183
44.4400 -29.5956 -0.1164
44.4600 -29.6089 -0.1157
44.4800 -29.6222 -0.1162
44.5000 -29.6355 -0.1159
44.5200 -29.6489 -0.1155
44.5400 -29.6623 -0.1156
44.5600 -29.6756 -0.1135
44.5800 -29.6889 -0.1124
44.6000 -29.7023 -0.1149
44.6200 -29.7156 -0.1135
44.6400 -29.7290 -0.1107
44.6600 -29.7424 -0.1123
44.6800 -29.7557 -0.1117
44.7000 -29.7690 -0.1110
44.7200 -29.7823 -0.1098
44.7400 -29.7957 -0.1107
44.7600 -29.8090 -0.1079
44.7800 -29.8223 -0.1090
44.8000 -29.8356 -0.1087
44.8200 -29.8490 -0.1075
44.8400 -29.8622 -0.1073
44.8600 -29.8755 -0.1060
44.8800 -29.8889 -0.1034
44.9000 -29.9022 -0.1036
44.9200 -29.9156 -0.1001
44.9400 -29.9289 -0.1024
44.9600 -29.9423 -0.1006
44.9800 -29.9557 -0.1015
45.0000 -29.9691 -0.0975
45.0200 -29.9824 -0.0998
45.0400 -29.9957 -0.0980
45.0600 -30.0090 -0.0978
45.0800 -30.0223 -0.0977
45.1000 -30.0357 -0.0970
45.1200 -30.0490 -0.0946
45.1400 -30.0623 -0.0973
45.1600 -30.0756 -0.0945
45.1800 -30.0889 -0.0945
45.2000 -30.1022 -0.0967
45.2200 -30.1155 -0.0949
45.2400 -30.1289 -0.0942
45.2600 -30.1423 -0.0914
45.2800 -30.1556 -0.0951
45.3000 -30.1690 -0.0910
45.3200 -30.1823 -0.0933
45.3400 -30.1956 -0.0911
45.3600 -30.2090 -0.0921
45.3800 -30.2223 -0.0933
45.4000 -30.2356 -0.0939
45.4200 -30.2489 -0.0887
45.4400 -30.2623 -0.0913
45.4600 -30.2756 -0.0884
45.4800 -30.2890 -0.0901
45.5000 -30.3023 -0.0895
45.5200 -30.3156 -0.0903
45.5400 -30.3290 -0.0875
45.5600 -30.3423 -0.0907
45.5800 -30.3556 -0.0878
45.6000 -30.3689 -0.0871
45.6200 -30.3823 -0.0879
45.6400 -30.3956 -0.0897
45.6600 -30.4089 -0.0880
45.6800 -30.4223 -0.0902
45.7000 -30.4356 -0.0878
45.7200 -30.4490 -0.0877
45.7400 -30.4624 -0.0883
45.7600 -30.4757 -0.0883
45.7800 -30.4890 -0.0855
45.8000 -30.5023 -0.0856
45.8200 -30.5157 -0.0874
45.8400 -30.5290 -0.0851
45.8600 -30.5423 -0.0860
45.8800 -30.5556 -0.0872
45.9000 -30.5690 -0.0834
45.9200 -30.5823 -0.0843
45.9400 -30.5956 -0.0807
45.9600 -30.6089 -0.0798
45.9800 -30.6222 -0.0823
46.0000 -30.6356 -0.0822
46.0200 -30.6489 -0.0820
46.0400 -30.6622 -0.0838
46.0600 -30.6756 -0.0820
46.0800 -30.6890 -0.0801
46.1000 -30.7023 -0.0808
46.1200 -30.7156 -0.0791
46.1400 -30.7290 -0.0788
46.1600 -30.7423 -0.0789
46.1800 -30.7557 -0.0795
46.2000 -30.7690 -0.0772
46.2200 -30.7823 -0.0798
46.2400 -30.7956 -0.0779
46.2600 -30.8090 -0.0772
46.2800 -30.8223 -0.0771
46.3000 -30.8356 -0.0769
46.3200 -30.8489 -0.0741
46.3400 -30.8623 -0.0751
46.3600 -30.8756 -0.0751
46.3800 -30.8889 -0.0744
46.4000 -30.9023 -0.0736
46.4200 -30.9156 -0.0749
46.4400 -30.9290 -0.0722
46.4600 -30.9423 -0.0736
46.4800 -30.9556 -0.0726
46.5000 -30.9690 -0.0686
46.5200 -30.9823 -0.0717
46.5400 -30.9957 -0.0725
46.5600 -31.0090 -0.0696
46.5800 -31.0223 -0.0697
46.6000 -31.0357 -0.0691
46.6200 -31.0490 -0.0669
46.6400 -31.0623 -0.0678
46.6600 -31.0756 -0.0669
46.6800 -31.0889 -0.0640
46.7000 -31.1023 -0.0645
46.7200 -31.1156 -0.0661
46.7400 -31.1290 -0.0630
46.7600 -31.1423 -0.0650
46.7800 -31.1556 -0.0626
46.8000 -31.1690 -0.0606
46.8200 -31.1824 -0.0610
46.8400 -31.1957 -0.0636
46.8600 -31.2090 -0.0612
46.8800 -31.2223 -0.0640
46.9000 -31.2356 -0.0634
46.9200 -31.2490 -0.0590
46.9400 -31.2623 -0.0601
46.9600 -31.2756 -0.0588
46.9800 -31.2890 -0.0569
47.0000 -31.3023 -0.0580
47.0200 -31.3156 -0.0589
47.0400 -31.3289 -0.0559
47.0600 -31.3423 -0.0566
47.0800 -31.3557 -0.0538
47.1000 -31.3690 -0.0535
47.1200 -31.3823 -0.0554
47.1400 -31.3956 -0.0552
47.1600 -31.4090 -0.0543
47.1800 -31.4224 -0.0542
47.2000 -31.4357 -0.0542
47.2200 -31.4490 -0.0519
47.2400 -31.4623 -0.0527
47.2600 -31.4757 -0.0529
47.2800 -31.4890 -0.0508
47.3000 -31.5023 -0.0530
47.3200 -31.5156 -0.0502
47.3400 -31.5289 -0.0503
47.3600 -31.5423 -0.0497
47.3800 -31.5556 -0.0495
47.4000 -31.5689 -0.0462
47.4200 -31.5823 -0.0495
47.4400 -31.5956 -0.0473
47.4600 -31.6090 -0.0479
47.4800 -31.6223 -0.0473
47.5000 -31.6356 -0.0484
47.5200 -31.6490 -0.0464
47.5400 -31.6623 -0.0471
47.5600 -31.6756 -0.0468
47.5800 -31.6890 -0.0473
47.6000 -31.7023 -0.0478
47.6200 -31.7157 -0.0484
47.6400 -31.7290 -0.0468
47.6600 -31.7423 -0.0452
47.6800 -31.7557 -0.0461
47.7000 -31.7690 -0.0433
47.7200 -31.7823 -0.0423
47.7400 -31.7956 -0.0429
47.7600 -31.8089 -0.0393
47.7800 -31.8222 -0.0413
47.8000 -31.8356 -0.0424
47.8200 -31.8489 -0.0401
47.8400 -31.8622 -0.0426
47.8600 -31.8756 -0.0412
47.8800 -31.8890 -0.0388
47.9000 -31.9024 -0.0376
47.9200 -31.9157 -0.0380
47.9400 -31.9290 -0.0361
47.9600 -31.9423 -0.0367
47.9800 -31.9557 -0.0365
48.0000 -31.9690 -0.0357
48.0200 -31.9823 -0.0353
48.0400 -31.9956 -0.0359
48.0600 -32.0090 -0.0328
48.0800 -32.0223 -0.0324
48.1000 -32.0356 -0.0315
48.1200 -32.0489 -0.0320
48.1400 -32.0623 -0.0323
48.1600 -32.0756 -0.0334
48.1800 -32.0890 -0.0281
48.2000 -32.1023 -0.0303
48.2200 -32.1156 -0.0278
48.2400 -32.1290 -0.0279
48.2600 -32.1424 -0.0265
48.2800 -32.1557 -0.0289
48.3000 -32.1690 -0.0254
48.3200 -32.1823 -0.0273
48.3400 -32.1957 -0.0269
48.3600 -32.2090 -0.0260
48.3800 -32.2223 -0.0244
48.4000 -32.2356 -0.0257
48.4200 -32.2490 -0.0240
48.4400 -32.2623 -0.0260
48.4600 -32.2756 -0.0268
48.4800 -32.2889 -0.0257
48.5000 -32.3022 -0.0237
48.5200 -32.3156 -0.0254
48.5400 -32.3289 -0.0243
48.5600 -32.3422 -0.0235
48.5800 -32.3556 -0.0230
48.6000 -32.3690 -0.0212
48.6200 -32.3823 -0.0215
48.6400 -32.3957 -0.0236
48.6600 -32.4090 -0.0209
48.6800 -32.4223 -0.0222
48.7000 -32.4357 -0.0228
48.7200 -32.4490 -0.0194
48.7400 -32.4623 -0.0196
48.7600 -32.4756 -0.0193
48.7800 -32.4890 -0.0209
48.8000 -32.5023 -0.0195
48.8200 -32.5156 -0.0232
48.8400 -32.5289 -0.0197
48.8600 -32.5422 -0.0215
48.8800 -32.5556 -0.0202
48.9000 -32.5690 -0.0194
48.9200 -32.5823 -0.0189
48.9400 -32.5956 -0.0217
48.9600 -32.6090 -0.0187
48.9800 -32.6224 -0.0187
49.0000 -32.6357 -0.0178
49.0200 -32.6490 -0.0160
49.0400 -32.6623 -0.0163
49.0600 -32.6757 -0.0185
49.0800 -32.6890 -0.0156
49.1000 -32.7023 -0.0159
49.1200 -32.7156 -0.0187
49.1400 -32.7290 -0.0162
49.1600 -32.7423 -0.0174
49.1800 -32.7556 -0.0166
49.2000 -32.7689 -0.0154
49.2200 -32.7823 -0.0150
49.2400 -32.7956 -0.0156
49.2600 -32.8090 -0.0135
49.2800 -32.8223 -0.0133
49.3000 -32.8356 -0.0135
49.3200 -32.8489 -0.0114
49.3400 -32.8623 -0.0107
49.3600 -32.8756 -0.0121
49.3800 -32.8890 -0.0108
49.4000 -32.9023 -0.0100
49.4200 -32.9157 -0.0122
49.4400 -32.9290 -0.0079
49.4600 -32.9423 -0.0080
49.4800 -32.9557 -0.0085
49.5000 -32.9690 -0.0076
49.5200 -32.9823 -0.0073
49.5400 -32.9956 -0.0101
49.5600 -33.0089 -0.0072
49.5800 -33.0222 -0.0053
49.6000 -33.0356 -0.0074
49.6200 -33.0490 -0.0051
49.6400 -33.0623 -0.0039
49.6600 -33.0756 -0.0045
49.6800 -33.0889 -0.0037
49.7000 -33.1023 -0.0029
49.7200 -33.1156 -0.0034
49.7400 -33.1289 -0.0026
49.7600 -33.1423 -0.0032
49.7800 -33.1557 -0.0023
49.8000 -33.1690 -0.0002
49.8200 -33.1823 -0.0007
49.8400 -33.1956 -0.0018
49.8600 -33.2090 -0.0009
49.8800 -33.2223 0.0016
49.9000 -33.2356 -0.0022
49.9200 -33.2489 0.0012
49.9400 -33.2622 -0.0004
49.9600 -33.2756 0.0013
49.9800 -33.2889 0.0012
50.0000 -33.3022 0.0017
50.0200 -33.3156 -0.0018
50.0400 -33.3289 0.0019
50.0600 -33.3423 0.0031
50.0800 -33.3557 0.0050
50.1000 -33.3690 0.0037
50.1200 -33.3823 0.0041
50.1400 -33.3957 0.0031
50.1600 -33.4090 0.0062
50.1800 -33.4223 0.0080
50.2000 -33.4356 0.0050
50.2200 -33.4489 0.0095
50.2400 -33.4622 0.0090
50.2600 -33.4755 0.0078
50.2800 -33.4889 0.0075
50.3000 -33.5022 0.0096
50.3200 -33.5156 0.0097
50.3400 -33.5290 0.0136
50.3600 -33.5423 0.0123
50.3800 -33.5556 0.0110
50.4000 -33.5690 0.0125
50.4200 -33.5824 0.0155
50.4400 -33.5957 0.0137
50.4600 -33.6090 0.0158
50.4800 -33.6223 0.0180
50.5000 -33.6357 0.0161
50.5200 -33.6490 0.0156
50.5400 -33.6624 0.0167
50.5600 -33.6757 0.0170
50.5800 -33.6890 0.0178
50.6000 -33.7023 0.0197
50.6200 -33.7156 0.0195
50.6400 -33.7289 0.0205
50.6600 -33.7423 0.0262
50.6800 -33.7556 0.0238
50.7000 -33.7690 0.0250
50.7200 -33.7823 0.0242
50.7400 -33.7956 0.0234
50.7600 -33.8089 0.0242
50.7800 -33.8223 0.0265
50.8000 -33.8357 0.0241
50.8200 -33.8490 0.0282
50.8400 -33.8623 0.0257
50.8600 -33.8756 0.0252
50.8800 -33.8890 0.0244
50.9000 -33.9023 0.0284
50.9200 -33.9156 0.0256
50.9400 -33.9289 0.0284
50.9600 -33.9423 0.0273
50.9800 -33.9556 0.0273
51.0000 -33.9689 0.0270
51.0200 -33.9822 0.0287
51.0400 -33.9955 0.0258
51.0600 -34.0089 0.0291
51.0800 -34.0223 0.0287
51.1000 -34.0356 0.0272
51.1200 -34.0490 0.0276
51.1400 -34.0623 0.0284
51.1600 -34.0757 0.0271
51.1800 -34.0890 0.0274
51.2000 -34.1023 0.0299
51.2200 -34.1156 0.0248
51.2400 -34.1290 0.0272
51.2600 -34.1423 0.0289
51.2800 -34.1556 0.0292
51.3000 -34.1689 0.0284
51.3200 -34.1823 0.0308
51.3400 -34.1956 0.0293
51.3600 -34.2089 0.0314
51.3800 -34.2222 0.0301
51.4000 -34.2356 0.0295
51.4200 -34.2490 0.0290
51.4400 -34.2623 0.0308
51.4600 -34.2756 0.0298
51.4800 -34.2890 0.0326
51.5000 -34.3024 0.0348
51.5200 -34.3157 0.0320
51.5400 -34.3290 0.0324
51.5600 -34.3423 0.0341
51.5800 -34.3557 0.0324
51.6000 -34.3690 0.0352
51.6200 -34.3823 0.0348
51.6400 -34.3956 0.0342
51.6600 -34.4090 0.0358
51.6800 -34.4223 0.0380
51.7000 -34.4356 0.0356
51.7200 -34.4489 0.0358
51.7400 -34.4622 0.0373
51.7600 -34.4756 0.0381
51.7800 -34.4889 0.0395
51.8000 -34.5023 0.0422
51.8200 -34.5156 0.0393
51.8400 -34.5290 0.0434
51.8600 -34.5424 0.0423
51.8800 -34.5557 0.0417
51.9000 -34.5690 0.0439
51.9200 -34.5823 0.0449
51.9400 -34.5957 0.0443
51.9600 -34.6090 0.0451
51.9800 -34.6223 0.0464
52.0000 -34.6356 0.0464
52.0200 -34.6489 0.0476
52.0400 -34.6623 0.0487
52.0600 -34.6756 0.0486
52.0800 -34.6889 0.0497
52.1000 -34.7022 0.0527
52.1200 -34.7155 0.0503
52.1400 -34.7289 0.0508
52.1600 -34.7422 0.0506
52.1800 -34.7556 0.0507
52.2000 -34.7690 0.0511
52.2200 -34.7823 0.0529
52.2400 -34.7957 0.0535
52.2600 -34.8090 0.0539
52.2800 -34.8223 0.0580
52.3000 -34.8357 0.0562
52.3200 -34.8490 0.0569
52.3400 -34.8623 0.0596
52.3600 -34.8756 0.0580
52.3800 -34.8889 0.0591
52.4000 -34.9023 0.0620
52.4200 -34.9156 0.0603
52.4400 -34.9289 0.0608
52.4600 -34.9422 0.0629
52.4800 -34.9556 0.0636
52.5000 -34.9690 0.0637
52.5200 -34.9823 0.0665
52.5400 -34.9956 0.0650
52.5600 -35.0090 0.0647
52.5800 -35.0223 0.0693
52.6000 -35.0357 0.0662
52.6200 -35.0490 0.0674
52.6400 -35.0622 0.0685
52.6600 -35.0756 0.0674
52.6800 -35.0889 0.0688
52.7000 -35.1023 0.0711
52.7200 -35.1156 0.0717
52.7400 -35.1290 0.0694
52.7600 -35.1423 0.0724
52.7800 -35.1557 0.0711
52.8000 -35.1690 0.0703
52.8200 -35.1823 0.0728
52.8400 -35.1956 0.0716
52.8600 -35.2089 0.0702
52.8800 -35.2223 0.0723
52.9000 -35.2356 0.0704
52.9200 -35.2490 0.0712
52.9400 -35.2623 0.0738
52.9600 -35.2757 0.0713
52.9800 -35.2890 0.0714
53.0000 -35.3023 0.0730
53.0200 -35.3156 0.0722
53.0400 -35.3290 0.0708
53.0600 -35.3424 0.0735
53.0800 -35.3556 0.0720
53.1000 -35.3690 0.0733
53.1200 -35.3823 0.0753
53.1400 -35.3956 0.0735
53.1600 -35.4089 0.0724
53.1800 -35.4222 0.0745
53.2000 -35.4356 0.0722
53.2200 -35.4489 0.0765
53.2400 -35.4623 0.0753
53.2600 -35.4756 0.0784
53.2800 -35.4889 0.0757
53.3000 -35.5023 0.0801
53.3200 -35.5157 0.0785
53.3400 -35.5290 0.0774
53.3600 -35.5423 0.0759
53.3800 -35.5557 0.0786
53.4000 -35.5690 0.0787
53.4200 -35.5823 0.0803
53.4400 -35.5956 0.0770
53.4600 -35.6089 0.0776
53.4800 -35.6223 0.0780
53.5000 -35.6356 0.0800
53.5200 -35.6489 0.0788
53.5400 -35.6622 0.0809
53.5600 -35.6756 0.0814
53.5800 -35.6889 0.0821
53.6000 -35.7023 0.0846
53.6200 -35.7156 0.0824
53.6400 -35.7289 0.0797
53.6600 -35.7423 0.0805
53.6800 -35.7557 0.0826
53.7000 -35.7690 0.0834
53.7200 -35.7823 0.0846
53.7400 -35.7956 0.0827
53.7600 -35.8090 0.0824
53.7800 -35.8223 0.0843
53.8000 -35.8356 0.0840
53.8200 -35.8490 0.0857
53.8400 -35.8623 0.0879
53.8600 -35.8757 0.0860
53.8800 -35.8890 0.0853
53.9000 -35.9022 0.0890
53.9200 -35.9156 0.0901
53.9400 -35.9289 0.0869
53.9600 -35.9423 0.0895
53.9800 -35.9556 0.0881
54.0000 -35.9689 0.0900
54.0200 -35.9823 0.0894
54.0400 -35.9957 0.0909
54.0600 -36.0090 0.0900
54.0800 -36.0223 0.0922
54.1000 -36.0356 0.0895
54.1200 -36.0490 0.0921
54.1400 -36.0623 0.0940
54.1600 -36.0756 0.0959
54.1800 -36.0889 0.0921
54.2000 -36.1023 0.0968
54.2200 -36.1156 0.0941
54.2400 -36.1289 0.0951
54.2600 -36.1422 0.0954
54.2800 -36.1556 0.0965
54.3000 -36.1690 0.0946
54.3200 -36.1823 0.0988
54.3400 -36.1956 0.0978
54.3600 -36.2090 0.0965
54.3800 -36.2223 0.0984
54.4000 -36.2357 0.0986
54.4200 -36.2490 0.0971
54.4400 -36.2623 0.0991
54.4600 -36.2756 0.1004
54.4800 -36.2890 0.0991
54.5000 -36.3023 0.1042
54.5200 -36.3156 0.1032
54.5400 -36.3289 0.1023
54.5600 -36.3423 0.1036
54.5800 -36.3556 0.1043
54.6000 -36.3689 0.1047
54.6200 -36.3822 0.1072
54.6400 -36.3956 0.1062
54.6600 -36.4090 0.1059
54.6800 -36.4223 0.1080
54.7000 -36.4356 0.1094
54.7200 -36.4489 0.1078
54.7400 -36.4623 0.1107
54.7600 -36.4757 0.1102
54.7800 -36.4890 0.1115
54.8000 -36.5023 0.1129
54.8200 -36.5156 0.1152
54.8400 -36.5290 0.1110
54.8600 -36.5423 0.1135
54.8800 -36.5556 0.1128
54.9000 -36.5690 0.1140
54.9200 -36.5823 0.1151
54.9400 -36.5957 0.1151
54.9600 -36.6090 0.1140
54.9800 -36.6223 0.1172
55.0000 -36.6356 0.1181
55.0200 -36.6489 0.1164
55.0400 -36.6622 0.1207
55.0600 -36.6755 0.1166
55.0800 -36.6889 0.1198
55.1000 -36.7022 0.1218
55.1200 -36.7156 0.1230
55.1400 -36.7290 0.1226
55.1600 -36.7423 0.1235
55.1800 -36.7557 0.1224
55.2000 -36.7690 0.1238
55.2200 -36.7824 0.1262
55.2400 -36.7957 0.1248
55.2600 -36.8090 0.1258
55.2800 -36.8223 0.1268
55.3000 -36.8356 0.1281
55.3200 -36.8489 0.1261
55.3400 -36.8622 0.1296
55.3600 -36.8756 0.1291
55.3800 -36.8889 0.1264
55.4000 -36.9023 0.1274
55.4200 -36.9156 0.1275
55.4400 -36.9289 0.1279
55.4600 -36.9423 0.1285
55.4800 -36.9557 0.1294
55.5000 -36.9690 0.1298
55.5200 -36.9823 0.1312
55.5400 -36.9956 0.1295
55.5600 -37.0090 0.1304
55.5800 -37.0223 0.1323
55.6000 -37.0357 0.1338
55.6200 -37.0490 0.1317
55.6400 -37.0623 0.1323
55.6600 -37.0756 0.1353
55.6800 -37.0889 0.1369
55.7000 -37.1022 0.1354
55.7200 -37.1155 0.1361
55.7400 -37.1289 0.1371
55.7600 -37.1423 0.1384
55.7800 -37.1556 0.1388
55.8000 -37.1689 0.1364
55.8200 -37.1823 0.1392
55.8400 -37.1957 0.1385
55.8600 -37.2090 0.1398
55.8800 -37.2223 0.1390
55.9000 -37.2356 0.1418
55.9200 -37.2490 0.1403
55.9400 -37.2624 0.1427
55.9600 -37.2757 0.1424
55.9800 -37.2890 0.1433
56.0000 -37.3023 0.1434
56.0200 -37.3156 0.1464
56.0400 -37.3289 0.1435
56.0600 -37.3422 0.1459
56.0800 -37.3555 0.1450
56.1000 -37.3689 0.1437
56.1200 -37.3823 0.1464
56.1400 -37.3956 0.1479
56.1600 -37.4089 0.1473
56.1800 -37.4223 0.1480
56.2000 -37.4357 0.1483
56.2200 -37.4490 0.1509
56.2400 -37.4623 0.1528
56.2600 -37.4757 0.1530
56.2800 -37.4890 0.1516
56.3000 -37.5024 0.1525
56.3200 -37.5157 0.1524
56.3400 -37.5290 0.1522
56.3600 -37.5423 0.1547
56.3800 -37.5556 0.1570
56.4000 -37.5690 0.1565
56.4200 -37.5823 0.1564
56.4400 -37.5956 0.1570
56.4600 -37.6089 0.1553
56.4800 -37.6223 0.1575
56.5000 -37.6356 0.1571
56.5200 -37.6489 0.1569
56.5400 -37.6623 0.1580
56.5600 -37.6756 0.1613
56.5800 -37.6890 0.1582
56.6000 -37.7023 0.1612
56.6200 -37.7156 0.1596
56.6400 -37.7290 0.1628
56.6600 -37.7423 0.1620
56.6800 -37.7557 0.1639
56.7000 -37.7690 0.1622
56.7200 -37.7823 0.1650
56.7400 -37.7957 0.1638
56.7600 -37.8090 0.1680
56.7800 -37.8223 0.1656
56.8000 -37.8356 0.1685
56.8200 -37.8489 0.1661
56.8400 -37.8623 0.1673
56.8600 -37.8756 0.1687
56.8800 -37.8889 0.1689
56.9000 -37.9023 0.1706
56.9200 -37.9156 0.1716
56.9400 -37.9290 0.1729
56.9600 -37.9423 0.1741
56.9800 -37.9556 0.1730
57.0000 -37.9690 0.1728
57.0200 -37.9824 0.1739
57.0400 -37.9957 0.1735
57.0600 -38.0090 0.1738
57.0800 -38.0223 0.1733
57.1000 -38.0357 0.1745
57.1200 -38.0490 0.1749
57.1400 -38.0623 0.1767
57.1600 -38.0756 0.1772
57.1800 -38.0889 0.1761
57.2000 -38.1023 0.1765
57.2200 -38.1156 0.1786
57.2400 -38.1289 0.1776
57.2600 -38.1423 0.1789
57.2800 -38.1556 0.1789
57.3000 -38.1690 0.1817
57.3200 -38.1824 0.1798
57.3400 -38.1957 0.1832
57.3600 -38.2090 0.1799
57.3800 -38.2224 0.1826
57.4000 -38.2357 0.1817
57.4200 -38.2490 0.1826
57.4400 -38.2622 0.1802
57.4600 -38.2756 0.1840
57.4800 -38.2889 0.1827
57.5000 -38.3022 0.1837
57.5200 -38.3155 0.1820
57.5400 -38.3289 0.1824
57.5600 -38.3423 0.1857
57.5800 -38.3556 0.1855
57.6000 -38.3689 0.1869
57.6200 -38.3823 0.1869
57.6400 -38.3957 0.1856
57.6600 -38.4090 0.1878
57.6800 -38.4223 0.1899
57.7000 -38.4356 0.1911
57.7200 -38.4490 0.1894
57.7400 -38.4623 0.1928
57.7600 -38.4757 0.1926
57.7800 -38.4890 0.1932
57.8000 -38.5023 0.1939
57.8200 -38.5156 0.1947
57.8400 -38.5290 0.1948
57.8600 -38.5423 0.1942
57.8800 -38.5556 0.1985
57.9000 -38.5689 0.1971
57.9200 -38.5823 0.1964
57.9400 -38.5956 0.1999
57.9600 -38.6089 0.1998
57.9800 -38.6223 0.1980
58.0000 -38.6356 0.1990
58.0200 -38.6490 0.2007
58.0400 -38.6623 0.2041
58.0600 -38.6756 0.2028
58.0800 -38.6890 0.2034
58.1000 -38.7023 0.2030
58.1200 -38.7157 0.2045
58.1400 -38.7290 0.2040
58.1600 -38.7423 0.2058
58.1800 -38.7556 0.2056
58.2000 -38.7690 0.2071
58.2200 -38.7823 0.2094
58.2400 -38.7956 0.2086
58.2600 -38.8089 0.2095
58.2800 -38.8223 0.2081
58.3000 -38.8356 0.2117
58.3200 -38.8490 0.2115
58.3400 -38.8623 0.2086
58.3600 -38.8756 0.2093
58.3800 -38.8890 0.2118
58.4000 -38.9023 0.2107
58.4200 -38.9156 0.2142
58.4400 -38.9290 0.2125
58.4600 -38.9423 0.2102
58.4800 -38.9557 0.2142
58.5000 -38.9690 0.2147
58.5200 -38.9823 0.2171
58.5400 -38.9956 0.2172
58.5600 -39.0089 0.2154
58.5800 -39.0222 0.2153
58.6000 -39.0356 0.2185
58.6200 -39.0489 0.2154
58.6400 -39.0623 0.2192
58.6600 -39.0756 0.2198
58.6800 -39.0890 0.2201
58.7000 -39.1023 0.2192
58.7200 -39.1156 0.2177
58.7400 -39.1290 0.2206
58.7600 -39.1423 0.2191
58.7800 -39.1556 0.2246
58.8000 -39.1690 0.2197
58.8200 -39.1823 0.2222
58.8400 -39.1957 0.2239
58.8600 -39.2090 0.2238
58.8800 -39.2223 0.2232
58.9000 -39.2356 0.2241
58.9200 -39.2490 0.2243
58.9400 -39.2622 0.2249
58.9600 -39.2755 0.2254
58.9800 -39.2889 0.2275
59.0000 -39.3022 0.2279
59.0200 -39.3156 0.2294
59.0400 -39.3289 0.2285
59.0600 -39.3422 0.2292
59.0800 -39.3556 0.2336
59.1000 -39.3690 0.2330
59.1200 -39.3824 0.2339
59.1400 -39.3957 0.2317
59.1600 -39.4090 0.2373
59.1800 -39.4223 0.2345
59.2000 -39.4357 0.2369
59.2200 -39.4490 0.2356
59.2400 -39.4623 0.2371
59.2600 -39.4756 0.2381
59.2800 -39.4889 0.2407
59.3000 -39.5022 0.2402
59.3200 -39.5155 0.2414
59.3400 -39.5289 0.2389
59.3600 -39.5422 0.2387
59.3800 -39.5556 0.2430
59.4000 -39.5689 0.2407
59.4200 -39.5823 0.2436
59.4400 -39.5956 0.2441
59.4600 -39.6090 0.2443
59.4800 -39.6224 0.2461
59.5000 -39.6357 0.2462
59.5200 -39.6490 0.2488
59.5400 -39.6623 0.2451
59.5600 -39.6757 0.2488
59.5800 -39.6890 0.2445
59.6000 -39.7023 0.2486
59.6200 -39.7156 0.2516
59.6400 -39.7290 0.2490
59.6600 -39.7423 0.2490
59.6800 -39.7556 0.2534
59.7000 -39.7689 0.2540
59.7200 -39.7823 0.2578
59.7400 -39.7956 0.2567
59.7600 -39.8090 0.2528
59.7800 -39.8223 0.2557
59.8000 -39.8356 0.2579
59.8200 -39.8490 0.2608
59.8400 -39.8623 0.2606
59.8600 -39.8756 0.2602
59.8800 -39.8889 0.2603
59.9000 -39.9023 0.2618
59.9200 -39.9156 0.2628
59.9400 -39.9290 0.2634
59.9600 -39.9423 0.2634
59.9800 -39.9556 0.2645
60.0000 -39.9690 0.2657
60.0200 -39.9823 0.2667
60.0400 -39.9956 0.2666
60.0470 -40.0001 0.2700
